# z (nm)   (kJ/mol)
  0.0620  270.57503
  0.0640  268.13492
  0.0660  265.73097
  0.0680  263.10545
  0.0700  260.33565
  0.0720  257.79451
  0.0740  255.26379
  0.0760  252.73048
  0.0780  250.16712
  0.0800  247.58362
  0.0820  244.93827
  0.0840  242.24439
  0.0860  239.48614
  0.0880  236.64084
  0.0900  233.69697
  0.0920  230.64139
  0.0940  227.45955
  0.0960  224.14340
  0.0980  220.68112
  0.1000  217.06865
  0.1020  213.30253
  0.1040  209.39887
  0.1060  205.36462
  0.1080  201.22764
  0.1100  197.00813
  0.1120  192.72747
  0.1140  188.41353
  0.1160  184.08299
  0.1180  179.74496
  0.1200  175.41882
  0.1220  171.11277
  0.1240  166.85190
  0.1260  162.66887
  0.1280  158.59352
  0.1300  154.65552
  0.1320  150.87557
  0.1340  147.25746
  0.1360  143.79237
  0.1380  140.45504
  0.1400  137.21416
  0.1420  134.01552
  0.1440  130.80636
  0.1460  127.53871
  0.1480  124.17349
  0.1500  120.71897
  0.1520  117.21374
  0.1540  113.73921
  0.1560  110.36673
  0.1580  107.15942
  0.1600  104.10156
  0.1620  101.13331
  0.1640   98.19369
  0.1660   95.21653
  0.1680   92.19765
  0.1700   89.15074
  0.1720   86.11011
  0.1740   83.12223
  0.1760   80.21928
  0.1780   77.40936
  0.1800   74.68279
  0.1820   72.02752
  0.1840   69.42323
  0.1860   66.83503
  0.1880   64.26589
  0.1900   61.69903
  0.1920   59.14015
  0.1940   56.60145
  0.1960   54.09831
  0.1980   51.64443
  0.2000   49.26019
  0.2020   46.94043
  0.2040   44.66918
  0.2060   42.45099
  0.2080   40.29610
  0.2100   38.22238
  0.2120   36.21692
  0.2140   34.24387
  0.2160   32.26781
  0.2180   30.27668
  0.2200   28.28645
  0.2220   26.33740
  0.2240   24.45864
  0.2260   22.66454
  0.2280   20.93376
  0.2300   19.23403
  0.2320   17.56696
  0.2340   15.93985
  0.2360   14.38319
  0.2380   12.89141
  0.2400   11.46085
  0.2420   10.08086
  0.2440    8.73968
  0.2460    7.41756
  0.2480    6.13390
  0.2500    4.88842
  0.2520    3.69501
  0.2540    2.54319
  0.2560    1.44150
  0.2580    0.37586
  0.2600   -0.66808
  0.2620   -1.67380
  0.2640   -2.64990
  0.2660   -3.59964
  0.2680   -4.50992
  0.2700   -5.36962
  0.2720   -6.17708
  0.2740   -6.93659
  0.2760   -7.64806
  0.2780   -8.31874
  0.2800   -8.96643
  0.2820   -9.60462
  0.2840  -10.23025
  0.2860  -10.84370
  0.2880  -11.43979
  0.2900  -11.99252
  0.2920  -12.50546
  0.2940  -12.95909
  0.2960  -13.35294
  0.2980  -13.69215
  0.3000  -13.98448
  0.3020  -14.23928
  0.3040  -14.47587
  0.3060  -14.71249
  0.3080  -14.95726
  0.3100  -15.20910
  0.3120  -15.45481
  0.3140  -15.66778
  0.3160  -15.83207
  0.3180  -15.93715
  0.3200  -15.96743
  0.3220  -15.95164
  0.3240  -15.89753
  0.3260  -15.83120
  0.3280  -15.77499
  0.3300  -15.72865
  0.3320  -15.70220
  0.3340  -15.69538
  0.3360  -15.67992
  0.3380  -15.64438
  0.3400  -15.56423
  0.3420  -15.45090
  0.3440  -15.28692
  0.3460  -15.09024
  0.3480  -14.86119
  0.3500  -14.61370
  0.3520  -14.35953
  0.3540  -14.11127
  0.3560  -13.86863
  0.3580  -13.64057
  0.3600  -13.41371
  0.3620  -13.19270
  0.3640  -12.97858
  0.3660  -12.76699
  0.3680  -12.55771
  0.3700  -12.35479
  0.3720  -12.14485
  0.3740  -11.93980
  0.3760  -11.74343
  0.3780  -11.54657
  0.3800  -11.35581
  0.3820  -11.16153
  0.3840  -10.98055
  0.3860  -10.80929
  0.3880  -10.64915
  0.3900  -10.49846
  0.3920  -10.35830
  0.3940  -10.23301
  0.3960  -10.12264
  0.3980  -10.02749
  0.4000   -9.95172
  0.4020   -9.88163
  0.4040   -9.82498
  0.4060   -9.77758
  0.4080   -9.73442
  0.4100   -9.69115
  0.4120   -9.64512
  0.4140   -9.60052
  0.4160   -9.55727
  0.4180   -9.51934
  0.4200   -9.48566
  0.4220   -9.44708
  0.4240   -9.41667
  0.4260   -9.38908
  0.4280   -9.36232
  0.4300   -9.34443
  0.4320   -9.32676
  0.4340   -9.31332
  0.4360   -9.30671
  0.4380   -9.29987
  0.4400   -9.28867
  0.4420   -9.28158
  0.4440   -9.26556
  0.4460   -9.24065
  0.4480   -9.21527
  0.4500   -9.18490
  0.4520   -9.15152
  0.4540   -9.11713
  0.4560   -9.08253
  0.4580   -9.04282
  0.4600   -8.99672
  0.4620   -8.95003
  0.4640   -8.89357
  0.4660   -8.84108
  0.4680   -8.78138
  0.4700   -8.71120
  0.4720   -8.63526
  0.4740   -8.55142
  0.4760   -8.46116
  0.4780   -8.36047
  0.4800   -8.25595
  0.4820   -8.15881
  0.4840   -8.05766
  0.4860   -7.95778
  0.4880   -7.85706
  0.4900   -7.74418
  0.4920   -7.64097
  0.4940   -7.52549
  0.4960   -7.40750
  0.4980   -7.28826
  0.5000   -7.18088
  0.5020   -7.07737
  0.5040   -6.98289
  0.5060   -6.88864
  0.5080   -6.80291
  0.5100   -6.71990
  0.5120   -6.62438
  0.5140   -6.53024
  0.5160   -6.42333
  0.5180   -6.30620
  0.5200   -6.19003
  0.5220   -6.06377
  0.5240   -5.93871
  0.5260   -5.81900
  0.5280   -5.69947
  0.5300   -5.57974
  0.5320   -5.46764
  0.5340   -5.36020
  0.5360   -5.25130
  0.5380   -5.14685
  0.5400   -5.03798
  0.5420   -4.93314
  0.5440   -4.84172
  0.5460   -4.75382
  0.5480   -4.66585
  0.5500   -4.58049
  0.5520   -4.49155
  0.5540   -4.38582
  0.5560   -4.26967
  0.5580   -4.13380
  0.5600   -3.98941
  0.5620   -3.83397
  0.5640   -3.68390
  0.5660   -3.54128
  0.5680   -3.41297
  0.5700   -3.31169
  0.5720   -3.21939
  0.5740   -3.13925
  0.5760   -3.06101
  0.5780   -2.97741
  0.5800   -2.88452
  0.5820   -2.76833
  0.5840   -2.62713
  0.5860   -2.46458
  0.5880   -2.26136
  0.5900   -2.03986
  0.5920   -1.80637
  0.5940   -1.57542
  0.5960   -1.36215
  0.5980   -1.17371
  0.6000   -1.02207
  0.6020   -0.89617
  0.6040   -0.80635
  0.6060   -0.73503
  0.6080   -0.66817
  0.6100   -0.61381
  0.6120   -0.55393
  0.6140   -0.48942
  0.6160   -0.40346
  0.6180   -0.30243
  0.6200   -0.19807
  0.6220   -0.08519
  0.6240    0.01357
  0.6260    0.09267
  0.6280    0.15479
  0.6300    0.19090
  0.6320    0.19664
  0.6340    0.18477
  0.6360    0.15992
  0.6380    0.13226
  0.6400    0.11679
  0.6420    0.11576
  0.6440    0.13438
  0.6460    0.16866
  0.6480    0.21049
  0.6500    0.25636
  0.6520    0.31088
  0.6540    0.35390
  0.6560    0.38262
  0.6580    0.38929
  0.6600    0.38573
  0.6620    0.36410
  0.6640    0.33699
  0.6660    0.30507
  0.6680    0.27739
  0.6700    0.25143
  0.6720    0.25236
  0.6740    0.26645
  0.6760    0.30530
  0.6780    0.34566
  0.6800    0.39226
  0.6820    0.44512
  0.6840    0.48347
  0.6860    0.51116
  0.6880    0.51920
  0.6900    0.50520
  0.6920    0.47143
  0.6940    0.42433
  0.6960    0.35946
  0.6980    0.29771
  0.7000    0.22982
  0.7020    0.17722
  0.7040    0.13637
  0.7060    0.10306
  0.7080    0.07409
  0.7100    0.05060
  0.7120    0.02733
  0.7140    0.01172
  0.7160    0.00237
  0.7180   -0.00726
  0.7200   -0.01876
  0.7220   -0.03040
  0.7240   -0.04330
  0.7260   -0.05766
  0.7280   -0.08349
  0.7300   -0.10997
  0.7320   -0.14204
  0.7340   -0.18396
  0.7360   -0.23948
  0.7380   -0.30027
  0.7400   -0.37433
  0.7420   -0.45587
  0.7440   -0.53103
  0.7460   -0.59898
  0.7480   -0.65467
  0.7500   -0.69412
  0.7520   -0.71852
  0.7540   -0.71593
  0.7560   -0.70071
  0.7580   -0.68012
  0.7600   -0.65878
  0.7620   -0.64098
  0.7640   -0.63789
  0.7660   -0.65415
  0.7680   -0.67953
  0.7700   -0.72983
  0.7720   -0.78768
  0.7740   -0.85065
  0.7760   -0.91014
  0.7780   -0.95899
  0.7800   -0.99461
  0.7820   -1.01359
  0.7840   -1.01872
  0.7860   -1.01154
  0.7880   -0.98986
  0.7900   -0.95915
  0.7920   -0.92049
  0.7940   -0.88706
  0.7960   -0.86318
  0.7980   -0.84967
  0.8000   -0.84283
  0.8020   -0.85852
  0.8040   -0.88306
  0.8060   -0.92186
  0.8080   -0.96301
  0.8100   -1.00587
  0.8120   -1.05114
  0.8140   -1.08495
  0.8160   -1.10579
  0.8180   -1.11760
  0.8200   -1.11542
  0.8220   -1.09545
  0.8240   -1.06860
  0.8260   -1.03101
  0.8280   -0.98372
  0.8300   -0.93362
  0.8320   -0.88184
  0.8340   -0.82726
  0.8360   -0.78679
  0.8380   -0.74440
  0.8400   -0.71500
  0.8420   -0.69456
  0.8440   -0.68338
  0.8460   -0.67971
  0.8480   -0.68250
  0.8500   -0.68505
  0.8520   -0.69243
  0.8540   -0.69513
  0.8560   -0.70383
  0.8580   -0.69891
  0.8600   -0.68593
  0.8620   -0.66226
  0.8640   -0.61915
  0.8660   -0.56956
  0.8680   -0.50709
  0.8700   -0.45043
  0.8720   -0.39462
  0.8740   -0.35015
  0.8760   -0.30987
  0.8780   -0.28157
  0.8800   -0.25824
  0.8820   -0.24395
  0.8840   -0.23264
  0.8860   -0.23060
  0.8880   -0.23189
  0.8900   -0.22839
  0.8920   -0.22088
  0.8940   -0.21322
  0.8960   -0.19569
  0.8980   -0.17213
  0.9000   -0.14548
  0.9020   -0.10955
  0.9040   -0.08052
  0.9060   -0.05480
  0.9080   -0.03076
  0.9100   -0.01246
  0.9120    0.00425
  0.9140    0.01422
  0.9160    0.01861
  0.9180    0.01511
  0.9200    0.01348
  0.9220    0.01553
  0.9240    0.01705
  0.9260    0.02605
  0.9280    0.04673
  0.9300    0.06563
  0.9320    0.08658
  0.9340    0.10923
  0.9360    0.12154
  0.9380    0.11979
  0.9400    0.11394
  0.9420    0.10046
  0.9440    0.08019
  0.9460    0.06255
  0.9480    0.04990
  0.9500    0.04632
  0.9520    0.05155
  0.9540    0.06362
  0.9560    0.07679
  0.9580    0.08460
  0.9600    0.08979
  0.9620    0.08768
  0.9640    0.07694
  0.9660    0.06574
  0.9680    0.04466
  0.9700    0.02156
  0.9720   -0.00222
  0.9740   -0.02277
  0.9760   -0.04566
  0.9780   -0.06245
  0.9800   -0.07203
  0.9820   -0.08295
  0.9840   -0.08751
  0.9860   -0.09462
  0.9880   -0.10195
  0.9900   -0.11498
  0.9920   -0.12057
  0.9940   -0.13739
  0.9960   -0.16042
  0.9980   -0.18363
  1.0000   -0.21286
