# z (nm)   (kJ/mol)
  0.3630   25.83220
  0.3650   25.74700
  0.3670   25.65830
  0.3710   25.48620
  0.3730   25.38460
  0.3750   25.28460
  0.3770   25.18000
  0.3790   25.06260
  0.3810   24.93900
  0.3830   24.81100
  0.3850   24.67810
  0.3870   24.54000
  0.3890   24.39650
  0.3910   24.24750
  0.3930   24.09820
  0.3950   23.94710
  0.3970   23.78730
  0.3990   23.62170
  0.4010   23.45210
  0.4030   23.27790
  0.4050   23.10110
  0.4070   22.91420
  0.4090   22.72360
  0.4110   22.54150
  0.4130   22.35700
  0.4150   22.16490
  0.4170   21.97100
  0.4190   21.77470
  0.4210   21.58390
  0.4230   21.40310
  0.4250   21.22040
  0.4270   21.03020
  0.4290   20.84790
  0.4310   20.67180
  0.4330   20.48790
  0.4350   20.30170
  0.4370   20.12090
  0.4390   19.94480
  0.4410   19.77200
  0.4430   19.60420
  0.4450   19.43640
  0.4470   19.27550
  0.4490   19.11480
  0.4510   18.95500
  0.4530   18.80280
  0.4550   18.65290
  0.4570   18.50660
  0.4590   18.36530
  0.4610   18.23370
  0.4630   18.10820
  0.4650   17.98640
  0.4670   17.86550
  0.4690   17.74710
  0.4710   17.63400
  0.4730   17.52320
  0.4750   17.41820
  0.4770   17.31520
  0.4790   17.21350
  0.4810   17.11730
  0.4830   17.02420
  0.4850   16.93370
  0.4870   16.84540
  0.4890   16.75940
  0.4910   16.67610
  0.4930   16.59400
  0.4950   16.51330
  0.4970   16.43330
  0.4990   16.35370
  0.5010   16.27460
  0.5030   16.19470
  0.5050   16.11350
  0.5070   16.03110
  0.5090   15.94820
  0.5110   15.86310
  0.5130   15.77520
  0.5150   15.68530
  0.5170   15.59210
  0.5190   15.49310
  0.5210   15.39100
  0.5230   15.28550
  0.5250   15.17330
  0.5270   15.05370
  0.5290   14.92930
  0.5310   14.80050
  0.5330   14.66440
  0.5350   14.51820
  0.5370   14.36170
  0.5390   14.19850
  0.5410   14.02830
  0.5430   13.84920
  0.5450   13.66140
  0.5470   13.46520
  0.5490   13.26030
  0.5510   13.04410
  0.5530   12.81900
  0.5550   12.58540
  0.5570   12.33560
  0.5590   12.07280
  0.5610   11.80800
  0.5630   11.53610
  0.5650   11.25340
  0.5670   10.96070
  0.5690   10.65900
  0.5710   10.34830
  0.5730   10.01830
  0.5750    9.67940
  0.5770    9.34180
  0.5790    8.99530
  0.5810    8.64270
  0.5830    8.28610
  0.5850    7.92500
  0.5870    7.56270
  0.5890    7.20390
  0.5910    6.84790
  0.5930    6.48970
  0.5950    6.13230
  0.5970    5.77800
  0.5990    5.42510
  0.6010    5.07630
  0.6030    4.73160
  0.6050    4.38870
  0.6070    4.05210
  0.6090    3.72600
  0.6110    3.40870
  0.6130    3.09850
  0.6150    2.79600
  0.6170    2.50070
  0.6190    2.21560
  0.6210    1.94020
  0.6230    1.67420
  0.6250    1.41840
  0.6270    1.17410
  0.6290    0.94010
  0.6310    0.71610
  0.6330    0.50250
  0.6350    0.29720
  0.6370    0.10370
  0.6390   -0.07880
  0.6410   -0.25210
  0.6430   -0.41460
  0.6450   -0.56680
  0.6470   -0.70800
  0.6490   -0.83840
  0.6510   -0.95950
  0.6530   -1.07100
  0.6550   -1.17240
  0.6570   -1.26380
  0.6590   -1.34500
  0.6610   -1.41730
  0.6630   -1.48090
  0.6650   -1.53550
  0.6670   -1.58180
  0.6690   -1.62010
  0.6710   -1.65040
  0.6730   -1.67310
  0.6750   -1.68920
  0.6770   -1.69870
  0.6790   -1.70060
  0.6810   -1.69580
  0.6830   -1.68580
  0.6850   -1.67110
  0.6870   -1.65180
  0.6890   -1.62780
  0.6910   -1.59930
  0.6930   -1.56750
  0.6950   -1.53340
  0.6970   -1.49650
  0.6990   -1.45570
  0.7010   -1.41230
  0.7030   -1.36690
  0.7050   -1.31940
  0.7070   -1.27010
  0.7090   -1.21990
  0.7110   -1.16960
  0.7130   -1.11840
  0.7150   -1.06650
  0.7170   -1.01390
  0.7190   -0.96040
  0.7210   -0.90660
  0.7230   -0.85270
  0.7250   -0.79880
  0.7270   -0.74510
  0.7290   -0.69160
  0.7310   -0.63850
  0.7330   -0.58550
  0.7350   -0.53250
  0.7370   -0.47970
  0.7390   -0.42700
  0.7410   -0.37440
  0.7430   -0.32230
  0.7450   -0.27040
  0.7470   -0.21860
  0.7490   -0.16710
  0.7510   -0.11590
  0.7530   -0.06460
  0.7550   -0.01390
  0.7570    0.03660
  0.7590    0.08710
  0.7610    0.13730
  0.7630    0.18730
  0.7650    0.23680
  0.7670    0.28630
  0.7690    0.33550
  0.7710    0.38440
  0.7730    0.43310
  0.7750    0.48130
  0.7770    0.52910
  0.7790    0.57640
  0.7810    0.62320
  0.7830    0.66940
  0.7850    0.71500
  0.7870    0.75990
  0.7890    0.80400
  0.7910    0.84710
  0.7930    0.88920
  0.7950    0.93040
  0.7970    0.97030
  0.7990    1.00880
  0.8010    1.04610
  0.8030    1.08190
  0.8050    1.11620
  0.8070    1.14890
  0.8090    1.18000
  0.8110    1.20920
  0.8130    1.23660
  0.8150    1.26210
  0.8170    1.28560
  0.8190    1.30690
  0.8210    1.32610
  0.8230    1.34320
  0.8250    1.35800
  0.8270    1.37070
  0.8290    1.38090
  0.8310    1.38890
  0.8330    1.39450
  0.8350    1.39780
  0.8370    1.39870
  0.8390    1.39720
  0.8410    1.39330
  0.8430    1.38720
  0.8450    1.37890
  0.8470    1.36810
  0.8490    1.35490
  0.8510    1.33980
  0.8530    1.32270
  0.8550    1.30320
  0.8570    1.28170
  0.8590    1.25840
  0.8610    1.23320
  0.8630    1.20610
  0.8650    1.17740
  0.8670    1.14720
  0.8690    1.11580
  0.8710    1.08280
  0.8730    1.04820
  0.8750    1.01270
  0.8770    0.97610
  0.8790    0.93820
  0.8810    0.89940
  0.8830    0.85990
  0.8850    0.81990
  0.8870    0.77940
  0.8890    0.73810
  0.8910    0.69680
  0.8930    0.65540
  0.8950    0.61380
  0.8970    0.57230
  0.8990    0.53080
  0.9010    0.48960
  0.9030    0.44870
  0.9050    0.40820
  0.9070    0.36800
  0.9090    0.32840
  0.9110    0.28960
  0.9130    0.25120
  0.9150    0.21350
  0.9170    0.17700
  0.9190    0.14130
  0.9210    0.10640
  0.9230    0.07250
  0.9250    0.03950
  0.9270    0.00760
  0.9290   -0.02300
  0.9310   -0.05260
  0.9330   -0.08090
  0.9350   -0.10800
  0.9370   -0.13390
  0.9390   -0.15860
  0.9410   -0.18200
  0.9430   -0.20420
  0.9450   -0.22510
  0.9470   -0.24480
  0.9490   -0.26320
  0.9510   -0.28030
  0.9530   -0.29630
  0.9550   -0.31100
  0.9570   -0.32430
  0.9590   -0.33650
  0.9610   -0.34750
  0.9630   -0.35730
  0.9650   -0.36620
  0.9670   -0.37390
  0.9690   -0.38060
  0.9710   -0.38610
  0.9730   -0.39050
  0.9750   -0.39380
  0.9770   -0.39630
  0.9790   -0.39780
  0.9810   -0.39840
  0.9830   -0.39810
  0.9850   -0.39710
  0.9870   -0.39510
  0.9890   -0.39230
  0.9910   -0.38870
  0.9930   -0.38430
  0.9950   -0.37920
  0.9970   -0.37360
  0.9990   -0.36720
  1.0010   -0.36040
  1.0030   -0.35290
  1.0050   -0.34490
  1.0070   -0.33630
  1.0090   -0.32720
  1.0110   -0.31750
  1.0130   -0.30760
  1.0150   -0.29720
  1.0170   -0.28640
  1.0190   -0.27530
  1.0210   -0.26370
  1.0230   -0.25190
  1.0250   -0.23970
  1.0270   -0.22730
  1.0290   -0.21470
  1.0310   -0.20180
  1.0330   -0.18870
  1.0350   -0.17550
  1.0370   -0.16220
  1.0390   -0.14870
  1.0410   -0.13510
  1.0430   -0.12140
  1.0450   -0.10760
  1.0470   -0.09360
  1.0490   -0.07960
  1.0510   -0.06560
  1.0530   -0.05160
  1.0550   -0.03770
  1.0570   -0.02390
  1.0590   -0.01010
  1.0610    0.00370
  1.0630    0.01750
  1.0650    0.03110
  1.0670    0.04450
  1.0690    0.05790
  1.0710    0.07110
  1.0730    0.08410
  1.0750    0.09690
  1.0770    0.10950
  1.0790    0.12180
  1.0810    0.13390
  1.0830    0.14570
  1.0850    0.15730
  1.0870    0.16860
  1.0890    0.17960
  1.0910    0.19010
  1.0930    0.20040
  1.0950    0.21020
  1.0970    0.21950
  1.0990    0.22860
  1.1010    0.23710
  1.1030    0.24520
  1.1050    0.25300
  1.1070    0.26030
  1.1090    0.26700
  1.1110    0.27330
  1.1130    0.27920
  1.1150    0.28460
  1.1170    0.28950
  1.1190    0.29380
  1.1210    0.29770
  1.1230    0.30100
  1.1250    0.30390
  1.1270    0.30620
  1.1290    0.30790
  1.1310    0.30910
  1.1330    0.30990
  1.1350    0.31020
  1.1370    0.31000
  1.1390    0.30930
  1.1410    0.30810
  1.1430    0.30640
  1.1450    0.30440
  1.1470    0.30190
  1.1490    0.29890
  1.1510    0.29550
  1.1530    0.29180
  1.1550    0.28770
  1.1570    0.28320
  1.1590    0.27850
  1.1610    0.27340
  1.1630    0.26810
  1.1650    0.26250
  1.1670    0.25660
  1.1690    0.25040
  1.1710    0.24410
  1.1730    0.23750
  1.1750    0.23080
  1.1770    0.22390
  1.1790    0.21690
  1.1810    0.20970
  1.1830    0.20240
  1.1850    0.19490
  1.1870    0.18730
  1.1890    0.17970
  1.1910    0.17210
  1.1930    0.16440
  1.1950    0.15680
  1.1970    0.14910
  1.1990    0.14130
  1.2010    0.13360
  1.2030    0.12600
  1.2050    0.11830
  1.2070    0.11070
  1.2090    0.10330
  1.2110    0.09610
  1.2130    0.08910
  1.2150    0.08210
  1.2170    0.07530
  1.2190    0.06860
  1.2210    0.06190
  1.2230    0.05540
  1.2250    0.04920
  1.2270    0.04310
  1.2290    0.03720
  1.2310    0.03130
  1.2330    0.02580
  1.2350    0.02040
  1.2370    0.01520
  1.2390    0.01020
  1.2410    0.00540
  1.2430    0.00080
  1.2450   -0.00350
  1.2470   -0.00770
  1.2490   -0.01180
  1.2510   -0.01570
  1.2530   -0.01940
  1.2550   -0.02290
  1.2570   -0.02610
  1.2590   -0.02920
  1.2610   -0.03200
  1.2630   -0.03480
  1.2650   -0.03730
  1.2670   -0.03970
  1.2690   -0.04200
  1.2710   -0.04410
  1.2730   -0.04590
  1.2750   -0.04760
  1.2770   -0.04920
  1.2790   -0.05070
  1.2810   -0.05210
  1.2830   -0.05330
  1.2850   -0.05430
  1.2870   -0.05540
  1.2890   -0.05630
  1.2910   -0.05710
  1.2930   -0.05790
  1.2950   -0.05850
  1.2970   -0.05910
  1.2990   -0.05950
  1.3010   -0.05980
  1.3030   -0.06010
  1.3050   -0.06020
  1.3070   -0.06010
  1.3090   -0.06010
  1.3110   -0.05990
  1.3130   -0.05950
  1.3150   -0.05900
  1.3170   -0.05840
  1.3190   -0.05770
  1.3210   -0.05680
  1.3230   -0.05580
  1.3250   -0.05460
  1.3270   -0.05330
  1.3290   -0.05180
  1.3310   -0.05010
  1.3330   -0.04820
  1.3350   -0.04620
  1.3370   -0.04400
  1.3390   -0.04160
  1.3410   -0.03910
  1.3430   -0.03630
  1.3450   -0.03330
  1.3470   -0.03000
  1.3490   -0.02660
  1.3510   -0.02290
  1.3530   -0.01900
  1.3550   -0.01500
  1.3570   -0.01070
  1.3590   -0.00610
  1.3610   -0.00140
  1.3630    0.00360
  1.3650    0.00890
  1.3670    0.01430
  1.3690    0.01980
  1.3710    0.02540
  1.3730    0.03120
  1.3750    0.03720
  1.3770    0.04340
  1.3790    0.04990
  1.3810    0.05630
  1.3830    0.06310
  1.3850    0.06980
  1.3870    0.07660
  1.3890    0.08330
  1.3910    0.08960
  1.3930    0.09580
  1.3950    0.10180
  1.3970    0.10760
  1.3990    0.11320
