# z (nm)   (kJ/mol)
  0.485000,  6.996400
  0.487000,  6.748100
  0.489000,  6.481200
  0.491000,  6.240600
  0.493000,  5.999800
  0.495000,  5.753700
  0.497000,  5.509200
  0.499000,  5.274300
  0.501000,  5.050800
  0.503000,  4.836100
  0.505000,  4.629500
  0.507000,  4.428800
  0.509000,  4.234700
  0.511000,  4.048600
  0.513000,  3.870500
  0.515000,  3.700300
  0.517000,  3.539000
  0.519000,  3.387700
  0.521000,  3.246500
  0.523000,  3.113500
  0.525000,  2.988800
  0.527000,  2.873700
  0.529000,  2.770900
  0.531000,  2.680100
  0.533000,  2.600700
  0.535000,  2.534400
  0.537000,  2.483100
  0.539000,  2.448700
  0.541000,  2.428900
  0.543000,  2.420800
  0.545000,  2.424100
  0.547000,  2.436900
  0.549000,  2.457300
  0.551000,  2.483300
  0.553000,  2.513400
  0.555000,  2.547400
  0.557000,  2.583700
  0.559000,  2.623600
  0.561000,  2.668700
  0.563000,  2.714300
  0.565000,  2.763700
  0.567000,  2.821200
  0.569000,  2.881700
  0.571000,  2.945700
  0.573000,  3.010800
  0.575000,  3.077000
  0.577000,  3.149900
  0.579000,  3.225200
  0.581000,  3.302700
  0.583000,  3.383900
  0.585000,  3.465200
  0.587000,  3.549700
  0.589000,  3.640700
  0.591000,  3.727200
  0.593000,  3.814000
  0.595000,  3.909100
  0.597000,  4.006400
  0.599000,  4.101900
  0.601000,  4.199100
  0.603000,  4.297700
  0.605000,  4.385000
  0.607000,  4.455900
  0.609000,  4.516500
  0.611000,  4.568600
  0.613000,  4.604400
  0.615000,  4.624200
  0.617000,  4.629500
  0.619000,  4.618300
  0.621000,  4.589800
  0.623000,  4.547600
  0.625000,  4.489400
  0.627000,  4.413500
  0.629000,  4.322100
  0.631000,  4.216700
  0.633000,  4.096600
  0.635000,  3.960800
  0.637000,  3.810700
  0.639000,  3.647700
  0.641000,  3.471900
  0.643000,  3.282500
  0.645000,  3.079400
  0.647000,  2.866800
  0.649000,  2.649800
  0.651000,  2.424000
  0.653000,  2.190700
  0.655000,  1.956500
  0.657000,  1.716400
  0.659000,  1.472900
  0.661000,  1.230100
  0.663000,  0.985800
  0.665000,  0.740400
  0.667000,  0.494200
  0.669000,  0.248100
  0.671000,  0.000600
  0.673000, -0.245100
  0.675000, -0.489100
  0.677000, -0.734200
  0.679000, -0.979100
  0.681000, -1.223200
  0.683000, -1.463400
  0.685000, -1.696300
  0.687000, -1.926100
  0.689000, -2.153900
  0.691000, -2.378100
  0.693000, -2.599700
  0.695000, -2.816100
  0.697000, -3.026000
  0.699000, -3.232900
  0.701000, -3.432600
  0.703000, -3.624100
  0.705000, -3.810400
  0.707000, -3.992700
  0.709000, -4.168200
  0.711000, -4.333400
  0.713000, -4.491600
  0.715000, -4.641600
  0.717000, -4.783000
  0.719000, -4.917300
  0.721000, -5.043000
  0.723000, -5.160100
  0.725000, -5.267800
  0.727000, -5.366800
  0.729000, -5.459000
  0.731000, -5.545100
  0.733000, -5.622100
  0.735000, -5.690300
  0.737000, -5.752600
  0.739000, -5.806700
  0.741000, -5.852500
  0.743000, -5.892500
  0.745000, -5.925300
  0.747000, -5.949800
  0.749000, -5.967900
  0.751000, -5.980000
  0.753000, -5.986300
  0.755000, -5.987400
  0.757000, -5.982500
  0.759000, -5.972200
  0.761000, -5.957700
  0.763000, -5.937800
  0.765000, -5.912000
  0.767000, -5.882700
  0.769000, -5.849700
  0.771000, -5.812700
  0.773000, -5.771700
  0.775000, -5.726200
  0.777000, -5.677700
  0.779000, -5.626500
  0.781000, -5.572300
  0.783000, -5.515500
  0.785000, -5.455500
  0.787000, -5.392800
  0.789000, -5.328000
  0.791000, -5.261200
  0.793000, -5.192600
  0.795000, -5.121800
  0.797000, -5.049900
  0.799000, -4.976800
  0.801000, -4.902200
  0.803000, -4.826300
  0.805000, -4.749800
  0.807000, -4.672400
  0.809000, -4.594300
  0.811000, -4.515300
  0.813000, -4.435900
  0.815000, -4.355900
  0.817000, -4.275100
  0.819000, -4.194400
  0.821000, -4.113700
  0.823000, -4.032900
  0.825000, -3.952000
  0.827000, -3.871400
  0.829000, -3.791500
  0.831000, -3.711600
  0.833000, -3.632300
  0.835000, -3.553600
  0.837000, -3.475600
  0.839000, -3.398500
  0.841000, -3.321900
  0.843000, -3.245900
  0.845000, -3.171000
  0.847000, -3.097500
  0.849000, -3.025000
  0.851000, -2.953400
  0.853000, -2.882900
  0.855000, -2.813700
  0.857000, -2.746000
  0.859000, -2.679900
  0.861000, -2.615000
  0.863000, -2.552100
  0.865000, -2.490900
  0.867000, -2.431000
  0.869000, -2.372800
  0.871000, -2.316900
  0.873000, -2.263000
  0.875000, -2.210500
  0.877000, -2.159400
  0.879000, -2.110500
  0.881000, -2.063800
  0.883000, -2.019100
  0.885000, -1.976100
  0.887000, -1.934400
  0.889000, -1.894000
  0.891000, -1.855600
  0.893000, -1.819000
  0.895000, -1.783900
  0.897000, -1.751100
  0.899000, -1.720000
  0.901000, -1.690200
  0.903000, -1.661800
  0.905000, -1.634800
  0.907000, -1.609300
  0.909000, -1.585300
  0.911000, -1.562700
  0.913000, -1.542000
  0.915000, -1.522600
  0.917000, -1.504400
  0.919000, -1.487500
  0.921000, -1.471800
  0.923000, -1.457300
  0.925000, -1.444100
  0.927000, -1.432000
  0.929000, -1.420300
  0.931000, -1.409500
  0.933000, -1.399800
  0.935000, -1.390800
  0.937000, -1.382400
  0.939000, -1.375300
  0.941000, -1.369100
  0.943000, -1.363400
  0.945000, -1.358200
  0.947000, -1.353700
  0.949000, -1.349700
  0.951000, -1.345900
  0.953000, -1.342800
  0.955000, -1.340200
  0.957000, -1.338000
  0.959000, -1.336100
  0.961000, -1.334400
  0.963000, -1.333200
  0.965000, -1.332100
  0.967000, -1.331300
  0.969000, -1.330800
  0.971000, -1.330500
  0.973000, -1.330100
  0.975000, -1.330000
  0.977000, -1.330000
  0.979000, -1.330100
  0.981000, -1.330200
  0.983000, -1.330200
  0.985000, -1.330200
  0.987000, -1.330400
  0.989000, -1.330700
  0.991000, -1.330900
  0.993000, -1.331000
  0.995000, -1.331000
  0.997000, -1.331000
  0.999000, -1.330900
  1.001000, -1.330700
  1.003000, -1.330300
  1.005000, -1.329900
  1.007000, -1.329300
  1.009000, -1.328600
  1.011000, -1.327800
  1.013000, -1.327000
  1.015000, -1.325800
  1.017000, -1.324300
  1.019000, -1.322900
  1.021000, -1.321400
  1.023000, -1.319800
  1.025000, -1.318000
  1.027000, -1.316000
  1.029000, -1.313800
  1.031000, -1.311500
  1.033000, -1.309100
  1.035000, -1.306400
  1.037000, -1.303400
  1.039000, -1.300200
  1.041000, -1.296800
  1.043000, -1.293300
  1.045000, -1.289500
  1.047000, -1.285400
  1.049000, -1.281000
  1.051000, -1.276400
  1.053000, -1.271500
  1.055000, -1.266300
  1.057000, -1.260800
  1.059000, -1.255000
  1.061000, -1.249000
  1.063000, -1.242600
  1.065000, -1.235700
  1.067000, -1.228600
  1.069000, -1.221200
  1.071000, -1.213300
  1.073000, -1.205200
  1.075000, -1.196800
  1.077000, -1.188200
  1.079000, -1.179000
  1.081000, -1.169600
  1.083000, -1.159800
  1.085000, -1.149500
  1.087000, -1.138900
  1.089000, -1.127900
  1.091000, -1.116400
  1.093000, -1.104700
  1.095000, -1.092600
  1.097000, -1.080200
  1.099000, -1.067400
  1.101000, -1.054300
  1.103000, -1.040900
  1.105000, -1.027200
  1.107000, -1.013300
  1.109000, -0.999100
  1.111000, -0.984700
  1.113000, -0.969800
  1.115000, -0.954600
  1.117000, -0.939200
  1.119000, -0.923500
  1.121000, -0.907700
  1.123000, -0.891700
  1.125000, -0.875400
  1.127000, -0.858900
  1.129000, -0.842400
  1.131000, -0.825700
  1.133000, -0.808900
  1.135000, -0.792000
  1.137000, -0.775200
  1.139000, -0.758400
  1.141000, -0.741400
  1.143000, -0.724300
  1.145000, -0.707300
  1.147000, -0.690100
  1.149000, -0.673000
  1.151000, -0.656000
  1.153000, -0.638900
  1.155000, -0.622000
  1.157000, -0.604900
  1.159000, -0.587900
  1.161000, -0.571100
  1.163000, -0.554400
  1.165000, -0.538100
  1.167000, -0.521800
  1.169000, -0.505500
  1.171000, -0.489300
  1.173000, -0.473200
  1.175000, -0.457400
  1.177000, -0.441800
  1.179000, -0.426100
  1.181000, -0.410700
  1.183000, -0.395500
  1.185000, -0.380400
  1.187000, -0.365600
  1.189000, -0.351100
  1.191000, -0.336700
  1.193000, -0.322400
  1.195000, -0.308300
  1.197000, -0.294500
  1.199000, -0.281000
  1.201000, -0.267700
  1.203000, -0.254600
  1.205000, -0.241700
  1.207000, -0.229000
  1.209000, -0.216500
  1.211000, -0.204200
  1.213000, -0.192400
  1.215000, -0.180800
  1.217000, -0.169500
  1.219000, -0.158400
  1.221000, -0.147500
  1.223000, -0.136900
  1.225000, -0.126500
  1.227000, -0.116500
  1.229000, -0.106700
  1.231000, -0.097200
  1.233000, -0.088100
  1.235000, -0.079200
  1.237000, -0.070500
  1.239000, -0.061900
  1.241000, -0.053600
  1.243000, -0.045900
  1.245000, -0.038300
  1.247000, -0.031000
  1.249000, -0.024100
  1.251000, -0.017300
  1.253000, -0.010800
  1.255000, -0.004600
  1.257000,  0.001200
  1.259000,  0.006800
  1.261000,  0.012200
  1.263000,  0.017300
  1.265000,  0.022000
  1.267000,  0.026400
  1.269000,  0.030600
  1.271000,  0.034300
  1.273000,  0.037800
  1.275000,  0.040900
  1.277000,  0.043800
  1.279000,  0.046400
  1.281000,  0.048700
  1.283000,  0.050800
  1.285000,  0.052600
  1.287000,  0.054300
  1.289000,  0.055500
  1.291000,  0.056500
  1.293000,  0.057100
  1.295000,  0.057600
  1.297000,  0.057900
  1.299000,  0.057800
  1.301000,  0.057500
  1.303000,  0.057100
  1.305000,  0.056400
  1.307000,  0.055600
  1.309000,  0.054700
  1.311000,  0.053700
  1.313000,  0.052500
  1.315000,  0.051300
  1.317000,  0.050000
  1.319000,  0.048700
  1.321000,  0.047200
  1.323000,  0.045600
  1.325000,  0.044100
  1.327000,  0.042700
  1.329000,  0.041300
  1.331000,  0.039900
  1.333000,  0.038700
  1.335000,  0.037600
  1.337000,  0.036400
  1.339000,  0.035300
  1.341000,  0.034400
  1.343000,  0.033900
  1.345000,  0.033500
  1.347000,  0.033300
  1.349000,  0.033200
  1.351000,  0.033400
  1.353000,  0.033900
  1.355000,  0.034600
  1.357000,  0.035400
  1.359000,  0.036400
  1.361000,  0.037700
  1.363000,  0.039500
  1.365000,  0.041700
  1.367000,  0.044200
  1.369000,  0.047000
  1.371000,  0.049900
  1.373000,  0.053100
  1.375000,  0.056700
  1.377000,  0.060600
  1.379000,  0.064700
  1.381000,  0.069200
  1.383000,  0.073800
  1.385000,  0.078500
  1.387000,  0.083600
  1.389000,  0.088800
  1.391000,  0.094100
  1.393000,  0.099400
  1.395000,  0.104500
  1.397000,  0.109500
  1.399000,  0.114400
