# z (nm)   (kJ/mol)
  0.441000, 28.564600
  0.443000, 28.378700
  0.445000, 28.246800
  0.447000, 28.124200
  0.449000, 27.961200
  0.451000, 27.795500
  0.453000, 27.643800
  0.455000, 27.499300
  0.457000, 27.347200
  0.459000, 27.194500
  0.461000, 27.049500
  0.463000, 26.904100
  0.465000, 26.758700
  0.467000, 26.618200
  0.469000, 26.477900
  0.471000, 26.338100
  0.473000, 26.198600
  0.475000, 26.059900
  0.477000, 25.924600
  0.479000, 25.792300
  0.481000, 25.660600
  0.483000, 25.528500
  0.485000, 25.396800
  0.487000, 25.265900
  0.489000, 25.134800
  0.491000, 25.003300
  0.493000, 24.871600
  0.495000, 24.740200
  0.497000, 24.608200
  0.499000, 24.475400
  0.501000, 24.340000
  0.503000, 24.202300
  0.505000, 24.063200
  0.507000, 23.920900
  0.509000, 23.776400
  0.511000, 23.628300
  0.513000, 23.474400
  0.515000, 23.315700
  0.517000, 23.154200
  0.519000, 22.988100
  0.521000, 22.815200
  0.523000, 22.637100
  0.525000, 22.456900
  0.527000, 22.271500
  0.529000, 22.074000
  0.531000, 21.866200
  0.533000, 21.641600
  0.535000, 21.404600
  0.537000, 21.170100
  0.539000, 20.927700
  0.541000, 20.669100
  0.543000, 20.395400
  0.545000, 20.113300
  0.547000, 19.825400
  0.549000, 19.525800
  0.551000, 19.217800
  0.553000, 18.901700
  0.555000, 18.575900
  0.557000, 18.240400
  0.559000, 17.899200
  0.561000, 17.547900
  0.563000, 17.185400
  0.565000, 16.819100
  0.567000, 16.442500
  0.569000, 16.056900
  0.571000, 15.665800
  0.573000, 15.272500
  0.575000, 14.874800
  0.577000, 14.465400
  0.579000, 14.046700
  0.581000, 13.621800
  0.583000, 13.187300
  0.585000, 12.750000
  0.587000, 12.311600
  0.589000, 11.865000
  0.591000, 11.411400
  0.593000, 10.959400
  0.595000, 10.508500
  0.597000, 10.052200
  0.599000,  9.605800
  0.601000,  9.160700
  0.603000,  8.706700
  0.605000,  8.254700
  0.607000,  7.811300
  0.609000,  7.378900
  0.611000,  6.951600
  0.613000,  6.526400
  0.615000,  6.109600
  0.617000,  5.706900
  0.619000,  5.311400
  0.621000,  4.919100
  0.623000,  4.535400
  0.625000,  4.162500
  0.627000,  3.799800
  0.629000,  3.447300
  0.631000,  3.106200
  0.633000,  2.776200
  0.635000,  2.456100
  0.637000,  2.145600
  0.639000,  1.848700
  0.641000,  1.565500
  0.643000,  1.291900
  0.645000,  1.029200
  0.647000,  0.777500
  0.649000,  0.536100
  0.651000,  0.306700
  0.653000,  0.090300
  0.655000, -0.113500
  0.657000, -0.305200
  0.659000, -0.486300
  0.661000, -0.656000
  0.663000, -0.814100
  0.665000, -0.961800
  0.667000, -1.097500
  0.669000, -1.221800
  0.671000, -1.336500
  0.673000, -1.441200
  0.675000, -1.535000
  0.677000, -1.617900
  0.679000, -1.691100
  0.681000, -1.755700
  0.683000, -1.811500
  0.685000, -1.858400
  0.687000, -1.896400
  0.689000, -1.926600
  0.691000, -1.949100
  0.693000, -1.963900
  0.695000, -1.972100
  0.697000, -1.973500
  0.699000, -1.968500
  0.701000, -1.958500
  0.703000, -1.943300
  0.705000, -1.923500
  0.707000, -1.899800
  0.709000, -1.873300
  0.711000, -1.844600
  0.713000, -1.812200
  0.715000, -1.775700
  0.717000, -1.737400
  0.719000, -1.697600
  0.721000, -1.655900
  0.723000, -1.614500
  0.725000, -1.573200
  0.727000, -1.531400
  0.729000, -1.489400
  0.731000, -1.447400
  0.733000, -1.405800
  0.735000, -1.364800
  0.737000, -1.325000
  0.739000, -1.286700
  0.741000, -1.249600
  0.743000, -1.213300
  0.745000, -1.178900
  0.747000, -1.146600
  0.749000, -1.116100
  0.751000, -1.086700
  0.753000, -1.059000
  0.755000, -1.033100
  0.757000, -1.008900
  0.759000, -0.986300
  0.761000, -0.964800
  0.763000, -0.944700
  0.765000, -0.926100
  0.767000, -0.908500
  0.769000, -0.891700
  0.771000, -0.876000
  0.773000, -0.860900
  0.775000, -0.846400
  0.777000, -0.832600
  0.779000, -0.818700
  0.781000, -0.805300
  0.783000, -0.792200
  0.785000, -0.779000
  0.787000, -0.765600
  0.789000, -0.751800
  0.791000, -0.737600
  0.793000, -0.723000
  0.795000, -0.707600
  0.797000, -0.691400
  0.799000, -0.674400
  0.801000, -0.656600
  0.803000, -0.637800
  0.805000, -0.617800
  0.807000, -0.596600
  0.809000, -0.574200
  0.811000, -0.550700
  0.813000, -0.526000
  0.815000, -0.499800
  0.817000, -0.472500
  0.819000, -0.444000
  0.821000, -0.414100
  0.823000, -0.383000
  0.825000, -0.351000
  0.827000, -0.317600
  0.829000, -0.283200
  0.831000, -0.248100
  0.833000, -0.212100
  0.835000, -0.175300
  0.837000, -0.137500
  0.839000, -0.099100
  0.841000, -0.060200
  0.843000, -0.020900
  0.845000,  0.018800
  0.847000,  0.058200
  0.849000,  0.097800
  0.851000,  0.137700
  0.853000,  0.177300
  0.855000,  0.216200
  0.857000,  0.254600
  0.859000,  0.292300
  0.861000,  0.329100
  0.863000,  0.365400
  0.865000,  0.400500
  0.867000,  0.434400
  0.869000,  0.467500
  0.871000,  0.499000
  0.873000,  0.529100
  0.875000,  0.557900
  0.877000,  0.584900
  0.879000,  0.610300
  0.881000,  0.633600
  0.883000,  0.654800
  0.885000,  0.674100
  0.887000,  0.691300
  0.889000,  0.706300
  0.891000,  0.719400
  0.893000,  0.730500
  0.895000,  0.739400
  0.897000,  0.746400
  0.899000,  0.751200
  0.901000,  0.753800
  0.903000,  0.754300
  0.905000,  0.752800
  0.907000,  0.749500
  0.909000,  0.744100
  0.911000,  0.736900
  0.913000,  0.727800
  0.915000,  0.716700
  0.917000,  0.704000
  0.919000,  0.689600
  0.921000,  0.673800
  0.923000,  0.656500
  0.925000,  0.637700
  0.927000,  0.617500
  0.929000,  0.596300
  0.931000,  0.574200
  0.933000,  0.551000
  0.935000,  0.526800
  0.937000,  0.501700
  0.939000,  0.475900
  0.941000,  0.449400
  0.943000,  0.422300
  0.945000,  0.394700
  0.947000,  0.366900
  0.949000,  0.339000
  0.951000,  0.310800
  0.953000,  0.282400
  0.955000,  0.254100
  0.957000,  0.225900
  0.959000,  0.197800
  0.961000,  0.170000
  0.963000,  0.142600
  0.965000,  0.115600
  0.967000,  0.088800
  0.969000,  0.062600
  0.971000,  0.037000
  0.973000,  0.011800
  0.975000, -0.013100
  0.977000, -0.037000
  0.979000, -0.060200
  0.981000, -0.082900
  0.983000, -0.104700
  0.985000, -0.125900
  0.987000, -0.146400
  0.989000, -0.166000
  0.991000, -0.184800
  0.993000, -0.202800
  0.995000, -0.220200
  0.997000, -0.236700
  0.999000, -0.252400
  1.001000, -0.267400
  1.003000, -0.281600
  1.005000, -0.295000
  1.007000, -0.307500
  1.009000, -0.319300
  1.011000, -0.330500
  1.013000, -0.340900
  1.015000, -0.350700
  1.017000, -0.359900
  1.019000, -0.368400
  1.021000, -0.376200
  1.023000, -0.383400
  1.025000, -0.390100
  1.027000, -0.396200
  1.029000, -0.401600
  1.031000, -0.406500
  1.033000, -0.410900
  1.035000, -0.414800
  1.037000, -0.418200
  1.039000, -0.421100
  1.041000, -0.423600
  1.043000, -0.425600
  1.045000, -0.427200
  1.047000, -0.428300
  1.049000, -0.428900
  1.051000, -0.429000
  1.053000, -0.428900
  1.055000, -0.428300
  1.057000, -0.427200
  1.059000, -0.425700
  1.061000, -0.423900
  1.063000, -0.421700
  1.065000, -0.419000
  1.067000, -0.416100
  1.069000, -0.412800
  1.071000, -0.409100
  1.073000, -0.405100
  1.075000, -0.400800
  1.077000, -0.396100
  1.079000, -0.391000
  1.081000, -0.385600
  1.083000, -0.379900
  1.085000, -0.373900
  1.087000, -0.367600
  1.089000, -0.360900
  1.091000, -0.354100
  1.093000, -0.346900
  1.095000, -0.339400
  1.097000, -0.331500
  1.099000, -0.323400
  1.101000, -0.315200
  1.103000, -0.306600
  1.105000, -0.297800
  1.107000, -0.288700
  1.109000, -0.279400
  1.111000, -0.270000
  1.113000, -0.260300
  1.115000, -0.250600
  1.117000, -0.240600
  1.119000, -0.230600
  1.121000, -0.220500
  1.123000, -0.210200
  1.125000, -0.199700
  1.127000, -0.189300
  1.129000, -0.178800
  1.131000, -0.168300
  1.133000, -0.157800
  1.135000, -0.147500
  1.137000, -0.137100
  1.139000, -0.126600
  1.141000, -0.116200
  1.143000, -0.105900
  1.145000, -0.095700
  1.147000, -0.085600
  1.149000, -0.075700
  1.151000, -0.065900
  1.153000, -0.056200
  1.155000, -0.046600
  1.157000, -0.037200
  1.159000, -0.028100
  1.161000, -0.019300
  1.163000, -0.010600
  1.165000, -0.002000
  1.167000,  0.006300
  1.169000,  0.014400
  1.171000,  0.022200
  1.173000,  0.029600
  1.175000,  0.036900
  1.177000,  0.044000
  1.179000,  0.050900
  1.181000,  0.057500
  1.183000,  0.063700
  1.185000,  0.069700
  1.187000,  0.075400
  1.189000,  0.080800
  1.191000,  0.085900
  1.193000,  0.090700
  1.195000,  0.095200
  1.197000,  0.099400
  1.199000,  0.103200
  1.201000,  0.106800
  1.203000,  0.110000
  1.205000,  0.113000
  1.207000,  0.115700
  1.209000,  0.118300
  1.211000,  0.120500
  1.213000,  0.122300
  1.215000,  0.123900
  1.217000,  0.125200
  1.219000,  0.126200
  1.221000,  0.126800
  1.223000,  0.127200
  1.225000,  0.127400
  1.227000,  0.127100
  1.229000,  0.126600
  1.231000,  0.125800
  1.233000,  0.124800
  1.235000,  0.123500
  1.237000,  0.121800
  1.239000,  0.119800
  1.241000,  0.117500
  1.243000,  0.115200
  1.245000,  0.112600
  1.247000,  0.109700
  1.249000,  0.106500
  1.251000,  0.103100
  1.253000,  0.099500
  1.255000,  0.095500
  1.257000,  0.091300
  1.259000,  0.087000
  1.261000,  0.082500
  1.263000,  0.077800
  1.265000,  0.072800
  1.267000,  0.067700
  1.269000,  0.062300
  1.271000,  0.056800
  1.273000,  0.051300
  1.275000,  0.045600
  1.277000,  0.039700
  1.279000,  0.033700
  1.281000,  0.027600
  1.283000,  0.021400
  1.285000,  0.015200
  1.287000,  0.009000
  1.289000,  0.002700
  1.291000, -0.003600
  1.293000, -0.009800
  1.295000, -0.016000
  1.297000, -0.022200
  1.299000, -0.028300
  1.301000, -0.034300
  1.303000, -0.040100
  1.305000, -0.045900
  1.307000, -0.051500
  1.309000, -0.056900
  1.311000, -0.062200
  1.313000, -0.067400
  1.315000, -0.072300
  1.317000, -0.077000
  1.319000, -0.081500
  1.321000, -0.085800
  1.323000, -0.089900
  1.325000, -0.093700
  1.327000, -0.097200
  1.329000, -0.100400
  1.331000, -0.103400
  1.333000, -0.106000
  1.335000, -0.108400
  1.337000, -0.110400
  1.339000, -0.112200
  1.341000, -0.113600
  1.343000, -0.114600
  1.345000, -0.115300
  1.347000, -0.115600
  1.349000, -0.115600
  1.351000, -0.115300
  1.353000, -0.114700
  1.355000, -0.113600
  1.357000, -0.112100
  1.359000, -0.110300
  1.361000, -0.108200
  1.363000, -0.105700
  1.365000, -0.102800
  1.367000, -0.099700
  1.369000, -0.096300
  1.371000, -0.092500
  1.373000, -0.088400
  1.375000, -0.084000
  1.377000, -0.079400
  1.379000, -0.074400
  1.381000, -0.069200
  1.383000, -0.063900
  1.385000, -0.058600
  1.387000, -0.053100
  1.389000, -0.047600
  1.391000, -0.042100
  1.393000, -0.036500
  1.395000, -0.031200
  1.397000, -0.026200
  1.399000, -0.021000
