# z (nm)   (kJ/mol)
  0.425000, 30.275900
  0.427000, 30.061100
  0.429000, 29.843700
  0.431000, 29.621900
  0.433000, 29.390500
  0.435000, 29.150200
  0.437000, 28.906500
  0.439000, 28.657200
  0.441000, 28.399500
  0.443000, 28.133100
  0.445000, 27.857700
  0.447000, 27.573000
  0.449000, 27.278900
  0.451000, 26.977000
  0.453000, 26.666500
  0.455000, 26.347200
  0.457000, 26.018600
  0.459000, 25.680000
  0.461000, 25.331900
  0.463000, 24.974200
  0.465000, 24.607000
  0.467000, 24.230100
  0.469000, 23.843400
  0.471000, 23.447300
  0.473000, 23.043000
  0.475000, 22.630100
  0.477000, 22.206800
  0.479000, 21.776500
  0.481000, 21.338800
  0.483000, 20.902800
  0.485000, 20.475500
  0.487000, 20.048800
  0.489000, 19.628800
  0.491000, 19.230400
  0.493000, 18.864100
  0.495000, 18.518300
  0.497000, 18.177300
  0.499000, 17.847300
  0.501000, 17.529400
  0.503000, 17.200600
  0.505000, 16.856000
  0.507000, 16.509500
  0.509000, 16.166900
  0.511000, 15.824500
  0.513000, 15.468100
  0.515000, 15.101200
  0.517000, 14.733200
  0.519000, 14.368000
  0.521000, 14.003400
  0.523000, 13.633600
  0.525000, 13.258900
  0.527000, 12.887900
  0.529000, 12.523300
  0.531000, 12.161200
  0.533000, 11.805000
  0.535000, 11.459800
  0.537000, 11.124500
  0.539000, 10.793300
  0.541000, 10.472400
  0.543000, 10.165700
  0.545000,  9.866900
  0.547000,  9.574200
  0.549000,  9.290900
  0.551000,  9.016600
  0.553000,  8.751500
  0.555000,  8.500500
  0.557000,  8.259100
  0.559000,  8.024500
  0.561000,  7.799200
  0.563000,  7.580000
  0.565000,  7.362700
  0.567000,  7.150000
  0.569000,  6.946900
  0.571000,  6.750800
  0.573000,  6.559200
  0.575000,  6.372500
  0.577000,  6.187800
  0.579000,  6.002200
  0.581000,  5.820000
  0.583000,  5.641500
  0.585000,  5.459400
  0.587000,  5.276500
  0.589000,  5.096500
  0.591000,  4.909600
  0.593000,  4.723900
  0.595000,  4.541600
  0.597000,  4.347300
  0.599000,  4.156000
  0.601000,  3.972600
  0.603000,  3.782200
  0.605000,  3.587100
  0.607000,  3.388500
  0.609000,  3.188300
  0.611000,  2.985500
  0.613000,  2.773900
  0.615000,  2.560400
  0.617000,  2.345500
  0.619000,  2.127800
  0.621000,  1.917700
  0.623000,  1.710800
  0.625000,  1.502200
  0.627000,  1.297200
  0.629000,  1.095300
  0.631000,  0.897600
  0.633000,  0.703100
  0.635000,  0.513800
  0.637000,  0.334000
  0.639000,  0.158300
  0.641000, -0.016100
  0.643000, -0.185100
  0.645000, -0.345800
  0.647000, -0.498500
  0.649000, -0.645500
  0.651000, -0.788000
  0.653000, -0.925300
  0.655000, -1.055100
  0.657000, -1.178300
  0.659000, -1.295700
  0.661000, -1.406900
  0.663000, -1.510900
  0.665000, -1.607900
  0.667000, -1.698500
  0.669000, -1.781700
  0.671000, -1.857700
  0.673000, -1.928600
  0.675000, -1.992700
  0.677000, -2.049300
  0.679000, -2.100500
  0.681000, -2.144300
  0.683000, -2.181500
  0.685000, -2.212300
  0.687000, -2.236700
  0.689000, -2.255100
  0.691000, -2.267500
  0.693000, -2.275700
  0.695000, -2.279400
  0.697000, -2.279100
  0.699000, -2.275000
  0.701000, -2.265800
  0.703000, -2.251800
  0.705000, -2.235400
  0.707000, -2.216500
  0.709000, -2.195100
  0.711000, -2.171100
  0.713000, -2.144300
  0.715000, -2.115700
  0.717000, -2.085700
  0.719000, -2.054300
  0.721000, -2.021600
  0.723000, -1.987800
  0.725000, -1.953100
  0.727000, -1.918500
  0.729000, -1.883300
  0.731000, -1.847500
  0.733000, -1.812200
  0.735000, -1.778100
  0.737000, -1.745100
  0.739000, -1.712900
  0.741000, -1.681000
  0.743000, -1.650000
  0.745000, -1.619600
  0.747000, -1.589200
  0.749000, -1.560000
  0.751000, -1.532400
  0.753000, -1.505800
  0.755000, -1.479900
  0.757000, -1.454900
  0.759000, -1.430700
  0.761000, -1.407200
  0.763000, -1.384700
  0.765000, -1.362800
  0.767000, -1.341700
  0.769000, -1.321000
  0.771000, -1.300700
  0.773000, -1.280900
  0.775000, -1.261300
  0.777000, -1.241500
  0.779000, -1.221800
  0.781000, -1.201900
  0.783000, -1.181800
  0.785000, -1.161700
  0.787000, -1.141200
  0.789000, -1.120500
  0.791000, -1.099700
  0.793000, -1.078200
  0.795000, -1.056000
  0.797000, -1.033400
  0.799000, -1.010200
  0.801000, -0.986300
  0.803000, -0.961800
  0.805000, -0.936700
  0.807000, -0.910700
  0.809000, -0.883800
  0.811000, -0.856300
  0.813000, -0.828100
  0.815000, -0.799200
  0.817000, -0.769500
  0.819000, -0.739200
  0.821000, -0.708500
  0.823000, -0.677100
  0.825000, -0.645100
  0.827000, -0.612400
  0.829000, -0.579400
  0.831000, -0.546100
  0.833000, -0.512400
  0.835000, -0.478300
  0.837000, -0.444000
  0.839000, -0.409900
  0.841000, -0.375700
  0.843000, -0.341600
  0.845000, -0.307700
  0.847000, -0.273800
  0.849000, -0.240200
  0.851000, -0.207000
  0.853000, -0.174600
  0.855000, -0.142600
  0.857000, -0.111200
  0.859000, -0.080600
  0.861000, -0.050900
  0.863000, -0.021700
  0.865000,  0.007100
  0.867000,  0.034700
  0.869000,  0.061000
  0.871000,  0.086400
  0.873000,  0.110600
  0.875000,  0.133500
  0.877000,  0.155300
  0.879000,  0.175900
  0.881000,  0.195100
  0.883000,  0.212900
  0.885000,  0.229300
  0.887000,  0.244400
  0.889000,  0.258000
  0.891000,  0.270000
  0.893000,  0.280400
  0.895000,  0.289600
  0.897000,  0.297400
  0.899000,  0.303600
  0.901000,  0.308400
  0.903000,  0.311600
  0.905000,  0.313200
  0.907000,  0.313500
  0.909000,  0.312600
  0.911000,  0.310300
  0.913000,  0.306600
  0.915000,  0.301500
  0.917000,  0.295100
  0.919000,  0.287400
  0.921000,  0.278400
  0.923000,  0.268100
  0.925000,  0.256700
  0.927000,  0.244200
  0.929000,  0.230600
  0.931000,  0.216100
  0.933000,  0.200800
  0.935000,  0.184600
  0.937000,  0.167600
  0.939000,  0.149800
  0.941000,  0.131300
  0.943000,  0.112100
  0.945000,  0.092500
  0.947000,  0.072300
  0.949000,  0.051600
  0.951000,  0.030600
  0.953000,  0.009200
  0.955000, -0.012600
  0.957000, -0.034400
  0.959000, -0.056300
  0.961000, -0.078300
  0.963000, -0.100600
  0.965000, -0.122700
  0.967000, -0.144800
  0.969000, -0.166900
  0.971000, -0.188800
  0.973000, -0.210200
  0.975000, -0.231200
  0.977000, -0.251900
  0.979000, -0.272200
  0.981000, -0.292100
  0.983000, -0.311600
  0.985000, -0.330700
  0.987000, -0.349200
  0.989000, -0.367200
  0.991000, -0.384500
  0.993000, -0.401200
  0.995000, -0.417400
  0.997000, -0.433000
  0.999000, -0.447900
  1.001000, -0.462000
  1.003000, -0.475500
  1.005000, -0.488400
  1.007000, -0.500400
  1.009000, -0.511600
  1.011000, -0.522000
  1.013000, -0.531600
  1.015000, -0.540500
  1.017000, -0.548600
  1.019000, -0.556000
  1.021000, -0.562500
  1.023000, -0.568200
  1.025000, -0.573100
  1.027000, -0.577200
  1.029000, -0.580700
  1.031000, -0.583500
  1.033000, -0.585400
  1.035000, -0.586600
  1.037000, -0.587000
  1.039000, -0.586600
  1.041000, -0.585600
  1.043000, -0.584000
  1.045000, -0.581700
  1.047000, -0.578800
  1.049000, -0.575000
  1.051000, -0.570500
  1.053000, -0.565600
  1.055000, -0.560100
  1.057000, -0.553800
  1.059000, -0.547000
  1.061000, -0.539600
  1.063000, -0.531800
  1.065000, -0.523600
  1.067000, -0.514700
  1.069000, -0.505400
  1.071000, -0.495800
  1.073000, -0.485800
  1.075000, -0.475300
  1.077000, -0.464300
  1.079000, -0.452900
  1.081000, -0.441500
  1.083000, -0.429700
  1.085000, -0.417500
  1.087000, -0.405200
  1.089000, -0.392600
  1.091000, -0.379800
  1.093000, -0.366800
  1.095000, -0.353800
  1.097000, -0.340600
  1.099000, -0.327200
  1.101000, -0.313700
  1.103000, -0.300300
  1.105000, -0.286700
  1.107000, -0.273100
  1.109000, -0.259500
  1.111000, -0.245900
  1.113000, -0.232400
  1.115000, -0.218900
  1.117000, -0.205400
  1.119000, -0.192100
  1.121000, -0.178800
  1.123000, -0.165700
  1.125000, -0.152800
  1.127000, -0.140000
  1.129000, -0.127500
  1.131000, -0.115200
  1.133000, -0.103100
  1.135000, -0.091100
  1.137000, -0.079400
  1.139000, -0.068100
  1.141000, -0.057100
  1.143000, -0.046200
  1.145000, -0.035600
  1.147000, -0.025300
  1.149000, -0.015400
  1.151000, -0.005700
  1.153000,  0.003700
  1.155000,  0.012600
  1.157000,  0.021300
  1.159000,  0.029700
  1.161000,  0.037700
  1.163000,  0.045500
  1.165000,  0.052800
  1.167000,  0.059800
  1.169000,  0.066300
  1.171000,  0.072600
  1.173000,  0.078500
  1.175000,  0.084100
  1.177000,  0.089300
  1.179000,  0.094200
  1.181000,  0.098700
  1.183000,  0.102800
  1.185000,  0.106600
  1.187000,  0.110000
  1.189000,  0.113200
  1.191000,  0.115900
  1.193000,  0.118400
  1.195000,  0.120600
  1.197000,  0.122400
  1.199000,  0.123800
  1.201000,  0.124800
  1.203000,  0.125600
  1.205000,  0.126000
  1.207000,  0.126200
  1.209000,  0.126000
  1.211000,  0.125500
  1.213000,  0.124700
  1.215000,  0.123600
  1.217000,  0.122100
  1.219000,  0.120400
  1.221000,  0.118500
  1.223000,  0.116200
  1.225000,  0.113700
  1.227000,  0.110900
  1.229000,  0.107700
  1.231000,  0.104300
  1.233000,  0.100800
  1.235000,  0.097100
  1.237000,  0.093100
  1.239000,  0.089000
  1.241000,  0.084600
  1.243000,  0.080000
  1.245000,  0.075100
  1.247000,  0.070100
  1.249000,  0.065100
  1.251000,  0.059800
  1.253000,  0.054300
  1.255000,  0.048800
  1.257000,  0.043200
  1.259000,  0.037600
  1.261000,  0.031900
  1.263000,  0.026200
  1.265000,  0.020300
  1.267000,  0.014600
  1.269000,  0.008800
  1.271000,  0.003000
  1.273000, -0.002800
  1.275000, -0.008500
  1.277000, -0.014100
  1.279000, -0.019600
  1.281000, -0.024900
  1.283000, -0.030200
  1.285000, -0.035500
  1.287000, -0.040600
  1.289000, -0.045500
  1.291000, -0.050200
  1.293000, -0.054700
  1.295000, -0.059100
  1.297000, -0.063300
  1.299000, -0.067300
  1.301000, -0.071100
  1.303000, -0.074600
  1.305000, -0.077900
  1.307000, -0.081000
  1.309000, -0.083800
  1.311000, -0.086300
  1.313000, -0.088600
  1.315000, -0.090600
  1.317000, -0.092200
  1.319000, -0.093700
  1.321000, -0.094800
  1.323000, -0.095700
  1.325000, -0.096300
  1.327000, -0.096600
  1.329000, -0.096500
  1.331000, -0.096200
  1.333000, -0.095700
  1.335000, -0.094800
  1.337000, -0.093500
  1.339000, -0.091900
  1.341000, -0.090100
  1.343000, -0.088100
  1.345000, -0.085700
  1.347000, -0.082900
  1.349000, -0.079800
  1.351000, -0.076400
  1.353000, -0.072600
  1.355000, -0.068500
  1.357000, -0.064300
  1.359000, -0.059900
  1.361000, -0.054900
  1.363000, -0.049700
  1.365000, -0.044500
  1.367000, -0.039000
  1.369000, -0.033100
  1.371000, -0.027300
  1.373000, -0.021400
  1.375000, -0.015300
  1.377000, -0.009100
  1.379000, -0.002600
  1.381000,  0.003900
  1.383000,  0.010500
  1.385000,  0.017000
  1.387000,  0.023400
  1.389000,  0.029700
  1.391000,  0.035900
  1.393000,  0.042000
  1.395000,  0.047800
  1.397000,  0.053000
  1.399000,  0.058200
