# z (nm)   (kJ/mol)
  0.4250   30.27590
  0.4270   30.06110
  0.4290   29.84370
  0.4310   29.62190
  0.4330   29.39050
  0.4350   29.15020
  0.4370   28.90650
  0.4390   28.65720
  0.4410   28.39950
  0.4430   28.13310
  0.4450   27.85770
  0.4470   27.57300
  0.4490   27.27890
  0.4510   26.97700
  0.4530   26.66650
  0.4550   26.34720
  0.4570   26.01860
  0.4590   25.68000
  0.4610   25.33190
  0.4630   24.97420
  0.4650   24.60700
  0.4670   24.23010
  0.4690   23.84340
  0.4710   23.44730
  0.4730   23.04300
  0.4750   22.63010
  0.4770   22.20680
  0.4790   21.77650
  0.4810   21.33880
  0.4830   20.90280
  0.4850   20.47550
  0.4870   20.04880
  0.4890   19.62880
  0.4910   19.23040
  0.4930   18.86410
  0.4950   18.51830
  0.4970   18.17730
  0.4990   17.84730
  0.5010   17.52940
  0.5030   17.20060
  0.5050   16.85600
  0.5070   16.50950
  0.5090   16.16690
  0.5110   15.82450
  0.5130   15.46810
  0.5150   15.10120
  0.5170   14.73320
  0.5190   14.36800
  0.5210   14.00340
  0.5230   13.63360
  0.5250   13.25890
  0.5270   12.88790
  0.5290   12.52330
  0.5310   12.16120
  0.5330   11.80500
  0.5350   11.45980
  0.5370   11.12450
  0.5390   10.79330
  0.5410   10.47240
  0.5430   10.16570
  0.5450    9.86690
  0.5470    9.57420
  0.5490    9.29090
  0.5510    9.01660
  0.5530    8.75150
  0.5550    8.50050
  0.5570    8.25910
  0.5590    8.02450
  0.5610    7.79920
  0.5630    7.58000
  0.5650    7.36270
  0.5670    7.15000
  0.5690    6.94690
  0.5710    6.75080
  0.5730    6.55920
  0.5750    6.37250
  0.5770    6.18780
  0.5790    6.00220
  0.5810    5.82000
  0.5830    5.64150
  0.5850    5.45940
  0.5870    5.27650
  0.5890    5.09650
  0.5910    4.90960
  0.5930    4.72390
  0.5950    4.54160
  0.5970    4.34730
  0.5990    4.15600
  0.6010    3.97260
  0.6030    3.78220
  0.6050    3.58710
  0.6070    3.38850
  0.6090    3.18830
  0.6110    2.98550
  0.6130    2.77390
  0.6150    2.56040
  0.6170    2.34550
  0.6190    2.12780
  0.6210    1.91770
  0.6230    1.71080
  0.6250    1.50220
  0.6270    1.29720
  0.6290    1.09530
  0.6310    0.89760
  0.6330    0.70310
  0.6350    0.51380
  0.6370    0.33400
  0.6390    0.15830
  0.6410   -0.01610
  0.6430   -0.18510
  0.6450   -0.34580
  0.6470   -0.49850
  0.6490   -0.64550
  0.6510   -0.78800
  0.6530   -0.92530
  0.6550   -1.05510
  0.6570   -1.17830
  0.6590   -1.29570
  0.6610   -1.40690
  0.6630   -1.51090
  0.6650   -1.60790
  0.6670   -1.69850
  0.6690   -1.78170
  0.6710   -1.85770
  0.6730   -1.92860
  0.6750   -1.99270
  0.6770   -2.04930
  0.6790   -2.10050
  0.6810   -2.14430
  0.6830   -2.18150
  0.6850   -2.21230
  0.6870   -2.23670
  0.6890   -2.25510
  0.6910   -2.26750
  0.6930   -2.27570
  0.6950   -2.27940
  0.6970   -2.27910
  0.6990   -2.27500
  0.7010   -2.26580
  0.7030   -2.25180
  0.7050   -2.23540
  0.7070   -2.21650
  0.7090   -2.19510
  0.7110   -2.17110
  0.7130   -2.14430
  0.7150   -2.11570
  0.7170   -2.08570
  0.7190   -2.05430
  0.7210   -2.02160
  0.7230   -1.98780
  0.7250   -1.95310
  0.7270   -1.91850
  0.7290   -1.88330
  0.7310   -1.84750
  0.7330   -1.81220
  0.7350   -1.77810
  0.7370   -1.74510
  0.7390   -1.71290
  0.7410   -1.68100
  0.7430   -1.65000
  0.7450   -1.61960
  0.7470   -1.58920
  0.7490   -1.56000
  0.7510   -1.53240
  0.7530   -1.50580
  0.7550   -1.47990
  0.7570   -1.45490
  0.7590   -1.43070
  0.7610   -1.40720
  0.7630   -1.38470
  0.7650   -1.36280
  0.7670   -1.34170
  0.7690   -1.32100
  0.7710   -1.30070
  0.7730   -1.28090
  0.7750   -1.26130
  0.7770   -1.24150
  0.7790   -1.22180
  0.7810   -1.20190
  0.7830   -1.18180
  0.7850   -1.16170
  0.7870   -1.14120
  0.7890   -1.12050
  0.7910   -1.09970
  0.7930   -1.07820
  0.7950   -1.05600
  0.7970   -1.03340
  0.7990   -1.01020
  0.8010   -0.98630
  0.8030   -0.96180
  0.8050   -0.93670
  0.8070   -0.91070
  0.8090   -0.88380
  0.8110   -0.85630
  0.8130   -0.82810
  0.8150   -0.79920
  0.8170   -0.76950
  0.8190   -0.73920
  0.8210   -0.70850
  0.8230   -0.67710
  0.8250   -0.64510
  0.8270   -0.61240
  0.8290   -0.57940
  0.8310   -0.54610
  0.8330   -0.51240
  0.8350   -0.47830
  0.8370   -0.44400
  0.8390   -0.40990
  0.8410   -0.37570
  0.8430   -0.34160
  0.8450   -0.30770
  0.8470   -0.27380
  0.8490   -0.24020
  0.8510   -0.20700
  0.8530   -0.17460
  0.8550   -0.14260
  0.8570   -0.11120
  0.8590   -0.08060
  0.8610   -0.05090
  0.8630   -0.02170
  0.8650    0.00710
  0.8670    0.03470
  0.8690    0.06100
  0.8710    0.08640
  0.8730    0.11060
  0.8750    0.13350
  0.8770    0.15530
  0.8790    0.17590
  0.8810    0.19510
  0.8830    0.21290
  0.8850    0.22930
  0.8870    0.24440
  0.8890    0.25800
  0.8910    0.27000
  0.8930    0.28040
  0.8950    0.28960
  0.8970    0.29740
  0.8990    0.30360
  0.9010    0.30840
  0.9030    0.31160
  0.9050    0.31320
  0.9070    0.31350
  0.9090    0.31260
  0.9110    0.31030
  0.9130    0.30660
  0.9150    0.30150
  0.9170    0.29510
  0.9190    0.28740
  0.9210    0.27840
  0.9230    0.26810
  0.9250    0.25670
  0.9270    0.24420
  0.9290    0.23060
  0.9310    0.21610
  0.9330    0.20080
  0.9350    0.18460
  0.9370    0.16760
  0.9390    0.14980
  0.9410    0.13130
  0.9430    0.11210
  0.9450    0.09250
  0.9470    0.07230
  0.9490    0.05160
  0.9510    0.03060
  0.9530    0.00920
  0.9550   -0.01260
  0.9570   -0.03440
  0.9590   -0.05630
  0.9610   -0.07830
  0.9630   -0.10060
  0.9650   -0.12270
  0.9670   -0.14480
  0.9690   -0.16690
  0.9710   -0.18880
  0.9730   -0.21020
  0.9750   -0.23120
  0.9770   -0.25190
  0.9790   -0.27220
  0.9810   -0.29210
  0.9830   -0.31160
  0.9850   -0.33070
  0.9870   -0.34920
  0.9890   -0.36720
  0.9910   -0.38450
  0.9930   -0.40120
  0.9950   -0.41740
  0.9970   -0.43300
  0.9990   -0.44790
  1.0010   -0.46200
  1.0030   -0.47550
  1.0050   -0.48840
  1.0070   -0.50040
  1.0090   -0.51160
  1.0110   -0.52200
  1.0130   -0.53160
  1.0150   -0.54050
  1.0170   -0.54860
  1.0190   -0.55600
  1.0210   -0.56250
  1.0230   -0.56820
  1.0250   -0.57310
  1.0270   -0.57720
  1.0290   -0.58070
  1.0310   -0.58350
  1.0330   -0.58540
  1.0350   -0.58660
  1.0370   -0.58700
  1.0390   -0.58660
  1.0410   -0.58560
  1.0430   -0.58400
  1.0450   -0.58170
  1.0470   -0.57880
  1.0490   -0.57500
  1.0510   -0.57050
  1.0530   -0.56560
  1.0550   -0.56010
  1.0570   -0.55380
  1.0590   -0.54700
  1.0610   -0.53960
  1.0630   -0.53180
  1.0650   -0.52360
  1.0670   -0.51470
  1.0690   -0.50540
  1.0710   -0.49580
  1.0730   -0.48580
  1.0750   -0.47530
  1.0770   -0.46430
  1.0790   -0.45290
  1.0810   -0.44150
  1.0830   -0.42970
  1.0850   -0.41750
  1.0870   -0.40520
  1.0890   -0.39260
  1.0910   -0.37980
  1.0930   -0.36680
  1.0950   -0.35380
  1.0970   -0.34060
  1.0990   -0.32720
  1.1010   -0.31370
  1.1030   -0.30030
  1.1050   -0.28670
  1.1070   -0.27310
  1.1090   -0.25950
  1.1110   -0.24590
  1.1130   -0.23240
  1.1150   -0.21890
  1.1170   -0.20540
  1.1190   -0.19210
  1.1210   -0.17880
  1.1230   -0.16570
  1.1250   -0.15280
  1.1270   -0.14000
  1.1290   -0.12750
  1.1310   -0.11520
  1.1330   -0.10310
  1.1350   -0.09110
  1.1370   -0.07940
  1.1390   -0.06810
  1.1410   -0.05710
  1.1430   -0.04620
  1.1450   -0.03560
  1.1470   -0.02530
  1.1490   -0.01540
  1.1510   -0.00570
  1.1530    0.00370
  1.1550    0.01260
  1.1570    0.02130
  1.1590    0.02970
  1.1610    0.03770
  1.1630    0.04550
  1.1650    0.05280
  1.1670    0.05980
  1.1690    0.06630
  1.1710    0.07260
  1.1730    0.07850
  1.1750    0.08410
  1.1770    0.08930
  1.1790    0.09420
  1.1810    0.09870
  1.1830    0.10280
  1.1850    0.10660
  1.1870    0.11000
  1.1890    0.11320
  1.1910    0.11590
  1.1930    0.11840
  1.1950    0.12060
  1.1970    0.12240
  1.1990    0.12380
  1.2010    0.12480
  1.2030    0.12560
  1.2050    0.12600
  1.2070    0.12620
  1.2090    0.12600
  1.2110    0.12550
  1.2130    0.12470
  1.2150    0.12360
  1.2170    0.12210
  1.2190    0.12040
  1.2210    0.11850
  1.2230    0.11620
  1.2250    0.11370
  1.2270    0.11090
  1.2290    0.10770
  1.2310    0.10430
  1.2330    0.10080
  1.2350    0.09710
  1.2370    0.09310
  1.2390    0.08900
  1.2410    0.08460
  1.2430    0.08000
  1.2450    0.07510
  1.2470    0.07010
  1.2490    0.06510
  1.2510    0.05980
  1.2530    0.05430
  1.2550    0.04880
  1.2570    0.04320
  1.2590    0.03760
  1.2610    0.03190
  1.2630    0.02620
  1.2650    0.02030
  1.2670    0.01460
  1.2690    0.00880
  1.2710    0.00300
  1.2730   -0.00280
  1.2750   -0.00850
  1.2770   -0.01410
  1.2790   -0.01960
  1.2810   -0.02490
  1.2830   -0.03020
  1.2850   -0.03550
  1.2870   -0.04060
  1.2890   -0.04550
  1.2910   -0.05020
  1.2930   -0.05470
  1.2950   -0.05910
  1.2970   -0.06330
  1.2990   -0.06730
  1.3010   -0.07110
  1.3030   -0.07460
  1.3050   -0.07790
  1.3070   -0.08100
  1.3090   -0.08380
  1.3110   -0.08630
  1.3130   -0.08860
  1.3150   -0.09060
  1.3170   -0.09220
  1.3190   -0.09370
  1.3210   -0.09480
  1.3230   -0.09570
  1.3250   -0.09630
  1.3270   -0.09660
  1.3290   -0.09650
  1.3310   -0.09620
  1.3330   -0.09570
  1.3350   -0.09480
  1.3370   -0.09350
  1.3390   -0.09190
  1.3410   -0.09010
  1.3430   -0.08810
  1.3450   -0.08570
  1.3470   -0.08290
  1.3490   -0.07980
  1.3510   -0.07640
  1.3530   -0.07260
  1.3550   -0.06850
  1.3570   -0.06430
  1.3590   -0.05990
  1.3610   -0.05490
  1.3630   -0.04970
  1.3650   -0.04450
  1.3670   -0.03900
  1.3690   -0.03310
  1.3710   -0.02730
  1.3730   -0.02140
  1.3750   -0.01530
  1.3770   -0.00910
  1.3790   -0.00260
  1.3810    0.00390
  1.3830    0.01050
  1.3850    0.01700
  1.3870    0.02340
  1.3890    0.02970
  1.3910    0.03590
  1.3930    0.04200
  1.3950    0.04780
  1.3970    0.05300
  1.3990    0.05820
