# z (nm)   (kJ/mol)
  0.455000,  4.047700
  0.457000,  3.521900
  0.459000,  2.976900
  0.461000,  2.418600
  0.463000,  1.843800
  0.465000,  1.252300
  0.467000,  0.643600
  0.469000,  0.019900
  0.471000, -0.620700
  0.473000, -1.271000
  0.475000, -1.921700
  0.477000, -2.586500
  0.479000, -3.262900
  0.481000, -3.941600
  0.483000, -4.619400
  0.485000, -5.299000
  0.487000, -5.981800
  0.489000, -6.663600
  0.491000, -7.345500
  0.493000, -8.020400
  0.495000, -8.683200
  0.497000, -9.321700
  0.499000, -9.934600
  0.501000,-10.540400
  0.503000,-11.130900
  0.505000,-11.692200
  0.507000,-12.230700
  0.509000,-12.749100
  0.511000,-13.243500
  0.513000,-13.708200
  0.515000,-14.146400
  0.517000,-14.555600
  0.519000,-14.929700
  0.521000,-15.277100
  0.523000,-15.598300
  0.525000,-15.891300
  0.527000,-16.160600
  0.529000,-16.408400
  0.531000,-16.630900
  0.533000,-16.829900
  0.535000,-17.009000
  0.537000,-17.167900
  0.539000,-17.306900
  0.541000,-17.426000
  0.543000,-17.525500
  0.545000,-17.606000
  0.547000,-17.667100
  0.549000,-17.707600
  0.551000,-17.728200
  0.553000,-17.730000
  0.555000,-17.710800
  0.557000,-17.671100
  0.559000,-17.608000
  0.561000,-17.519600
  0.563000,-17.410900
  0.565000,-17.278600
  0.567000,-17.119200
  0.569000,-16.935400
  0.571000,-16.727500
  0.573000,-16.496000
  0.575000,-16.234300
  0.577000,-15.938000
  0.579000,-15.622500
  0.581000,-15.292600
  0.583000,-14.938900
  0.585000,-14.568100
  0.587000,-14.187400
  0.589000,-13.796500
  0.591000,-13.398900
  0.593000,-13.003800
  0.595000,-12.617800
  0.597000,-12.215300
  0.599000,-11.805800
  0.601000,-11.429900
  0.603000,-11.075900
  0.605000,-10.726900
  0.607000,-10.394400
  0.609000,-10.073500
  0.611000, -9.786700
  0.613000, -9.539500
  0.615000, -9.296000
  0.617000, -9.073300
  0.619000, -8.870200
  0.621000, -8.666500
  0.623000, -8.478500
  0.625000, -8.302600
  0.627000, -8.130800
  0.629000, -7.970400
  0.631000, -7.822100
  0.633000, -7.679800
  0.635000, -7.541500
  0.637000, -7.413300
  0.639000, -7.294000
  0.641000, -7.181100
  0.643000, -7.066400
  0.645000, -6.954800
  0.647000, -6.849700
  0.649000, -6.746100
  0.651000, -6.651600
  0.653000, -6.559800
  0.655000, -6.465200
  0.657000, -6.374800
  0.659000, -6.289700
  0.661000, -6.206200
  0.663000, -6.123000
  0.665000, -6.042900
  0.667000, -5.965300
  0.669000, -5.887100
  0.671000, -5.809500
  0.673000, -5.733200
  0.675000, -5.658000
  0.677000, -5.582400
  0.679000, -5.506200
  0.681000, -5.429800
  0.683000, -5.353100
  0.685000, -5.275900
  0.687000, -5.198800
  0.689000, -5.121000
  0.691000, -5.041700
  0.693000, -4.962700
  0.695000, -4.884000
  0.697000, -4.804100
  0.699000, -4.722700
  0.701000, -4.642000
  0.703000, -4.561600
  0.705000, -4.479700
  0.707000, -4.397600
  0.709000, -4.316400
  0.711000, -4.235300
  0.713000, -4.154600
  0.715000, -4.074200
  0.717000, -3.995100
  0.719000, -3.918100
  0.721000, -3.841800
  0.723000, -3.765500
  0.725000, -3.691500
  0.727000, -3.620100
  0.729000, -3.549200
  0.731000, -3.478700
  0.733000, -3.409700
  0.735000, -3.343200
  0.737000, -3.278300
  0.739000, -3.214800
  0.741000, -3.153300
  0.743000, -3.093500
  0.745000, -3.035200
  0.747000, -2.978500
  0.749000, -2.923100
  0.751000, -2.868400
  0.753000, -2.815000
  0.755000, -2.764000
  0.757000, -2.714300
  0.759000, -2.665100
  0.761000, -2.617300
  0.763000, -2.570700
  0.765000, -2.525000
  0.767000, -2.480500
  0.769000, -2.436600
  0.771000, -2.393000
  0.773000, -2.350000
  0.775000, -2.307500
  0.777000, -2.265200
  0.779000, -2.223400
  0.781000, -2.182100
  0.783000, -2.141300
  0.785000, -2.100500
  0.787000, -2.059900
  0.789000, -2.019100
  0.791000, -1.977500
  0.793000, -1.936000
  0.795000, -1.894600
  0.797000, -1.853000
  0.799000, -1.811300
  0.801000, -1.769400
  0.803000, -1.727300
  0.805000, -1.685100
  0.807000, -1.643000
  0.809000, -1.600400
  0.811000, -1.557300
  0.813000, -1.514500
  0.815000, -1.472000
  0.817000, -1.429000
  0.819000, -1.386000
  0.821000, -1.342900
  0.823000, -1.299900
  0.825000, -1.257600
  0.827000, -1.215600
  0.829000, -1.173600
  0.831000, -1.132200
  0.833000, -1.091000
  0.835000, -1.050400
  0.837000, -1.010600
  0.839000, -0.971300
  0.841000, -0.932800
  0.843000, -0.895100
  0.845000, -0.857900
  0.847000, -0.821600
  0.849000, -0.786200
  0.851000, -0.752000
  0.853000, -0.718800
  0.855000, -0.686600
  0.857000, -0.655900
  0.859000, -0.626600
  0.861000, -0.598100
  0.863000, -0.570800
  0.865000, -0.544900
  0.867000, -0.520200
  0.869000, -0.497000
  0.871000, -0.475000
  0.873000, -0.454300
  0.875000, -0.435000
  0.877000, -0.417300
  0.879000, -0.400900
  0.881000, -0.385900
  0.883000, -0.372400
  0.885000, -0.360000
  0.887000, -0.348800
  0.889000, -0.339300
  0.891000, -0.331200
  0.893000, -0.324600
  0.895000, -0.319000
  0.897000, -0.314400
  0.899000, -0.311000
  0.901000, -0.308500
  0.903000, -0.307400
  0.905000, -0.307500
  0.907000, -0.308500
  0.909000, -0.310500
  0.911000, -0.313500
  0.913000, -0.317400
  0.915000, -0.322100
  0.917000, -0.327800
  0.919000, -0.334200
  0.921000, -0.341300
  0.923000, -0.349200
  0.925000, -0.357800
  0.927000, -0.366900
  0.929000, -0.376300
  0.931000, -0.386200
  0.933000, -0.396700
  0.935000, -0.407400
  0.937000, -0.418400
  0.939000, -0.429500
  0.941000, -0.440700
  0.943000, -0.452000
  0.945000, -0.463500
  0.947000, -0.475100
  0.949000, -0.486700
  0.951000, -0.498300
  0.953000, -0.509900
  0.955000, -0.521200
  0.957000, -0.532300
  0.959000, -0.543200
  0.961000, -0.553800
  0.963000, -0.564200
  0.965000, -0.574100
  0.967000, -0.583800
  0.969000, -0.593100
  0.971000, -0.602000
  0.973000, -0.610300
  0.975000, -0.618300
  0.977000, -0.625900
  0.979000, -0.633000
  0.981000, -0.639500
  0.983000, -0.645600
  0.985000, -0.651100
  0.987000, -0.656100
  0.989000, -0.660800
  0.991000, -0.664800
  0.993000, -0.668300
  0.995000, -0.671200
  0.997000, -0.673500
  0.999000, -0.675400
  1.001000, -0.676800
  1.003000, -0.677700
  1.005000, -0.678000
  1.007000, -0.677800
  1.009000, -0.677000
  1.011000, -0.675700
  1.013000, -0.673900
  1.015000, -0.671800
  1.017000, -0.669300
  1.019000, -0.666300
  1.021000, -0.662800
  1.023000, -0.658900
  1.025000, -0.654600
  1.027000, -0.650100
  1.029000, -0.645100
  1.031000, -0.639500
  1.033000, -0.633600
  1.035000, -0.627400
  1.037000, -0.620800
  1.039000, -0.613800
  1.041000, -0.606600
  1.043000, -0.599000
  1.045000, -0.591100
  1.047000, -0.583000
  1.049000, -0.574700
  1.051000, -0.566300
  1.053000, -0.557400
  1.055000, -0.548300
  1.057000, -0.538900
  1.059000, -0.529200
  1.061000, -0.519300
  1.063000, -0.509100
  1.065000, -0.498900
  1.067000, -0.488600
  1.069000, -0.478200
  1.071000, -0.467500
  1.073000, -0.456600
  1.075000, -0.445500
  1.077000, -0.434300
  1.079000, -0.423000
  1.081000, -0.411700
  1.083000, -0.400300
  1.085000, -0.388800
  1.087000, -0.377200
  1.089000, -0.365600
  1.091000, -0.354300
  1.093000, -0.343200
  1.095000, -0.332000
  1.097000, -0.320500
  1.099000, -0.308800
  1.101000, -0.297000
  1.103000, -0.285300
  1.105000, -0.273800
  1.107000, -0.262700
  1.109000, -0.251700
  1.111000, -0.240700
  1.113000, -0.230000
  1.115000, -0.218800
  1.117000, -0.208100
  1.119000, -0.198000
  1.121000, -0.187800
  1.123000, -0.177700
  1.125000, -0.167700
  1.127000, -0.158100
  1.129000, -0.148700
  1.131000, -0.139500
  1.133000, -0.130600
  1.135000, -0.121900
  1.137000, -0.113800
  1.139000, -0.106200
  1.141000, -0.098400
  1.143000, -0.090600
  1.145000, -0.083300
  1.147000, -0.076300
  1.149000, -0.069400
  1.151000, -0.063100
  1.153000, -0.057100
  1.155000, -0.051300
  1.157000, -0.045900
  1.159000, -0.041100
  1.161000, -0.036500
  1.163000, -0.032000
  1.165000, -0.027900
  1.167000, -0.024000
  1.169000, -0.020600
  1.171000, -0.017600
  1.173000, -0.014900
  1.175000, -0.012300
  1.177000, -0.009700
  1.179000, -0.007500
  1.181000, -0.005700
  1.183000, -0.004200
  1.185000, -0.002900
  1.187000, -0.001800
  1.189000, -0.001100
  1.191000, -0.000200
  1.193000,  0.000500
  1.195000,  0.000700
  1.197000,  0.000700
  1.199000,  0.000500
  1.201000,  0.000000
  1.203000, -0.000400
  1.205000, -0.000900
  1.207000, -0.001600
  1.209000, -0.002400
  1.211000, -0.003500
  1.213000, -0.004600
  1.215000, -0.005600
  1.217000, -0.006800
  1.219000, -0.008100
  1.221000, -0.009300
  1.223000, -0.010500
  1.225000, -0.011700
  1.227000, -0.012900
  1.229000, -0.014100
  1.231000, -0.015500
  1.233000, -0.016800
  1.235000, -0.018100
  1.237000, -0.019300
  1.239000, -0.020500
  1.241000, -0.021600
  1.243000, -0.022600
  1.245000, -0.023600
  1.247000, -0.024400
  1.249000, -0.025300
  1.251000, -0.026100
  1.253000, -0.026800
  1.255000, -0.027300
  1.257000, -0.027800
  1.259000, -0.028400
  1.261000, -0.028800
  1.263000, -0.029000
  1.265000, -0.029200
  1.267000, -0.029300
  1.269000, -0.029200
  1.271000, -0.029100
  1.273000, -0.028900
  1.275000, -0.028600
  1.277000, -0.028300
  1.279000, -0.027800
  1.281000, -0.027400
  1.283000, -0.026800
  1.285000, -0.026200
  1.287000, -0.025500
  1.289000, -0.024700
  1.291000, -0.023900
  1.293000, -0.023200
  1.295000, -0.022400
  1.297000, -0.021700
  1.299000, -0.020900
  1.301000, -0.020100
  1.303000, -0.019400
  1.305000, -0.018600
  1.307000, -0.017700
  1.309000, -0.016700
  1.311000, -0.015600
  1.313000, -0.014600
  1.315000, -0.013600
  1.317000, -0.012700
  1.319000, -0.011700
  1.321000, -0.010600
  1.323000, -0.009500
  1.325000, -0.008500
  1.327000, -0.007300
  1.329000, -0.006200
  1.331000, -0.005100
  1.333000, -0.004000
  1.335000, -0.002700
  1.337000, -0.001400
  1.339000,  0.000100
  1.341000,  0.001700
  1.343000,  0.003300
  1.345000,  0.005000
  1.347000,  0.006800
  1.349000,  0.008700
  1.351000,  0.010700
  1.353000,  0.012800
  1.355000,  0.015200
  1.357000,  0.017700
  1.359000,  0.020300
  1.361000,  0.023100
  1.363000,  0.026000
  1.365000,  0.029100
  1.367000,  0.032300
  1.369000,  0.035500
  1.371000,  0.038800
  1.373000,  0.042300
  1.375000,  0.046000
  1.377000,  0.049800
  1.379000,  0.053800
  1.381000,  0.057800
  1.383000,  0.061800
  1.385000,  0.065600
  1.387000,  0.069600
  1.389000,  0.073500
  1.391000,  0.077500
  1.393000,  0.081300
  1.395000,  0.084700
  1.397000,  0.088000
  1.399000,  0.091000
