# z (nm)   (kJ/mol)
  0.379000, 15.753400
  0.381000, 15.488300
  0.383000, 15.224500
  0.385000, 14.946800
  0.387000, 14.702500
  0.389000, 14.470000
  0.391000, 14.221000
  0.393000, 13.982900
  0.395000, 13.761900
  0.397000, 13.548200
  0.399000, 13.349700
  0.401000, 13.160100
  0.403000, 12.973700
  0.405000, 12.795700
  0.407000, 12.625800
  0.409000, 12.462200
  0.411000, 12.305200
  0.413000, 12.154400
  0.415000, 12.011400
  0.417000, 11.876700
  0.419000, 11.748600
  0.421000, 11.627200
  0.423000, 11.511800
  0.425000, 11.402600
  0.427000, 11.299800
  0.429000, 11.200900
  0.431000, 11.106300
  0.433000, 11.016500
  0.435000, 10.929300
  0.437000, 10.846000
  0.439000, 10.766500
  0.441000, 10.691600
  0.443000, 10.619600
  0.445000, 10.550600
  0.447000, 10.487400
  0.449000, 10.428200
  0.451000, 10.371200
  0.453000, 10.318500
  0.455000, 10.269700
  0.457000, 10.221700
  0.459000, 10.174300
  0.461000, 10.129000
  0.463000, 10.083100
  0.465000, 10.036900
  0.467000,  9.992200
  0.469000,  9.947000
  0.471000,  9.897800
  0.473000,  9.845400
  0.475000,  9.792600
  0.477000,  9.737400
  0.479000,  9.680600
  0.481000,  9.622900
  0.483000,  9.566900
  0.485000,  9.504200
  0.487000,  9.428800
  0.489000,  9.349600
  0.491000,  9.263900
  0.493000,  9.169900
  0.495000,  9.073300
  0.497000,  8.969700
  0.499000,  8.854100
  0.501000,  8.734900
  0.503000,  8.613200
  0.505000,  8.480500
  0.507000,  8.343800
  0.509000,  8.205300
  0.511000,  8.060400
  0.513000,  7.912100
  0.515000,  7.757700
  0.517000,  7.598200
  0.519000,  7.435500
  0.521000,  7.270100
  0.523000,  7.104100
  0.525000,  6.934700
  0.527000,  6.763700
  0.529000,  6.592100
  0.531000,  6.416100
  0.533000,  6.237600
  0.535000,  6.059500
  0.537000,  5.880100
  0.539000,  5.701000
  0.541000,  5.523800
  0.543000,  5.348300
  0.545000,  5.171900
  0.547000,  4.993700
  0.549000,  4.817500
  0.551000,  4.643200
  0.553000,  4.472100
  0.555000,  4.302000
  0.557000,  4.131700
  0.559000,  3.964700
  0.561000,  3.798900
  0.563000,  3.632300
  0.565000,  3.468200
  0.567000,  3.307100
  0.569000,  3.144300
  0.571000,  2.979800
  0.573000,  2.817400
  0.575000,  2.658300
  0.577000,  2.499300
  0.579000,  2.341200
  0.581000,  2.184200
  0.583000,  2.026600
  0.585000,  1.867200
  0.587000,  1.707300
  0.589000,  1.549600
  0.591000,  1.392000
  0.593000,  1.235500
  0.595000,  1.079700
  0.597000,  0.923200
  0.599000,  0.766000
  0.601000,  0.608900
  0.603000,  0.453800
  0.605000,  0.298300
  0.607000,  0.142800
  0.609000, -0.011900
  0.611000, -0.166600
  0.613000, -0.319200
  0.615000, -0.468900
  0.617000, -0.616300
  0.619000, -0.760800
  0.621000, -0.903300
  0.623000, -1.044000
  0.625000, -1.181300
  0.627000, -1.315400
  0.629000, -1.445600
  0.631000, -1.572500
  0.633000, -1.697400
  0.635000, -1.818600
  0.637000, -1.934800
  0.639000, -2.047100
  0.641000, -2.155200
  0.643000, -2.258900
  0.645000, -2.358400
  0.647000, -2.453800
  0.649000, -2.544300
  0.651000, -2.629300
  0.653000, -2.709400
  0.655000, -2.785000
  0.657000, -2.855000
  0.659000, -2.919400
  0.661000, -2.979200
  0.663000, -3.034500
  0.665000, -3.084100
  0.667000, -3.128500
  0.669000, -3.167500
  0.671000, -3.201400
  0.673000, -3.231100
  0.675000, -3.256100
  0.677000, -3.276000
  0.679000, -3.291500
  0.681000, -3.303300
  0.683000, -3.310000
  0.685000, -3.312400
  0.687000, -3.311200
  0.689000, -3.306100
  0.691000, -3.297100
  0.693000, -3.284300
  0.695000, -3.268100
  0.697000, -3.248500
  0.699000, -3.225700
  0.701000, -3.200000
  0.703000, -3.171700
  0.705000, -3.140700
  0.707000, -3.107400
  0.709000, -3.071700
  0.711000, -3.033500
  0.713000, -2.993500
  0.715000, -2.952000
  0.717000, -2.908800
  0.719000, -2.863500
  0.721000, -2.816700
  0.723000, -2.769000
  0.725000, -2.719900
  0.727000, -2.669300
  0.729000, -2.618200
  0.731000, -2.566400
  0.733000, -2.513400
  0.735000, -2.459700
  0.737000, -2.405200
  0.739000, -2.350300
  0.741000, -2.294700
  0.743000, -2.238500
  0.745000, -2.181900
  0.747000, -2.125200
  0.749000, -2.068200
  0.751000, -2.010900
  0.753000, -1.953400
  0.755000, -1.895900
  0.757000, -1.838600
  0.759000, -1.781100
  0.761000, -1.723600
  0.763000, -1.666200
  0.765000, -1.609000
  0.767000, -1.551900
  0.769000, -1.494900
  0.771000, -1.438200
  0.773000, -1.382100
  0.775000, -1.326200
  0.777000, -1.270700
  0.779000, -1.215600
  0.781000, -1.160600
  0.783000, -1.106100
  0.785000, -1.052500
  0.787000, -0.999100
  0.789000, -0.946300
  0.791000, -0.894300
  0.793000, -0.842900
  0.795000, -0.792800
  0.797000, -0.744100
  0.799000, -0.695800
  0.801000, -0.648300
  0.803000, -0.601900
  0.805000, -0.556200
  0.807000, -0.511400
  0.809000, -0.467800
  0.811000, -0.425600
  0.813000, -0.384600
  0.815000, -0.344200
  0.817000, -0.305400
  0.819000, -0.268000
  0.821000, -0.231800
  0.823000, -0.197100
  0.825000, -0.164000
  0.827000, -0.132100
  0.829000, -0.101400
  0.831000, -0.072300
  0.833000, -0.044700
  0.835000, -0.018500
  0.837000,  0.006300
  0.839000,  0.029600
  0.841000,  0.051600
  0.843000,  0.071600
  0.845000,  0.089900
  0.847000,  0.106800
  0.849000,  0.121900
  0.851000,  0.135300
  0.853000,  0.147400
  0.855000,  0.158000
  0.857000,  0.167000
  0.859000,  0.174400
  0.861000,  0.180300
  0.863000,  0.184700
  0.865000,  0.187700
  0.867000,  0.189100
  0.869000,  0.189100
  0.871000,  0.187800
  0.873000,  0.184900
  0.875000,  0.181000
  0.877000,  0.175900
  0.879000,  0.169300
  0.881000,  0.161400
  0.883000,  0.152500
  0.885000,  0.142800
  0.887000,  0.132000
  0.889000,  0.120300
  0.891000,  0.107400
  0.893000,  0.093500
  0.895000,  0.078700
  0.897000,  0.063100
  0.899000,  0.046400
  0.901000,  0.028900
  0.903000,  0.011000
  0.905000, -0.007400
  0.907000, -0.026500
  0.909000, -0.046000
  0.911000, -0.066000
  0.913000, -0.086200
  0.915000, -0.106700
  0.917000, -0.127600
  0.919000, -0.148800
  0.921000, -0.170200
  0.923000, -0.191700
  0.925000, -0.213300
  0.927000, -0.234900
  0.929000, -0.256700
  0.931000, -0.278400
  0.933000, -0.300000
  0.935000, -0.321200
  0.937000, -0.342300
  0.939000, -0.363100
  0.941000, -0.383600
  0.943000, -0.403900
  0.945000, -0.423700
  0.947000, -0.443100
  0.949000, -0.462000
  0.951000, -0.480400
  0.953000, -0.498200
  0.955000, -0.515400
  0.957000, -0.532000
  0.959000, -0.548000
  0.961000, -0.563200
  0.963000, -0.577700
  0.965000, -0.591400
  0.967000, -0.604500
  0.969000, -0.616600
  0.971000, -0.628200
  0.973000, -0.639300
  0.975000, -0.649500
  0.977000, -0.658800
  0.979000, -0.667000
  0.981000, -0.674600
  0.983000, -0.681500
  0.985000, -0.687400
  0.987000, -0.692600
  0.989000, -0.696900
  0.991000, -0.700400
  0.993000, -0.702900
  0.995000, -0.704800
  0.997000, -0.705700
  0.999000, -0.705900
  1.001000, -0.705200
  1.003000, -0.703700
  1.005000, -0.701400
  1.007000, -0.698600
  1.009000, -0.694900
  1.011000, -0.690500
  1.013000, -0.685400
  1.015000, -0.679600
  1.017000, -0.673100
  1.019000, -0.665900
  1.021000, -0.657900
  1.023000, -0.649300
  1.025000, -0.640200
  1.027000, -0.630400
  1.029000, -0.620200
  1.031000, -0.609500
  1.033000, -0.598200
  1.035000, -0.586400
  1.037000, -0.574000
  1.039000, -0.561200
  1.041000, -0.548000
  1.043000, -0.534500
  1.045000, -0.520700
  1.047000, -0.506500
  1.049000, -0.492000
  1.051000, -0.477300
  1.053000, -0.462200
  1.055000, -0.446900
  1.057000, -0.431500
  1.059000, -0.415900
  1.061000, -0.400000
  1.063000, -0.383900
  1.065000, -0.367800
  1.067000, -0.351700
  1.069000, -0.335800
  1.071000, -0.319800
  1.073000, -0.303800
  1.075000, -0.287800
  1.077000, -0.272000
  1.079000, -0.256200
  1.081000, -0.240400
  1.083000, -0.224700
  1.085000, -0.209200
  1.087000, -0.194000
  1.089000, -0.179000
  1.091000, -0.164200
  1.093000, -0.149600
  1.095000, -0.135300
  1.097000, -0.121200
  1.099000, -0.107200
  1.101000, -0.093400
  1.103000, -0.080200
  1.105000, -0.067300
  1.107000, -0.054700
  1.109000, -0.042400
  1.111000, -0.030300
  1.113000, -0.018600
  1.115000, -0.007200
  1.117000,  0.003800
  1.119000,  0.014500
  1.121000,  0.024700
  1.123000,  0.034600
  1.125000,  0.044200
  1.127000,  0.053300
  1.129000,  0.061900
  1.131000,  0.070200
  1.133000,  0.078000
  1.135000,  0.085500
  1.137000,  0.092600
  1.139000,  0.099300
  1.141000,  0.105500
  1.143000,  0.111300
  1.145000,  0.116800
  1.147000,  0.121900
  1.149000,  0.126500
  1.151000,  0.130800
  1.153000,  0.134800
  1.155000,  0.138500
  1.157000,  0.141800
  1.159000,  0.144700
  1.161000,  0.147200
  1.163000,  0.149300
  1.165000,  0.151000
  1.167000,  0.152400
  1.169000,  0.153500
  1.171000,  0.154200
  1.173000,  0.154500
  1.175000,  0.154600
  1.177000,  0.154300
  1.179000,  0.153500
  1.181000,  0.152500
  1.183000,  0.151200
  1.185000,  0.149500
  1.187000,  0.147600
  1.189000,  0.145400
  1.191000,  0.142900
  1.193000,  0.140000
  1.195000,  0.137000
  1.197000,  0.133700
  1.199000,  0.130200
  1.201000,  0.126400
  1.203000,  0.122200
  1.205000,  0.117900
  1.207000,  0.113200
  1.209000,  0.108600
  1.211000,  0.104000
  1.213000,  0.099200
  1.215000,  0.094300
  1.217000,  0.089200
  1.219000,  0.084000
  1.221000,  0.078800
  1.223000,  0.073300
  1.225000,  0.067900
  1.227000,  0.062400
  1.229000,  0.056900
  1.231000,  0.051400
  1.233000,  0.045900
  1.235000,  0.040300
  1.237000,  0.034900
  1.239000,  0.029500
  1.241000,  0.024000
  1.243000,  0.018500
  1.245000,  0.013100
  1.247000,  0.007600
  1.249000,  0.002400
  1.251000, -0.002600
  1.253000, -0.007400
  1.255000, -0.012000
  1.257000, -0.016500
  1.259000, -0.021100
  1.261000, -0.025600
  1.263000, -0.029800
  1.265000, -0.033800
  1.267000, -0.037600
  1.269000, -0.041300
  1.271000, -0.044700
  1.273000, -0.047900
  1.275000, -0.051000
  1.277000, -0.053800
  1.279000, -0.056500
  1.281000, -0.059100
  1.283000, -0.061400
  1.285000, -0.063500
  1.287000, -0.065400
  1.289000, -0.067300
  1.291000, -0.068900
  1.293000, -0.070300
  1.295000, -0.071700
  1.297000, -0.072700
  1.299000, -0.073600
  1.301000, -0.074400
  1.303000, -0.074900
  1.305000, -0.075200
  1.307000, -0.075400
  1.309000, -0.075400
  1.311000, -0.075400
  1.313000, -0.075200
  1.315000, -0.074800
  1.317000, -0.074300
  1.319000, -0.073600
  1.321000, -0.072700
  1.323000, -0.071600
  1.325000, -0.070200
  1.327000, -0.068600
  1.329000, -0.066800
  1.331000, -0.064800
  1.333000, -0.062600
  1.335000, -0.060200
  1.337000, -0.057600
  1.339000, -0.054700
  1.341000, -0.051600
  1.343000, -0.048200
  1.345000, -0.044600
  1.347000, -0.040900
  1.349000, -0.036700
  1.351000, -0.032400
  1.353000, -0.027700
  1.355000, -0.022800
  1.357000, -0.017600
  1.359000, -0.012100
  1.361000, -0.006400
  1.363000, -0.000600
  1.365000,  0.005800
  1.367000,  0.012400
  1.369000,  0.019100
  1.371000,  0.026000
  1.373000,  0.033100
  1.375000,  0.040500
  1.377000,  0.048200
  1.379000,  0.056000
  1.381000,  0.063700
  1.383000,  0.071500
  1.385000,  0.079600
  1.387000,  0.087600
  1.389000,  0.095600
  1.391000,  0.103600
  1.393000,  0.111500
  1.395000,  0.119200
  1.397000,  0.126700
  1.399000,  0.133800
