# z (nm)   (kJ/mol)
  0.451000, 27.006200
  0.457000, 26.344100
  0.459000, 26.041600
  0.461000, 25.730000
  0.463000, 25.439800
  0.465000, 25.183500
  0.467000, 24.925900
  0.469000, 24.706400
  0.471000, 24.513800
  0.473000, 24.310000
  0.475000, 24.103600
  0.477000, 23.898000
  0.479000, 23.697300
  0.481000, 23.504700
  0.483000, 23.315500
  0.485000, 23.130000
  0.487000, 22.953500
  0.489000, 22.781200
  0.491000, 22.611900
  0.493000, 22.447700
  0.495000, 22.289900
  0.497000, 22.134800
  0.499000, 21.985400
  0.501000, 21.842000
  0.503000, 21.702200
  0.505000, 21.567000
  0.507000, 21.436400
  0.509000, 21.310200
  0.511000, 21.187800
  0.513000, 21.069300
  0.515000, 20.954400
  0.517000, 20.842200
  0.519000, 20.732900
  0.521000, 20.625500
  0.523000, 20.519600
  0.525000, 20.413300
  0.527000, 20.306600
  0.529000, 20.197300
  0.531000, 20.082000
  0.533000, 19.963700
  0.535000, 19.844800
  0.537000, 19.717400
  0.539000, 19.578900
  0.541000, 19.437500
  0.543000, 19.283800
  0.545000, 19.109600
  0.547000, 18.922700
  0.549000, 18.723400
  0.551000, 18.514100
  0.553000, 18.297500
  0.555000, 18.060700
  0.557000, 17.807500
  0.559000, 17.548400
  0.561000, 17.278400
  0.563000, 16.994900
  0.565000, 16.695000
  0.567000, 16.382500
  0.569000, 16.057200
  0.571000, 15.715900
  0.573000, 15.360900
  0.575000, 14.988600
  0.577000, 14.609800
  0.579000, 14.223900
  0.581000, 13.821200
  0.583000, 13.404700
  0.585000, 12.978200
  0.587000, 12.547100
  0.589000, 12.108900
  0.591000, 11.663400
  0.593000, 11.208600
  0.595000, 10.749400
  0.597000, 10.294000
  0.599000,  9.839800
  0.601000,  9.394500
  0.603000,  8.954500
  0.605000,  8.519100
  0.607000,  8.085000
  0.609000,  7.645000
  0.611000,  7.208700
  0.613000,  6.779800
  0.615000,  6.360400
  0.617000,  5.945900
  0.619000,  5.531300
  0.621000,  5.125400
  0.623000,  4.725800
  0.625000,  4.333100
  0.627000,  3.954400
  0.629000,  3.582300
  0.631000,  3.219800
  0.633000,  2.867400
  0.635000,  2.524600
  0.637000,  2.193100
  0.639000,  1.869600
  0.641000,  1.558400
  0.643000,  1.258500
  0.645000,  0.968100
  0.647000,  0.690600
  0.649000,  0.424900
  0.651000,  0.169900
  0.653000, -0.073900
  0.655000, -0.305600
  0.657000, -0.525600
  0.659000, -0.735600
  0.661000, -0.935000
  0.663000, -1.125700
  0.665000, -1.306300
  0.667000, -1.474000
  0.669000, -1.631500
  0.671000, -1.779400
  0.673000, -1.917800
  0.675000, -2.046500
  0.677000, -2.165200
  0.679000, -2.274100
  0.681000, -2.373800
  0.683000, -2.465100
  0.685000, -2.547600
  0.687000, -2.621100
  0.689000, -2.686000
  0.691000, -2.743300
  0.693000, -2.793300
  0.695000, -2.836100
  0.697000, -2.871500
  0.699000, -2.900700
  0.701000, -2.924300
  0.703000, -2.941300
  0.705000, -2.952800
  0.707000, -2.959700
  0.709000, -2.960200
  0.711000, -2.955500
  0.713000, -2.946400
  0.715000, -2.933100
  0.717000, -2.915900
  0.719000, -2.895200
  0.721000, -2.871700
  0.723000, -2.844600
  0.725000, -2.813600
  0.727000, -2.779700
  0.729000, -2.743300
  0.731000, -2.704700
  0.733000, -2.664100
  0.735000, -2.621800
  0.737000, -2.577700
  0.739000, -2.532100
  0.741000, -2.485500
  0.743000, -2.437800
  0.745000, -2.388400
  0.747000, -2.338000
  0.749000, -2.287200
  0.751000, -2.235900
  0.753000, -2.183800
  0.755000, -2.131300
  0.757000, -2.078400
  0.759000, -2.025400
  0.761000, -1.972200
  0.763000, -1.918800
  0.765000, -1.865700
  0.767000, -1.812900
  0.769000, -1.759900
  0.771000, -1.707000
  0.773000, -1.654300
  0.775000, -1.602000
  0.777000, -1.550300
  0.779000, -1.498700
  0.781000, -1.447600
  0.783000, -1.396700
  0.785000, -1.346400
  0.787000, -1.296900
  0.789000, -1.247800
  0.791000, -1.199400
  0.793000, -1.151900
  0.795000, -1.105000
  0.797000, -1.058800
  0.799000, -1.013300
  0.801000, -0.968500
  0.803000, -0.924400
  0.805000, -0.881000
  0.807000, -0.838400
  0.809000, -0.796600
  0.811000, -0.755300
  0.813000, -0.714900
  0.815000, -0.675200
  0.817000, -0.636000
  0.819000, -0.597800
  0.821000, -0.560400
  0.823000, -0.523700
  0.825000, -0.487700
  0.827000, -0.452400
  0.829000, -0.417900
  0.831000, -0.384100
  0.833000, -0.350700
  0.835000, -0.318000
  0.837000, -0.286200
  0.839000, -0.254800
  0.841000, -0.224000
  0.843000, -0.193700
  0.845000, -0.164000
  0.847000, -0.135300
  0.849000, -0.107600
  0.851000, -0.080900
  0.853000, -0.054800
  0.855000, -0.029200
  0.857000, -0.004400
  0.859000,  0.019100
  0.861000,  0.041700
  0.863000,  0.063700
  0.865000,  0.084600
  0.867000,  0.104700
  0.869000,  0.123600
  0.871000,  0.141500
  0.873000,  0.158000
  0.875000,  0.173200
  0.877000,  0.187600
  0.879000,  0.200700
  0.881000,  0.212400
  0.883000,  0.222600
  0.885000,  0.231100
  0.887000,  0.238600
  0.889000,  0.244700
  0.891000,  0.249000
  0.893000,  0.251700
  0.895000,  0.252800
  0.897000,  0.252700
  0.899000,  0.251200
  0.901000,  0.248100
  0.903000,  0.243100
  0.905000,  0.236200
  0.907000,  0.228100
  0.909000,  0.218400
  0.911000,  0.207200
  0.913000,  0.194700
  0.915000,  0.180600
  0.917000,  0.165200
  0.919000,  0.148300
  0.921000,  0.130100
  0.923000,  0.110600
  0.925000,  0.089800
  0.927000,  0.068100
  0.929000,  0.045400
  0.931000,  0.021700
  0.933000, -0.002600
  0.935000, -0.027700
  0.937000, -0.053400
  0.939000, -0.079500
  0.941000, -0.106400
  0.943000, -0.133800
  0.945000, -0.161300
  0.947000, -0.189000
  0.949000, -0.217000
  0.951000, -0.245100
  0.953000, -0.272900
  0.955000, -0.300600
  0.957000, -0.328100
  0.959000, -0.355200
  0.961000, -0.381800
  0.963000, -0.407900
  0.965000, -0.433400
  0.967000, -0.458400
  0.969000, -0.482700
  0.971000, -0.506300
  0.973000, -0.529000
  0.975000, -0.550900
  0.977000, -0.572000
  0.979000, -0.592000
  0.981000, -0.610900
  0.983000, -0.628900
  0.985000, -0.646000
  0.987000, -0.661900
  0.989000, -0.676400
  0.991000, -0.689900
  0.993000, -0.702300
  0.995000, -0.713700
  0.997000, -0.723700
  0.999000, -0.732800
  1.001000, -0.740800
  1.003000, -0.747700
  1.005000, -0.753600
  1.007000, -0.758400
  1.009000, -0.762000
  1.011000, -0.764600
  1.013000, -0.766200
  1.015000, -0.766700
  1.017000, -0.766100
  1.019000, -0.764500
  1.021000, -0.762000
  1.023000, -0.758800
  1.025000, -0.754900
  1.027000, -0.750100
  1.029000, -0.744500
  1.031000, -0.738200
  1.033000, -0.731400
  1.035000, -0.723900
  1.037000, -0.715800
  1.039000, -0.707000
  1.041000, -0.697600
  1.043000, -0.687700
  1.045000, -0.677500
  1.047000, -0.667200
  1.049000, -0.656500
  1.051000, -0.645200
  1.053000, -0.633800
  1.055000, -0.622200
  1.057000, -0.610200
  1.059000, -0.598100
  1.061000, -0.586000
  1.063000, -0.573600
  1.065000, -0.561000
  1.067000, -0.548300
  1.069000, -0.535700
  1.071000, -0.523000
  1.073000, -0.510300
  1.075000, -0.497700
  1.077000, -0.485100
  1.079000, -0.472500
  1.081000, -0.459900
  1.083000, -0.447400
  1.085000, -0.435000
  1.087000, -0.422600
  1.089000, -0.410500
  1.091000, -0.398500
  1.093000, -0.386600
  1.095000, -0.375000
  1.097000, -0.363600
  1.099000, -0.352300
  1.101000, -0.341200
  1.103000, -0.330200
  1.105000, -0.319500
  1.107000, -0.309000
  1.109000, -0.298700
  1.111000, -0.288600
  1.113000, -0.278800
  1.115000, -0.269100
  1.117000, -0.259500
  1.119000, -0.250300
  1.121000, -0.241300
  1.123000, -0.232500
  1.125000, -0.224000
  1.127000, -0.215700
  1.129000, -0.207700
  1.131000, -0.199800
  1.133000, -0.192100
  1.135000, -0.184500
  1.137000, -0.177300
  1.139000, -0.170400
  1.141000, -0.163800
  1.143000, -0.157300
  1.145000, -0.151000
  1.147000, -0.145000
  1.149000, -0.139200
  1.151000, -0.133600
  1.153000, -0.128000
  1.155000, -0.122600
  1.157000, -0.117300
  1.159000, -0.112200
  1.161000, -0.107200
  1.163000, -0.102400
  1.165000, -0.097700
  1.167000, -0.093200
  1.169000, -0.088700
  1.171000, -0.084200
  1.173000, -0.079800
  1.175000, -0.075600
  1.177000, -0.071300
  1.179000, -0.067100
  1.181000, -0.063100
  1.183000, -0.059100
  1.185000, -0.055200
  1.187000, -0.051600
  1.189000, -0.047800
  1.191000, -0.044000
  1.193000, -0.040200
  1.195000, -0.036500
  1.197000, -0.032800
  1.199000, -0.029200
  1.201000, -0.025600
  1.203000, -0.021900
  1.205000, -0.018200
  1.207000, -0.014600
  1.209000, -0.011100
  1.211000, -0.007600
  1.213000, -0.004100
  1.215000, -0.000600
  1.217000,  0.002700
  1.219000,  0.006000
  1.221000,  0.009300
  1.223000,  0.012400
  1.225000,  0.015400
  1.227000,  0.018500
  1.229000,  0.021400
  1.231000,  0.024300
  1.233000,  0.026900
  1.235000,  0.029400
  1.237000,  0.031700
  1.239000,  0.034000
  1.241000,  0.036200
  1.243000,  0.038200
  1.245000,  0.040000
  1.247000,  0.041700
  1.249000,  0.043200
  1.251000,  0.044600
  1.253000,  0.045500
  1.255000,  0.046300
  1.257000,  0.047000
  1.259000,  0.047400
  1.261000,  0.047600
  1.263000,  0.047500
  1.265000,  0.047400
  1.267000,  0.047200
  1.269000,  0.046600
  1.271000,  0.045800
  1.273000,  0.044800
  1.275000,  0.043500
  1.277000,  0.041900
  1.279000,  0.040200
  1.281000,  0.038300
  1.283000,  0.036200
  1.285000,  0.033900
  1.287000,  0.031500
  1.289000,  0.028800
  1.291000,  0.026200
  1.293000,  0.023400
  1.295000,  0.020300
  1.297000,  0.017000
  1.299000,  0.013700
  1.301000,  0.010500
  1.303000,  0.007100
  1.305000,  0.003700
  1.307000,  0.000200
  1.309000, -0.003500
  1.311000, -0.007200
  1.313000, -0.010800
  1.315000, -0.014400
  1.317000, -0.018100
  1.319000, -0.021500
  1.321000, -0.024900
  1.323000, -0.028200
  1.325000, -0.031500
  1.327000, -0.034600
  1.329000, -0.037600
  1.331000, -0.040400
  1.333000, -0.042900
  1.335000, -0.045200
  1.337000, -0.047400
  1.339000, -0.049400
  1.341000, -0.051300
  1.343000, -0.052900
  1.345000, -0.054000
  1.347000, -0.054800
  1.349000, -0.055400
  1.351000, -0.055800
  1.353000, -0.055800
  1.355000, -0.055400
  1.357000, -0.054500
  1.359000, -0.053300
  1.361000, -0.051600
  1.363000, -0.049600
  1.365000, -0.047200
  1.367000, -0.044300
  1.369000, -0.041200
  1.371000, -0.037800
  1.373000, -0.034100
  1.375000, -0.030000
  1.377000, -0.025500
  1.379000, -0.020500
  1.381000, -0.015000
  1.383000, -0.009600
  1.385000, -0.004000
  1.387000,  0.002100
  1.389000,  0.008300
  1.391000,  0.014300
  1.393000,  0.020500
  1.395000,  0.026900
  1.397000,  0.033100
  1.399000,  0.039100
