# z (nm)   (kJ/mol)
  0.439000, 16.119900
  0.441000, 15.472000
  0.443000, 14.821000
  0.445000, 14.190500
  0.447000, 13.586900
  0.449000, 13.062200
  0.451000, 12.524600
  0.453000, 11.961500
  0.455000, 11.450400
  0.457000, 10.970800
  0.459000, 10.497700
  0.461000, 10.055200
  0.463000,  9.635400
  0.465000,  9.241300
  0.467000,  8.882700
  0.469000,  8.546900
  0.471000,  8.227800
  0.473000,  7.931700
  0.475000,  7.663300
  0.477000,  7.424000
  0.479000,  7.206600
  0.481000,  7.008000
  0.483000,  6.832000
  0.485000,  6.677100
  0.487000,  6.544000
  0.489000,  6.432200
  0.491000,  6.340600
  0.493000,  6.269400
  0.495000,  6.218200
  0.497000,  6.185900
  0.499000,  6.171400
  0.501000,  6.174600
  0.503000,  6.195300
  0.505000,  6.232900
  0.507000,  6.287000
  0.509000,  6.358800
  0.511000,  6.448300
  0.513000,  6.552700
  0.515000,  6.672900
  0.517000,  6.808000
  0.519000,  6.955000
  0.521000,  7.115900
  0.523000,  7.287500
  0.525000,  7.462700
  0.527000,  7.653300
  0.529000,  7.851600
  0.531000,  8.045300
  0.533000,  8.253400
  0.535000,  8.469200
  0.537000,  8.682700
  0.539000,  8.875900
  0.541000,  9.051300
  0.543000,  9.226800
  0.545000,  9.396600
  0.547000,  9.549400
  0.549000,  9.676300
  0.551000,  9.804600
  0.553000,  9.927800
  0.555000, 10.026500
  0.557000, 10.110100
  0.559000, 10.162300
  0.561000, 10.178500
  0.563000, 10.188000
  0.565000, 10.187400
  0.567000, 10.161300
  0.569000, 10.104100
  0.571000, 10.010900
  0.573000,  9.897500
  0.575000,  9.762600
  0.577000,  9.597700
  0.579000,  9.405600
  0.581000,  9.186100
  0.583000,  8.944100
  0.585000,  8.690100
  0.587000,  8.412900
  0.589000,  8.114200
  0.591000,  7.801700
  0.593000,  7.471800
  0.595000,  7.135100
  0.597000,  6.786100
  0.599000,  6.429700
  0.601000,  6.065400
  0.603000,  5.698000
  0.605000,  5.330500
  0.607000,  4.952800
  0.609000,  4.564700
  0.611000,  4.170300
  0.613000,  3.775000
  0.615000,  3.373200
  0.617000,  2.967300
  0.619000,  2.565000
  0.621000,  2.166500
  0.623000,  1.769300
  0.625000,  1.375000
  0.627000,  0.983200
  0.629000,  0.595200
  0.631000,  0.218500
  0.633000, -0.147300
  0.635000, -0.506700
  0.637000, -0.860400
  0.639000, -1.205900
  0.641000, -1.540500
  0.643000, -1.864100
  0.645000, -2.175200
  0.647000, -2.474100
  0.649000, -2.760800
  0.651000, -3.033600
  0.653000, -3.294000
  0.655000, -3.542200
  0.657000, -3.776900
  0.659000, -3.998400
  0.661000, -4.206600
  0.663000, -4.399700
  0.665000, -4.578000
  0.667000, -4.742000
  0.669000, -4.891700
  0.671000, -5.027400
  0.673000, -5.149200
  0.675000, -5.257900
  0.677000, -5.353400
  0.679000, -5.435000
  0.681000, -5.503300
  0.683000, -5.558000
  0.685000, -5.599400
  0.687000, -5.628800
  0.689000, -5.646400
  0.691000, -5.651300
  0.693000, -5.643000
  0.695000, -5.623600
  0.697000, -5.594300
  0.699000, -5.555000
  0.701000, -5.506800
  0.703000, -5.450200
  0.705000, -5.385400
  0.707000, -5.311800
  0.709000, -5.228300
  0.711000, -5.137200
  0.713000, -5.039500
  0.715000, -4.936400
  0.717000, -4.827700
  0.719000, -4.714300
  0.721000, -4.596700
  0.723000, -4.474600
  0.725000, -4.349300
  0.727000, -4.222400
  0.729000, -4.093900
  0.731000, -3.963700
  0.733000, -3.832400
  0.735000, -3.700500
  0.737000, -3.569000
  0.739000, -3.437900
  0.741000, -3.307800
  0.743000, -3.178500
  0.745000, -3.051100
  0.747000, -2.925800
  0.749000, -2.802700
  0.751000, -2.682000
  0.753000, -2.564000
  0.755000, -2.449100
  0.757000, -2.337600
  0.759000, -2.229400
  0.761000, -2.124900
  0.763000, -2.024500
  0.765000, -1.927700
  0.767000, -1.834500
  0.769000, -1.745500
  0.771000, -1.660500
  0.773000, -1.579400
  0.775000, -1.502500
  0.777000, -1.429500
  0.779000, -1.360600
  0.781000, -1.295300
  0.783000, -1.233800
  0.785000, -1.176300
  0.787000, -1.122400
  0.789000, -1.072200
  0.791000, -1.024900
  0.793000, -0.980600
  0.795000, -0.939700
  0.797000, -0.901800
  0.799000, -0.866700
  0.801000, -0.835000
  0.803000, -0.805700
  0.805000, -0.778500
  0.807000, -0.753900
  0.809000, -0.732000
  0.811000, -0.712500
  0.813000, -0.694700
  0.815000, -0.678600
  0.817000, -0.664100
  0.819000, -0.651200
  0.821000, -0.640000
  0.823000, -0.630100
  0.825000, -0.621200
  0.827000, -0.613100
  0.829000, -0.606000
  0.831000, -0.599900
  0.833000, -0.594900
  0.835000, -0.590800
  0.837000, -0.587200
  0.839000, -0.584200
  0.841000, -0.581800
  0.843000, -0.579900
  0.845000, -0.578500
  0.847000, -0.577600
  0.849000, -0.577200
  0.851000, -0.576900
  0.853000, -0.577100
  0.855000, -0.577900
  0.857000, -0.579000
  0.859000, -0.580500
  0.861000, -0.582200
  0.863000, -0.584000
  0.865000, -0.586000
  0.867000, -0.588600
  0.869000, -0.591900
  0.871000, -0.595600
  0.873000, -0.599800
  0.875000, -0.604400
  0.877000, -0.609200
  0.879000, -0.614400
  0.881000, -0.620100
  0.883000, -0.626200
  0.885000, -0.633500
  0.887000, -0.641800
  0.889000, -0.650200
  0.891000, -0.659100
  0.893000, -0.668700
  0.895000, -0.678800
  0.897000, -0.689700
  0.899000, -0.701100
  0.901000, -0.712700
  0.903000, -0.725100
  0.905000, -0.738300
  0.907000, -0.751700
  0.909000, -0.766000
  0.911000, -0.780400
  0.913000, -0.794800
  0.915000, -0.809900
  0.917000, -0.825400
  0.919000, -0.841300
  0.921000, -0.857600
  0.923000, -0.874000
  0.925000, -0.890600
  0.927000, -0.907200
  0.929000, -0.923700
  0.931000, -0.940100
  0.933000, -0.956400
  0.935000, -0.972500
  0.937000, -0.988400
  0.939000, -1.004200
  0.941000, -1.019600
  0.943000, -1.034100
  0.945000, -1.048200
  0.947000, -1.061900
  0.949000, -1.075000
  0.951000, -1.087500
  0.953000, -1.099200
  0.955000, -1.110300
  0.957000, -1.120600
  0.959000, -1.130200
  0.961000, -1.139000
  0.963000, -1.147000
  0.965000, -1.154200
  0.967000, -1.160500
  0.969000, -1.166000
  0.971000, -1.170500
  0.973000, -1.173900
  0.975000, -1.176600
  0.977000, -1.178500
  0.979000, -1.179500
  0.981000, -1.179400
  0.983000, -1.178300
  0.985000, -1.176400
  0.987000, -1.173800
  0.989000, -1.170400
  0.991000, -1.166100
  0.993000, -1.161400
  0.995000, -1.155900
  0.997000, -1.149700
  0.999000, -1.142700
  1.001000, -1.135100
  1.003000, -1.127100
  1.005000, -1.118600
  1.007000, -1.109600
  1.009000, -1.100300
  1.011000, -1.090600
  1.013000, -1.080200
  1.015000, -1.069400
  1.017000, -1.058500
  1.019000, -1.047400
  1.021000, -1.036000
  1.023000, -1.024500
  1.025000, -1.012900
  1.027000, -1.001100
  1.029000, -0.989200
  1.031000, -0.977400
  1.033000, -0.965300
  1.035000, -0.953300
  1.037000, -0.941300
  1.039000, -0.929600
  1.041000, -0.918100
  1.043000, -0.906400
  1.045000, -0.894600
  1.047000, -0.883100
  1.049000, -0.871800
  1.051000, -0.860600
  1.053000, -0.849700
  1.055000, -0.839000
  1.057000, -0.828300
  1.059000, -0.817700
  1.061000, -0.807200
  1.063000, -0.796800
  1.065000, -0.786500
  1.067000, -0.776400
  1.069000, -0.766500
  1.071000, -0.756700
  1.073000, -0.746900
  1.075000, -0.737200
  1.077000, -0.727600
  1.079000, -0.718200
  1.081000, -0.708900
  1.083000, -0.699500
  1.085000, -0.690000
  1.087000, -0.680600
  1.089000, -0.671400
  1.091000, -0.662100
  1.093000, -0.652700
  1.095000, -0.643300
  1.097000, -0.633900
  1.099000, -0.624500
  1.101000, -0.615000
  1.103000, -0.605400
  1.105000, -0.595700
  1.107000, -0.585900
  1.109000, -0.576100
  1.111000, -0.566000
  1.113000, -0.555600
  1.115000, -0.545500
  1.117000, -0.535300
  1.119000, -0.525000
  1.121000, -0.514400
  1.123000, -0.503700
  1.125000, -0.492800
  1.127000, -0.481900
  1.129000, -0.471000
  1.131000, -0.459900
  1.133000, -0.448700
  1.135000, -0.437300
  1.137000, -0.426100
  1.139000, -0.415000
  1.141000, -0.403800
  1.143000, -0.392200
  1.145000, -0.380700
  1.147000, -0.369300
  1.149000, -0.358000
  1.151000, -0.346500
  1.153000, -0.335200
  1.155000, -0.324300
  1.157000, -0.313300
  1.159000, -0.302400
  1.161000, -0.291400
  1.163000, -0.280500
  1.165000, -0.269900
  1.167000, -0.259300
  1.169000, -0.248900
  1.171000, -0.238700
  1.173000, -0.228600
  1.175000, -0.218700
  1.177000, -0.209000
  1.179000, -0.199700
  1.181000, -0.190500
  1.183000, -0.181500
  1.185000, -0.172900
  1.187000, -0.164500
  1.189000, -0.156300
  1.191000, -0.148300
  1.193000, -0.140500
  1.195000, -0.132900
  1.197000, -0.125600
  1.199000, -0.118700
  1.201000, -0.112200
  1.203000, -0.105800
  1.205000, -0.099700
  1.207000, -0.093900
  1.209000, -0.088300
  1.211000, -0.082900
  1.213000, -0.077800
  1.215000, -0.072900
  1.217000, -0.068200
  1.219000, -0.063800
  1.221000, -0.059600
  1.223000, -0.055600
  1.225000, -0.051900
  1.227000, -0.048700
  1.229000, -0.045500
  1.231000, -0.042300
  1.233000, -0.039400
  1.235000, -0.036700
  1.237000, -0.034100
  1.239000, -0.031600
  1.241000, -0.029400
  1.243000, -0.027500
  1.245000, -0.025700
  1.247000, -0.024000
  1.249000, -0.022300
  1.251000, -0.020900
  1.253000, -0.019700
  1.255000, -0.018300
  1.257000, -0.017100
  1.259000, -0.016100
  1.261000, -0.015200
  1.263000, -0.014300
  1.265000, -0.013600
  1.267000, -0.013000
  1.269000, -0.012500
  1.271000, -0.012100
  1.273000, -0.011700
  1.275000, -0.011500
  1.277000, -0.011300
  1.279000, -0.011000
  1.281000, -0.011000
  1.283000, -0.011000
  1.285000, -0.011100
  1.287000, -0.011200
  1.289000, -0.011400
  1.291000, -0.011500
  1.293000, -0.011600
  1.295000, -0.011800
  1.297000, -0.011900
  1.299000, -0.012100
  1.301000, -0.012400
  1.303000, -0.012600
  1.305000, -0.012700
  1.307000, -0.012800
  1.309000, -0.013000
  1.311000, -0.013000
  1.313000, -0.013000
  1.315000, -0.012800
  1.317000, -0.012600
  1.319000, -0.012200
  1.321000, -0.011800
  1.323000, -0.011200
  1.325000, -0.010500
  1.327000, -0.009700
  1.329000, -0.008700
  1.331000, -0.007600
  1.333000, -0.006200
  1.335000, -0.004600
  1.337000, -0.002800
  1.339000, -0.000800
  1.341000,  0.001400
  1.343000,  0.003900
  1.345000,  0.006600
  1.347000,  0.009500
  1.349000,  0.012600
  1.351000,  0.016000
  1.353000,  0.019700
  1.355000,  0.023800
  1.357000,  0.028000
  1.359000,  0.032500
  1.361000,  0.037400
  1.363000,  0.042600
  1.365000,  0.048100
  1.367000,  0.053800
  1.369000,  0.059600
  1.371000,  0.065400
  1.373000,  0.071600
  1.375000,  0.078100
  1.377000,  0.084800
  1.379000,  0.091900
  1.381000,  0.099000
  1.383000,  0.106300
  1.385000,  0.113800
  1.387000,  0.121300
  1.389000,  0.128900
  1.391000,  0.136900
  1.393000,  0.144500
  1.395000,  0.152100
  1.397000,  0.159600
  1.399000,  0.166500
