# z (nm)   (kJ/mol)
  0.553000, 27.022500
  0.557000, 26.548400
  0.563000, 26.005600
  0.565000, 25.734900
  0.567000, 25.453600
  0.569000, 25.166100
  0.571000, 24.867700
  0.573000, 24.551000
  0.575000, 24.212400
  0.577000, 23.857600
  0.579000, 23.489200
  0.581000, 23.094200
  0.583000, 22.682000
  0.585000, 22.267700
  0.587000, 21.830400
  0.589000, 21.373400
  0.591000, 20.910500
  0.593000, 20.430000
  0.595000, 19.931300
  0.597000, 19.432000
  0.599000, 18.935000
  0.601000, 18.422800
  0.603000, 17.884800
  0.605000, 17.351100
  0.607000, 16.813400
  0.609000, 16.257200
  0.611000, 15.700800
  0.613000, 15.145500
  0.615000, 14.562700
  0.617000, 13.962200
  0.619000, 13.377500
  0.621000, 12.799900
  0.623000, 12.218900
  0.625000, 11.644800
  0.627000, 11.076100
  0.629000, 10.500800
  0.631000,  9.934600
  0.633000,  9.373500
  0.635000,  8.811400
  0.637000,  8.262700
  0.639000,  7.729700
  0.641000,  7.200100
  0.643000,  6.680400
  0.645000,  6.178600
  0.647000,  5.692200
  0.649000,  5.220900
  0.651000,  4.763600
  0.653000,  4.317100
  0.655000,  3.883700
  0.657000,  3.464200
  0.659000,  3.056000
  0.661000,  2.662000
  0.663000,  2.283700
  0.665000,  1.922700
  0.667000,  1.575500
  0.669000,  1.239800
  0.671000,  0.920800
  0.673000,  0.618400
  0.675000,  0.330400
  0.677000,  0.056600
  0.679000, -0.202100
  0.681000, -0.448200
  0.683000, -0.680300
  0.685000, -0.897700
  0.687000, -1.103700
  0.689000, -1.296300
  0.691000, -1.475400
  0.693000, -1.641100
  0.695000, -1.795200
  0.697000, -1.936900
  0.699000, -2.064100
  0.701000, -2.179000
  0.703000, -2.282900
  0.705000, -2.375400
  0.707000, -2.456800
  0.709000, -2.526400
  0.711000, -2.585800
  0.713000, -2.635600
  0.715000, -2.673900
  0.717000, -2.702300
  0.719000, -2.722100
  0.721000, -2.733100
  0.723000, -2.734800
  0.725000, -2.726800
  0.727000, -2.712100
  0.729000, -2.692400
  0.731000, -2.666900
  0.733000, -2.635900
  0.735000, -2.598700
  0.737000, -2.556700
  0.739000, -2.512000
  0.741000, -2.462900
  0.743000, -2.408600
  0.745000, -2.352000
  0.747000, -2.294200
  0.749000, -2.235700
  0.751000, -2.175700
  0.753000, -2.114300
  0.755000, -2.052100
  0.757000, -1.989100
  0.759000, -1.925400
  0.761000, -1.861500
  0.763000, -1.797800
  0.765000, -1.734800
  0.767000, -1.672700
  0.769000, -1.611100
  0.771000, -1.549900
  0.773000, -1.490000
  0.775000, -1.431300
  0.777000, -1.373800
  0.779000, -1.317400
  0.781000, -1.262200
  0.783000, -1.208700
  0.785000, -1.156100
  0.787000, -1.104500
  0.789000, -1.054100
  0.791000, -1.004700
  0.793000, -0.956700
  0.795000, -0.909700
  0.797000, -0.863100
  0.799000, -0.817000
  0.801000, -0.771800
  0.803000, -0.727400
  0.805000, -0.682600
  0.807000, -0.637800
  0.809000, -0.593900
  0.811000, -0.550500
  0.813000, -0.506700
  0.815000, -0.463300
  0.817000, -0.419700
  0.819000, -0.375800
  0.821000, -0.331700
  0.823000, -0.287600
  0.825000, -0.243200
  0.827000, -0.198200
  0.829000, -0.153000
  0.831000, -0.107600
  0.833000, -0.061900
  0.835000, -0.015800
  0.837000,  0.030300
  0.839000,  0.076500
  0.841000,  0.122900
  0.843000,  0.169400
  0.845000,  0.215900
  0.847000,  0.262400
  0.849000,  0.309100
  0.851000,  0.355500
  0.853000,  0.401600
  0.855000,  0.447200
  0.857000,  0.492500
  0.859000,  0.537100
  0.861000,  0.581000
  0.863000,  0.624400
  0.865000,  0.666900
  0.867000,  0.707700
  0.869000,  0.747400
  0.871000,  0.786100
  0.873000,  0.823800
  0.875000,  0.860300
  0.877000,  0.895000
  0.879000,  0.927600
  0.881000,  0.958300
  0.883000,  0.987300
  0.885000,  1.014100
  0.887000,  1.038500
  0.889000,  1.060800
  0.891000,  1.080600
  0.893000,  1.098100
  0.895000,  1.113300
  0.897000,  1.126100
  0.899000,  1.136500
  0.901000,  1.144300
  0.903000,  1.149400
  0.905000,  1.152000
  0.907000,  1.151800
  0.909000,  1.149100
  0.911000,  1.144000
  0.913000,  1.136400
  0.915000,  1.126100
  0.917000,  1.113500
  0.919000,  1.098500
  0.921000,  1.081000
  0.923000,  1.061200
  0.925000,  1.039200
  0.927000,  1.015300
  0.929000,  0.989300
  0.931000,  0.961500
  0.933000,  0.932000
  0.935000,  0.900800
  0.937000,  0.867900
  0.939000,  0.833500
  0.941000,  0.797900
  0.943000,  0.761200
  0.945000,  0.723400
  0.947000,  0.684800
  0.949000,  0.645400
  0.951000,  0.605400
  0.953000,  0.565000
  0.955000,  0.523800
  0.957000,  0.482500
  0.959000,  0.441100
  0.961000,  0.399700
  0.963000,  0.358500
  0.965000,  0.317300
  0.967000,  0.276700
  0.969000,  0.236600
  0.971000,  0.196600
  0.973000,  0.157200
  0.975000,  0.118600
  0.977000,  0.080800
  0.979000,  0.043700
  0.981000,  0.007600
  0.983000, -0.027600
  0.985000, -0.061500
  0.987000, -0.094200
  0.989000, -0.126000
  0.991000, -0.156500
  0.993000, -0.185700
  0.995000, -0.213900
  0.997000, -0.240800
  0.999000, -0.266500
  1.001000, -0.290900
  1.003000, -0.314300
  1.005000, -0.336400
  1.007000, -0.357200
  1.009000, -0.376900
  1.011000, -0.395300
  1.013000, -0.412400
  1.015000, -0.428400
  1.017000, -0.443000
  1.019000, -0.456500
  1.021000, -0.468900
  1.023000, -0.480200
  1.025000, -0.490600
  1.027000, -0.500000
  1.029000, -0.508300
  1.031000, -0.515600
  1.033000, -0.522100
  1.035000, -0.527700
  1.037000, -0.532300
  1.039000, -0.536000
  1.041000, -0.538900
  1.043000, -0.541000
  1.045000, -0.542300
  1.047000, -0.542900
  1.049000, -0.543000
  1.051000, -0.542400
  1.053000, -0.541100
  1.055000, -0.539100
  1.057000, -0.536500
  1.059000, -0.533500
  1.061000, -0.529900
  1.063000, -0.525600
  1.065000, -0.520700
  1.067000, -0.515200
  1.069000, -0.509100
  1.071000, -0.502900
  1.073000, -0.496300
  1.075000, -0.489200
  1.077000, -0.481600
  1.079000, -0.473300
  1.081000, -0.464600
  1.083000, -0.455700
  1.085000, -0.446400
  1.087000, -0.436700
  1.089000, -0.426400
  1.091000, -0.415900
  1.093000, -0.405000
  1.095000, -0.393900
  1.097000, -0.382500
  1.099000, -0.371000
  1.101000, -0.359100
  1.103000, -0.346800
  1.105000, -0.334300
  1.107000, -0.321700
  1.109000, -0.308800
  1.111000, -0.295700
  1.113000, -0.282500
  1.115000, -0.269100
  1.117000, -0.255500
  1.119000, -0.241900
  1.121000, -0.228300
  1.123000, -0.214600
  1.125000, -0.200900
  1.127000, -0.187100
  1.129000, -0.173300
  1.131000, -0.159600
  1.133000, -0.146000
  1.135000, -0.132400
  1.137000, -0.118800
  1.139000, -0.105400
  1.141000, -0.092200
  1.143000, -0.079200
  1.145000, -0.066400
  1.147000, -0.053800
  1.149000, -0.041400
  1.151000, -0.029100
  1.153000, -0.017200
  1.155000, -0.005600
  1.157000,  0.005700
  1.159000,  0.016800
  1.161000,  0.027500
  1.163000,  0.037900
  1.165000,  0.048000
  1.167000,  0.057800
  1.169000,  0.067300
  1.171000,  0.076300
  1.173000,  0.085000
  1.175000,  0.093400
  1.177000,  0.101300
  1.179000,  0.108900
  1.181000,  0.116100
  1.183000,  0.122900
  1.185000,  0.129400
  1.187000,  0.135500
  1.189000,  0.141100
  1.191000,  0.146400
  1.193000,  0.151300
  1.195000,  0.155800
  1.197000,  0.160100
  1.199000,  0.163900
  1.201000,  0.167400
  1.203000,  0.170500
  1.205000,  0.173300
  1.207000,  0.175800
  1.209000,  0.177900
  1.211000,  0.179700
  1.213000,  0.181200
  1.215000,  0.182400
  1.217000,  0.183100
  1.219000,  0.183400
  1.221000,  0.183500
  1.223000,  0.183300
  1.225000,  0.182700
  1.227000,  0.182000
  1.229000,  0.181000
  1.231000,  0.179700
  1.233000,  0.178200
  1.235000,  0.176300
  1.237000,  0.174100
  1.239000,  0.171600
  1.241000,  0.168900
  1.243000,  0.166000
  1.245000,  0.162800
  1.247000,  0.159300
  1.249000,  0.155600
  1.251000,  0.151700
  1.253000,  0.147400
  1.255000,  0.142900
  1.257000,  0.138300
  1.259000,  0.133500
  1.261000,  0.128200
  1.263000,  0.122800
  1.265000,  0.117200
  1.267000,  0.111400
  1.269000,  0.105400
  1.271000,  0.099000
  1.273000,  0.092400
  1.275000,  0.085500
  1.277000,  0.078500
  1.279000,  0.071400
  1.281000,  0.064000
  1.283000,  0.056500
  1.285000,  0.048800
  1.287000,  0.041000
  1.289000,  0.033000
  1.291000,  0.024800
  1.293000,  0.016600
  1.295000,  0.008200
  1.297000, -0.000300
  1.299000, -0.009000
  1.301000, -0.017500
  1.303000, -0.026200
  1.305000, -0.034800
  1.307000, -0.043400
  1.309000, -0.052100
  1.311000, -0.060700
  1.313000, -0.069100
  1.315000, -0.077500
  1.317000, -0.085800
  1.319000, -0.093900
  1.321000, -0.101900
  1.323000, -0.109600
  1.325000, -0.117000
  1.327000, -0.124200
  1.329000, -0.131300
  1.331000, -0.137800
  1.333000, -0.144000
  1.335000, -0.150000
  1.337000, -0.155500
  1.339000, -0.160600
  1.341000, -0.165500
  1.343000, -0.169800
  1.345000, -0.173600
  1.347000, -0.176900
  1.349000, -0.179600
  1.351000, -0.181900
  1.353000, -0.183600
  1.355000, -0.184500
  1.357000, -0.184800
  1.359000, -0.184700
  1.361000, -0.184100
  1.363000, -0.182800
  1.365000, -0.180700
  1.367000, -0.178300
  1.369000, -0.175300
  1.371000, -0.171800
  1.373000, -0.167700
  1.375000, -0.162800
  1.377000, -0.157400
  1.379000, -0.151500
  1.381000, -0.145400
  1.383000, -0.138900
  1.385000, -0.131700
  1.387000, -0.124200
  1.389000, -0.116500
  1.391000, -0.108600
  1.393000, -0.100500
  1.395000, -0.092200
  1.397000, -0.083800
  1.399000, -0.075500
