# z (nm)   (kJ/mol)
  0.431000, 19.991500
  0.433000, 19.609300
  0.435000, 19.212300
  0.437000, 18.856400
  0.439000, 18.454200
  0.441000, 18.028500
  0.443000, 17.606700
  0.445000, 17.175400
  0.447000, 16.737800
  0.449000, 16.286600
  0.451000, 15.830800
  0.453000, 15.378000
  0.455000, 14.921500
  0.457000, 14.463800
  0.459000, 13.999500
  0.461000, 13.530700
  0.463000, 13.064200
  0.465000, 12.595000
  0.467000, 12.125500
  0.469000, 11.657500
  0.471000, 11.191500
  0.473000, 10.731100
  0.475000, 10.274300
  0.477000,  9.820800
  0.479000,  9.373000
  0.481000,  8.931500
  0.483000,  8.500100
  0.485000,  8.075400
  0.487000,  7.658100
  0.489000,  7.256300
  0.491000,  6.864100
  0.493000,  6.479100
  0.495000,  6.098500
  0.497000,  5.730800
  0.499000,  5.381600
  0.501000,  5.042100
  0.503000,  4.716600
  0.505000,  4.401200
  0.507000,  4.095800
  0.509000,  3.807000
  0.511000,  3.529400
  0.513000,  3.259200
  0.515000,  3.005300
  0.517000,  2.767500
  0.519000,  2.542900
  0.521000,  2.330000
  0.523000,  2.127700
  0.525000,  1.939300
  0.527000,  1.762300
  0.529000,  1.596500
  0.531000,  1.442900
  0.533000,  1.297700
  0.535000,  1.160600
  0.537000,  1.033300
  0.539000,  0.912500
  0.541000,  0.799600
  0.543000,  0.694200
  0.545000,  0.595300
  0.547000,  0.504700
  0.549000,  0.425300
  0.551000,  0.356800
  0.553000,  0.292200
  0.555000,  0.237000
  0.557000,  0.196500
  0.559000,  0.162700
  0.561000,  0.138100
  0.563000,  0.123500
  0.565000,  0.121800
  0.567000,  0.134900
  0.569000,  0.152700
  0.571000,  0.175400
  0.573000,  0.215200
  0.575000,  0.267500
  0.577000,  0.326000
  0.579000,  0.389100
  0.581000,  0.458500
  0.583000,  0.541400
  0.585000,  0.607800
  0.587000,  0.674400
  0.589000,  0.720400
  0.591000,  0.725200
  0.593000,  0.705000
  0.595000,  0.651200
  0.597000,  0.575300
  0.599000,  0.439700
  0.601000,  0.268600
  0.603000,  0.098300
  0.605000, -0.078400
  0.607000, -0.259800
  0.609000, -0.460900
  0.611000, -0.672600
  0.613000, -0.872300
  0.615000, -1.063200
  0.617000, -1.253500
  0.619000, -1.434200
  0.621000, -1.608000
  0.623000, -1.778600
  0.625000, -1.944300
  0.627000, -2.104000
  0.629000, -2.258400
  0.631000, -2.407800
  0.633000, -2.551600
  0.635000, -2.688800
  0.637000, -2.821200
  0.639000, -2.948800
  0.641000, -3.071700
  0.643000, -3.190200
  0.645000, -3.306600
  0.647000, -3.418500
  0.649000, -3.524700
  0.651000, -3.626300
  0.653000, -3.719300
  0.655000, -3.807800
  0.657000, -3.892100
  0.659000, -3.968500
  0.661000, -4.038300
  0.663000, -4.104200
  0.665000, -4.164900
  0.667000, -4.219900
  0.669000, -4.268800
  0.671000, -4.312200
  0.673000, -4.349300
  0.675000, -4.379000
  0.677000, -4.403300
  0.679000, -4.422300
  0.681000, -4.436400
  0.683000, -4.445800
  0.685000, -4.450600
  0.687000, -4.450300
  0.689000, -4.444500
  0.691000, -4.434600
  0.693000, -4.421000
  0.695000, -4.403100
  0.697000, -4.381200
  0.699000, -4.355500
  0.701000, -4.326700
  0.703000, -4.294500
  0.705000, -4.258700
  0.707000, -4.220600
  0.709000, -4.179800
  0.711000, -4.136200
  0.713000, -4.090200
  0.715000, -4.042400
  0.717000, -3.993100
  0.719000, -3.941900
  0.721000, -3.889200
  0.723000, -3.834800
  0.725000, -3.779300
  0.727000, -3.722200
  0.729000, -3.663100
  0.731000, -3.603100
  0.733000, -3.542000
  0.735000, -3.479600
  0.737000, -3.416400
  0.739000, -3.351100
  0.741000, -3.283500
  0.743000, -3.216500
  0.745000, -3.148800
  0.747000, -3.079000
  0.749000, -3.007300
  0.751000, -2.934800
  0.753000, -2.861600
  0.755000, -2.786600
  0.757000, -2.711000
  0.759000, -2.635200
  0.761000, -2.558600
  0.763000, -2.480600
  0.765000, -2.401000
  0.767000, -2.320900
  0.769000, -2.240300
  0.771000, -2.159400
  0.773000, -2.077700
  0.775000, -1.995600
  0.777000, -1.913600
  0.779000, -1.831400
  0.781000, -1.749000
  0.783000, -1.666600
  0.785000, -1.584700
  0.787000, -1.503200
  0.789000, -1.422300
  0.791000, -1.342500
  0.793000, -1.263600
  0.795000, -1.185500
  0.797000, -1.108600
  0.799000, -1.033000
  0.801000, -0.958300
  0.803000, -0.885100
  0.805000, -0.814100
  0.807000, -0.744800
  0.809000, -0.677500
  0.811000, -0.612700
  0.813000, -0.550200
  0.815000, -0.490100
  0.817000, -0.432600
  0.819000, -0.377500
  0.821000, -0.324900
  0.823000, -0.274900
  0.825000, -0.227800
  0.827000, -0.183700
  0.829000, -0.142600
  0.831000, -0.104500
  0.833000, -0.069100
  0.835000, -0.036400
  0.837000, -0.006700
  0.839000,  0.020000
  0.841000,  0.043600
  0.843000,  0.064300
  0.845000,  0.082200
  0.847000,  0.097200
  0.849000,  0.109700
  0.851000,  0.119500
  0.853000,  0.126800
  0.855000,  0.132000
  0.857000,  0.134700
  0.859000,  0.135300
  0.861000,  0.134000
  0.863000,  0.130600
  0.865000,  0.125300
  0.867000,  0.118000
  0.869000,  0.109000
  0.871000,  0.098700
  0.873000,  0.087100
  0.875000,  0.074200
  0.877000,  0.060500
  0.879000,  0.045500
  0.881000,  0.029200
  0.883000,  0.012200
  0.885000, -0.005300
  0.887000, -0.023500
  0.889000, -0.042100
  0.891000, -0.061100
  0.893000, -0.080500
  0.895000, -0.100000
  0.897000, -0.119500
  0.899000, -0.139200
  0.901000, -0.158900
  0.903000, -0.178600
  0.905000, -0.197900
  0.907000, -0.216800
  0.909000, -0.235400
  0.911000, -0.254000
  0.913000, -0.272000
  0.915000, -0.289600
  0.917000, -0.306600
  0.919000, -0.323200
  0.921000, -0.339300
  0.923000, -0.355100
  0.925000, -0.370300
  0.927000, -0.384800
  0.929000, -0.398900
  0.931000, -0.412300
  0.933000, -0.425200
  0.935000, -0.437700
  0.937000, -0.449400
  0.939000, -0.460500
  0.941000, -0.471200
  0.943000, -0.481300
  0.945000, -0.490900
  0.947000, -0.500000
  0.949000, -0.508600
  0.951000, -0.516800
  0.953000, -0.524500
  0.955000, -0.531700
  0.957000, -0.538500
  0.959000, -0.544700
  0.961000, -0.550700
  0.963000, -0.556300
  0.965000, -0.561400
  0.967000, -0.566200
  0.969000, -0.570700
  0.971000, -0.574900
  0.973000, -0.578600
  0.975000, -0.582000
  0.977000, -0.585000
  0.979000, -0.587700
  0.981000, -0.590100
  0.983000, -0.592100
  0.985000, -0.593900
  0.987000, -0.595300
  0.989000, -0.596500
  0.991000, -0.597400
  0.993000, -0.598100
  0.995000, -0.598400
  0.997000, -0.598300
  0.999000, -0.598200
  1.001000, -0.597800
  1.003000, -0.596900
  1.005000, -0.595900
  1.007000, -0.594700
  1.009000, -0.593200
  1.011000, -0.591200
  1.013000, -0.589300
  1.015000, -0.587100
  1.017000, -0.584600
  1.019000, -0.581900
  1.021000, -0.579100
  1.023000, -0.575800
  1.025000, -0.572100
  1.027000, -0.568300
  1.029000, -0.564500
  1.031000, -0.560500
  1.033000, -0.556100
  1.035000, -0.551700
  1.037000, -0.547000
  1.039000, -0.542000
  1.041000, -0.537000
  1.043000, -0.531800
  1.045000, -0.526300
  1.047000, -0.520600
  1.049000, -0.514700
  1.051000, -0.508800
  1.053000, -0.503000
  1.055000, -0.496900
  1.057000, -0.490600
  1.059000, -0.484400
  1.061000, -0.478300
  1.063000, -0.472200
  1.065000, -0.465700
  1.067000, -0.459000
  1.069000, -0.452100
  1.071000, -0.445300
  1.073000, -0.438500
  1.075000, -0.431500
  1.077000, -0.424700
  1.079000, -0.417700
  1.081000, -0.410800
  1.083000, -0.403900
  1.085000, -0.396800
  1.087000, -0.389600
  1.089000, -0.382300
  1.091000, -0.375100
  1.093000, -0.368000
  1.095000, -0.360800
  1.097000, -0.353700
  1.099000, -0.346600
  1.101000, -0.339400
  1.103000, -0.332100
  1.105000, -0.324800
  1.107000, -0.317600
  1.109000, -0.310600
  1.111000, -0.303400
  1.113000, -0.295900
  1.115000, -0.288600
  1.117000, -0.281300
  1.119000, -0.274100
  1.121000, -0.266900
  1.123000, -0.259600
  1.125000, -0.252400
  1.127000, -0.245300
  1.129000, -0.238100
  1.131000, -0.231100
  1.133000, -0.224000
  1.135000, -0.216900
  1.137000, -0.209900
  1.139000, -0.202900
  1.141000, -0.195900
  1.143000, -0.189000
  1.145000, -0.182200
  1.147000, -0.175300
  1.149000, -0.168500
  1.151000, -0.161800
  1.153000, -0.155100
  1.155000, -0.148500
  1.157000, -0.141900
  1.159000, -0.135600
  1.161000, -0.129300
  1.163000, -0.123100
  1.165000, -0.117000
  1.167000, -0.111100
  1.169000, -0.105400
  1.171000, -0.099800
  1.173000, -0.094200
  1.175000, -0.088800
  1.177000, -0.083600
  1.179000, -0.078500
  1.181000, -0.073600
  1.183000, -0.068700
  1.185000, -0.064200
  1.187000, -0.059800
  1.189000, -0.055400
  1.191000, -0.051300
  1.193000, -0.047400
  1.195000, -0.043700
  1.197000, -0.040200
  1.199000, -0.036800
  1.201000, -0.033500
  1.203000, -0.030400
  1.205000, -0.027600
  1.207000, -0.025000
  1.209000, -0.022500
  1.211000, -0.020100
  1.213000, -0.018100
  1.215000, -0.016000
  1.217000, -0.014100
  1.219000, -0.012400
  1.221000, -0.010800
  1.223000, -0.009500
  1.225000, -0.008300
  1.227000, -0.007100
  1.229000, -0.006200
  1.231000, -0.005500
  1.233000, -0.004900
  1.235000, -0.004300
  1.237000, -0.003900
  1.239000, -0.003700
  1.241000, -0.003500
  1.243000, -0.003300
  1.245000, -0.003300
  1.247000, -0.003200
  1.249000, -0.003300
  1.251000, -0.003700
  1.253000, -0.004200
  1.255000, -0.004700
  1.257000, -0.005300
  1.259000, -0.005900
  1.261000, -0.006500
  1.263000, -0.007200
  1.265000, -0.007900
  1.267000, -0.008800
  1.269000, -0.009600
  1.271000, -0.010400
  1.273000, -0.011500
  1.275000, -0.012500
  1.277000, -0.013400
  1.279000, -0.014300
  1.281000, -0.015200
  1.283000, -0.016100
  1.285000, -0.017100
  1.287000, -0.018200
  1.289000, -0.019300
  1.291000, -0.020400
  1.293000, -0.021400
  1.295000, -0.022300
  1.297000, -0.022900
  1.299000, -0.023600
  1.301000, -0.024400
  1.303000, -0.025000
  1.305000, -0.025500
  1.307000, -0.025900
  1.309000, -0.026100
  1.311000, -0.026300
  1.313000, -0.026500
  1.315000, -0.026500
  1.317000, -0.026400
  1.319000, -0.026200
  1.321000, -0.025800
  1.323000, -0.025400
  1.325000, -0.024800
  1.327000, -0.024200
  1.329000, -0.023300
  1.331000, -0.022300
  1.333000, -0.021100
  1.335000, -0.019600
  1.337000, -0.018100
  1.339000, -0.016400
  1.341000, -0.014500
  1.343000, -0.012400
  1.345000, -0.010000
  1.347000, -0.007400
  1.349000, -0.004600
  1.351000, -0.001900
  1.353000,  0.001100
  1.355000,  0.004500
  1.357000,  0.008100
  1.359000,  0.011700
  1.361000,  0.015400
  1.363000,  0.019500
  1.365000,  0.023800
  1.367000,  0.028200
  1.369000,  0.032900
  1.371000,  0.037600
  1.373000,  0.042500
  1.375000,  0.047200
  1.377000,  0.052100
  1.379000,  0.057200
  1.381000,  0.062200
  1.383000,  0.067300
  1.385000,  0.072500
  1.387000,  0.077600
  1.389000,  0.082600
  1.391000,  0.087300
  1.393000,  0.091800
  1.395000,  0.096300
  1.397000,  0.100400
  1.399000,  0.104200
