# z (nm)   (kJ/mol)
  0.4630   31.87320
  0.4650   31.80530
  0.4670   31.72570
  0.4690   31.63630
  0.4710   31.54800
  0.4730   31.45920
  0.4750   31.36450
  0.4770   31.26880
  0.4790   31.16900
  0.4810   31.06180
  0.4830   30.94800
  0.4850   30.82780
  0.4870   30.70390
  0.4890   30.57240
  0.4910   30.43550
  0.4930   30.29570
  0.4950   30.15100
  0.4970   30.00180
  0.4990   29.84550
  0.5010   29.68020
  0.5030   29.50890
  0.5050   29.33260
  0.5070   29.15050
  0.5090   28.96250
  0.5110   28.76930
  0.5130   28.56950
  0.5150   28.36940
  0.5170   28.16190
  0.5190   27.94290
  0.5210   27.72220
  0.5230   27.49900
  0.5250   27.26980
  0.5270   27.03340
  0.5290   26.79910
  0.5310   26.56090
  0.5330   26.30750
  0.5350   26.05260
  0.5370   25.79460
  0.5390   25.52410
  0.5410   25.25130
  0.5430   24.97380
  0.5450   24.69270
  0.5470   24.40830
  0.5490   24.11210
  0.5510   23.80840
  0.5530   23.49940
  0.5550   23.17930
  0.5570   22.84960
  0.5590   22.51340
  0.5610   22.16890
  0.5630   21.81760
  0.5650   21.45690
  0.5670   21.08650
  0.5690   20.71060
  0.5710   20.32690
  0.5730   19.93300
  0.5750   19.52770
  0.5770   19.11560
  0.5790   18.70290
  0.5810   18.28270
  0.5830   17.85170
  0.5850   17.41450
  0.5870   16.96520
  0.5890   16.50850
  0.5910   16.05140
  0.5930   15.58190
  0.5950   15.10650
  0.5970   14.63670
  0.5990   14.16270
  0.6010   13.68490
  0.6030   13.20780
  0.6050   12.73120
  0.6070   12.25840
  0.6090   11.78670
  0.6110   11.31810
  0.6130   10.84880
  0.6150   10.37320
  0.6170    9.89640
  0.6190    9.42090
  0.6210    8.95630
  0.6230    8.49900
  0.6250    8.04580
  0.6270    7.60100
  0.6290    7.16550
  0.6310    6.74190
  0.6330    6.32610
  0.6350    5.91150
  0.6370    5.50250
  0.6390    5.10300
  0.6410    4.71370
  0.6430    4.33480
  0.6450    3.96850
  0.6470    3.61650
  0.6490    3.27380
  0.6510    2.93910
  0.6530    2.61600
  0.6550    2.30790
  0.6570    2.01190
  0.6590    1.72640
  0.6610    1.45070
  0.6630    1.18650
  0.6650    0.93350
  0.6670    0.69160
  0.6690    0.46240
  0.6710    0.24510
  0.6730    0.03640
  0.6750   -0.16090
  0.6770   -0.34730
  0.6790   -0.52260
  0.6810   -0.68710
  0.6830   -0.84210
  0.6850   -0.98490
  0.6870   -1.11810
  0.6890   -1.24150
  0.6910   -1.35420
  0.6930   -1.45800
  0.6950   -1.55240
  0.6970   -1.63700
  0.6990   -1.71270
  0.7010   -1.77850
  0.7030   -1.83480
  0.7050   -1.88330
  0.7070   -1.92430
  0.7090   -1.95740
  0.7110   -1.98280
  0.7130   -2.00020
  0.7150   -2.01150
  0.7170   -2.01690
  0.7190   -2.01550
  0.7210   -2.00800
  0.7230   -1.99490
  0.7250   -1.97790
  0.7270   -1.95700
  0.7290   -1.93130
  0.7310   -1.90230
  0.7330   -1.87050
  0.7350   -1.83430
  0.7370   -1.79630
  0.7390   -1.75620
  0.7410   -1.71430
  0.7430   -1.67180
  0.7450   -1.62760
  0.7470   -1.58120
  0.7490   -1.53330
  0.7510   -1.48520
  0.7530   -1.43700
  0.7550   -1.38860
  0.7570   -1.34050
  0.7590   -1.29320
  0.7610   -1.24590
  0.7630   -1.19900
  0.7650   -1.15270
  0.7670   -1.10680
  0.7690   -1.06190
  0.7710   -1.01790
  0.7730   -0.97490
  0.7750   -0.93310
  0.7770   -0.89220
  0.7790   -0.85220
  0.7810   -0.81340
  0.7830   -0.77560
  0.7850   -0.73870
  0.7870   -0.70250
  0.7890   -0.66660
  0.7910   -0.63110
  0.7930   -0.59690
  0.7950   -0.56340
  0.7970   -0.53030
  0.7990   -0.49770
  0.8010   -0.46530
  0.8030   -0.43310
  0.8050   -0.40110
  0.8070   -0.36940
  0.8090   -0.33820
  0.8110   -0.30720
  0.8130   -0.27590
  0.8150   -0.24440
  0.8170   -0.21300
  0.8190   -0.18130
  0.8210   -0.14900
  0.8230   -0.11660
  0.8250   -0.08420
  0.8270   -0.05170
  0.8290   -0.01890
  0.8310    0.01440
  0.8330    0.04800
  0.8350    0.08190
  0.8370    0.11630
  0.8390    0.15080
  0.8410    0.18530
  0.8430    0.22030
  0.8450    0.25520
  0.8470    0.29030
  0.8490    0.32550
  0.8510    0.36030
  0.8530    0.39490
  0.8550    0.42950
  0.8570    0.46420
  0.8590    0.49860
  0.8610    0.53240
  0.8630    0.56580
  0.8650    0.59860
  0.8670    0.63060
  0.8690    0.66180
  0.8710    0.69210
  0.8730    0.72130
  0.8750    0.74950
  0.8770    0.77640
  0.8790    0.80270
  0.8810    0.82760
  0.8830    0.85070
  0.8850    0.87210
  0.8870    0.89200
  0.8890    0.91020
  0.8910    0.92670
  0.8930    0.94140
  0.8950    0.95430
  0.8970    0.96500
  0.8990    0.97400
  0.9010    0.98110
  0.9030    0.98580
  0.9050    0.98820
  0.9070    0.98890
  0.9090    0.98760
  0.9110    0.98410
  0.9130    0.97860
  0.9150    0.97150
  0.9170    0.96220
  0.9190    0.95060
  0.9210    0.93690
  0.9230    0.92160
  0.9250    0.90470
  0.9270    0.88590
  0.9290    0.86540
  0.9310    0.84330
  0.9330    0.81970
  0.9350    0.79460
  0.9370    0.76820
  0.9390    0.74050
  0.9410    0.71190
  0.9430    0.68230
  0.9450    0.65160
  0.9470    0.62020
  0.9490    0.58810
  0.9510    0.55540
  0.9530    0.52220
  0.9550    0.48860
  0.9570    0.45490
  0.9590    0.42090
  0.9610    0.38670
  0.9630    0.35240
  0.9650    0.31830
  0.9670    0.28450
  0.9690    0.25110
  0.9710    0.21800
  0.9730    0.18530
  0.9750    0.15320
  0.9770    0.12170
  0.9790    0.09080
  0.9810    0.06050
  0.9830    0.03110
  0.9850    0.00250
  0.9870   -0.02510
  0.9890   -0.05180
  0.9910   -0.07750
  0.9930   -0.10240
  0.9950   -0.12620
  0.9970   -0.14910
  0.9990   -0.17100
  1.0010   -0.19200
  1.0030   -0.21180
  1.0050   -0.23060
  1.0070   -0.24830
  1.0090   -0.26510
  1.0110   -0.28080
  1.0130   -0.29550
  1.0150   -0.30920
  1.0170   -0.32190
  1.0190   -0.33360
  1.0210   -0.34440
  1.0230   -0.35430
  1.0250   -0.36330
  1.0270   -0.37150
  1.0290   -0.37870
  1.0310   -0.38500
  1.0330   -0.39060
  1.0350   -0.39540
  1.0370   -0.39930
  1.0390   -0.40250
  1.0410   -0.40530
  1.0430   -0.40730
  1.0450   -0.40870
  1.0470   -0.40950
  1.0490   -0.40960
  1.0510   -0.40900
  1.0530   -0.40800
  1.0550   -0.40650
  1.0570   -0.40450
  1.0590   -0.40210
  1.0610   -0.39930
  1.0630   -0.39570
  1.0650   -0.39180
  1.0670   -0.38750
  1.0690   -0.38280
  1.0710   -0.37770
  1.0730   -0.37210
  1.0750   -0.36630
  1.0770   -0.36010
  1.0790   -0.35380
  1.0810   -0.34720
  1.0830   -0.34030
  1.0850   -0.33300
  1.0870   -0.32560
  1.0890   -0.31790
  1.0910   -0.30990
  1.0930   -0.30180
  1.0950   -0.29340
  1.0970   -0.28490
  1.0990   -0.27640
  1.1010   -0.26760
  1.1030   -0.25870
  1.1050   -0.24970
  1.1070   -0.24060
  1.1090   -0.23150
  1.1110   -0.22210
  1.1130   -0.21260
  1.1150   -0.20310
  1.1170   -0.19350
  1.1190   -0.18380
  1.1210   -0.17420
  1.1230   -0.16460
  1.1250   -0.15500
  1.1270   -0.14530
  1.1290   -0.13560
  1.1310   -0.12590
  1.1330   -0.11640
  1.1350   -0.10700
  1.1370   -0.09760
  1.1390   -0.08830
  1.1410   -0.07890
  1.1430   -0.06970
  1.1450   -0.06060
  1.1470   -0.05160
  1.1490   -0.04260
  1.1510   -0.03390
  1.1530   -0.02530
  1.1550   -0.01700
  1.1570   -0.00890
  1.1590   -0.00090
  1.1610    0.00680
  1.1630    0.01460
  1.1650    0.02200
  1.1670    0.02920
  1.1690    0.03610
  1.1710    0.04280
  1.1730    0.04930
  1.1750    0.05560
  1.1770    0.06180
  1.1790    0.06770
  1.1810    0.07330
  1.1830    0.07840
  1.1850    0.08330
  1.1870    0.08810
  1.1890    0.09250
  1.1910    0.09660
  1.1930    0.10050
  1.1950    0.10390
  1.1970    0.10710
  1.1990    0.10990
  1.2010    0.11230
  1.2030    0.11440
  1.2050    0.11610
  1.2070    0.11760
  1.2090    0.11880
  1.2110    0.11970
  1.2130    0.12040
  1.2150    0.12080
  1.2170    0.12090
  1.2190    0.12060
  1.2210    0.12020
  1.2230    0.11940
  1.2250    0.11830
  1.2270    0.11690
  1.2290    0.11540
  1.2310    0.11370
  1.2330    0.11160
  1.2350    0.10930
  1.2370    0.10680
  1.2390    0.10410
  1.2410    0.10130
  1.2430    0.09860
  1.2450    0.09550
  1.2470    0.09210
  1.2490    0.08860
  1.2510    0.08500
  1.2530    0.08130
  1.2550    0.07750
  1.2570    0.07370
  1.2590    0.06970
  1.2610    0.06550
  1.2630    0.06130
  1.2650    0.05720
  1.2670    0.05290
  1.2690    0.04860
  1.2710    0.04430
  1.2730    0.03990
  1.2750    0.03560
  1.2770    0.03120
  1.2790    0.02680
  1.2810    0.02230
  1.2830    0.01780
  1.2850    0.01340
  1.2870    0.00900
  1.2890    0.00450
  1.2910   -0.00010
  1.2930   -0.00460
  1.2950   -0.00910
  1.2970   -0.01360
  1.2990   -0.01810
  1.3010   -0.02240
  1.3030   -0.02690
  1.3050   -0.03140
  1.3070   -0.03580
  1.3090   -0.04030
  1.3110   -0.04470
  1.3130   -0.04890
  1.3150   -0.05300
  1.3170   -0.05720
  1.3190   -0.06150
  1.3210   -0.06570
  1.3230   -0.06960
  1.3250   -0.07340
  1.3270   -0.07720
  1.3290   -0.08080
  1.3310   -0.08420
  1.3330   -0.08740
  1.3350   -0.09040
  1.3370   -0.09320
  1.3390   -0.09570
  1.3410   -0.09780
  1.3430   -0.09990
  1.3450   -0.10170
  1.3470   -0.10320
  1.3490   -0.10460
  1.3510   -0.10560
  1.3530   -0.10610
  1.3550   -0.10640
  1.3570   -0.10620
  1.3590   -0.10580
  1.3610   -0.10510
  1.3630   -0.10390
  1.3650   -0.10230
  1.3670   -0.10030
  1.3690   -0.09800
  1.3710   -0.09540
  1.3730   -0.09220
  1.3750   -0.08870
  1.3770   -0.08470
  1.3790   -0.08030
  1.3810   -0.07570
  1.3830   -0.07070
  1.3850   -0.06530
  1.3870   -0.05950
  1.3890   -0.05360
  1.3910   -0.04760
  1.3930   -0.04170
  1.3950   -0.03590
  1.3970   -0.02980
  1.3990   -0.02370
