# z (nm)   (kJ/mol)
  0.457000, 16.619800
  0.459000, 16.108400
  0.461000, 15.603200
  0.463000, 15.099300
  0.465000, 14.610300
  0.467000, 14.117800
  0.469000, 13.611100
  0.471000, 13.097300
  0.473000, 12.588100
  0.475000, 12.085700
  0.477000, 11.586100
  0.479000, 11.093600
  0.481000, 10.609700
  0.483000, 10.132500
  0.485000,  9.660000
  0.487000,  9.201100
  0.489000,  8.759000
  0.491000,  8.335200
  0.493000,  7.932800
  0.495000,  7.553800
  0.497000,  7.210500
  0.499000,  6.882000
  0.501000,  6.564000
  0.503000,  6.278100
  0.505000,  6.019400
  0.507000,  5.783300
  0.509000,  5.567100
  0.511000,  5.355900
  0.513000,  5.154000
  0.515000,  4.966700
  0.517000,  4.783500
  0.519000,  4.608000
  0.521000,  4.443600
  0.523000,  4.288900
  0.525000,  4.145300
  0.527000,  4.011000
  0.529000,  3.887300
  0.531000,  3.778300
  0.533000,  3.680000
  0.535000,  3.591600
  0.537000,  3.515000
  0.539000,  3.449200
  0.541000,  3.392200
  0.543000,  3.346000
  0.545000,  3.310900
  0.547000,  3.286000
  0.549000,  3.270900
  0.551000,  3.264400
  0.553000,  3.267600
  0.555000,  3.279700
  0.557000,  3.300200
  0.559000,  3.328700
  0.561000,  3.363300
  0.563000,  3.405400
  0.565000,  3.457600
  0.567000,  3.516000
  0.569000,  3.578300
  0.571000,  3.648400
  0.573000,  3.733000
  0.575000,  3.825800
  0.577000,  3.918300
  0.579000,  4.012200
  0.581000,  4.114800
  0.583000,  4.223100
  0.585000,  4.327400
  0.587000,  4.432700
  0.589000,  4.537400
  0.591000,  4.644300
  0.593000,  4.741800
  0.595000,  4.831500
  0.597000,  4.921800
  0.599000,  4.999600
  0.601000,  5.060500
  0.603000,  5.106700
  0.605000,  5.149100
  0.607000,  5.169700
  0.609000,  5.158100
  0.611000,  5.127700
  0.613000,  5.060200
  0.615000,  4.954300
  0.617000,  4.836800
  0.619000,  4.683800
  0.621000,  4.490000
  0.623000,  4.281000
  0.625000,  4.024100
  0.627000,  3.731600
  0.629000,  3.437500
  0.631000,  3.122300
  0.633000,  2.786200
  0.635000,  2.450600
  0.637000,  2.112100
  0.639000,  1.761600
  0.641000,  1.411900
  0.643000,  1.054700
  0.645000,  0.695000
  0.647000,  0.341200
  0.649000, -0.021300
  0.651000, -0.386600
  0.653000, -0.751100
  0.655000, -1.112700
  0.657000, -1.469700
  0.659000, -1.819900
  0.661000, -2.163100
  0.663000, -2.503800
  0.665000, -2.837000
  0.667000, -3.161800
  0.669000, -3.478700
  0.671000, -3.784800
  0.673000, -4.079900
  0.675000, -4.360100
  0.677000, -4.625900
  0.679000, -4.874500
  0.681000, -5.105900
  0.683000, -5.324600
  0.685000, -5.527100
  0.687000, -5.708000
  0.689000, -5.868700
  0.691000, -6.013200
  0.693000, -6.139800
  0.695000, -6.247600
  0.697000, -6.336300
  0.699000, -6.406600
  0.701000, -6.459400
  0.703000, -6.494700
  0.705000, -6.513300
  0.707000, -6.515700
  0.709000, -6.501300
  0.711000, -6.469900
  0.713000, -6.423600
  0.715000, -6.364000
  0.717000, -6.291000
  0.719000, -6.205100
  0.721000, -6.107600
  0.723000, -5.998700
  0.725000, -5.879900
  0.727000, -5.751100
  0.729000, -5.613300
  0.731000, -5.469700
  0.733000, -5.319500
  0.735000, -5.163100
  0.737000, -5.002000
  0.739000, -4.839000
  0.741000, -4.673400
  0.743000, -4.503200
  0.745000, -4.329900
  0.747000, -4.155300
  0.749000, -3.980600
  0.751000, -3.805800
  0.753000, -3.632600
  0.755000, -3.462500
  0.757000, -3.294500
  0.759000, -3.131100
  0.761000, -2.972600
  0.763000, -2.816500
  0.765000, -2.666700
  0.767000, -2.523500
  0.769000, -2.385200
  0.771000, -2.252400
  0.773000, -2.125000
  0.775000, -2.003700
  0.777000, -1.889700
  0.779000, -1.783100
  0.781000, -1.681400
  0.783000, -1.586400
  0.785000, -1.499900
  0.787000, -1.419600
  0.789000, -1.345500
  0.791000, -1.277600
  0.793000, -1.217200
  0.795000, -1.163300
  0.797000, -1.114800
  0.799000, -1.071400
  0.801000, -1.032600
  0.803000, -0.999000
  0.805000, -0.970900
  0.807000, -0.947500
  0.809000, -0.928200
  0.811000, -0.913300
  0.813000, -0.901800
  0.815000, -0.893100
  0.817000, -0.888000
  0.819000, -0.884900
  0.821000, -0.883800
  0.823000, -0.884700
  0.825000, -0.887200
  0.827000, -0.891000
  0.829000, -0.895500
  0.831000, -0.901200
  0.833000, -0.907700
  0.835000, -0.914700
  0.837000, -0.922000
  0.839000, -0.929500
  0.841000, -0.936700
  0.843000, -0.943100
  0.845000, -0.949000
  0.847000, -0.954500
  0.849000, -0.959100
  0.851000, -0.962700
  0.853000, -0.965600
  0.855000, -0.967300
  0.857000, -0.968200
  0.859000, -0.968100
  0.861000, -0.966900
  0.863000, -0.964800
  0.865000, -0.961700
  0.867000, -0.957500
  0.869000, -0.952100
  0.871000, -0.946300
  0.873000, -0.939800
  0.875000, -0.932000
  0.877000, -0.923300
  0.879000, -0.914300
  0.881000, -0.904700
  0.883000, -0.894600
  0.885000, -0.883700
  0.887000, -0.872200
  0.889000, -0.860300
  0.891000, -0.848100
  0.893000, -0.835600
  0.895000, -0.823200
  0.897000, -0.810700
  0.899000, -0.798100
  0.901000, -0.785500
  0.903000, -0.773100
  0.905000, -0.761000
  0.907000, -0.749200
  0.909000, -0.737200
  0.911000, -0.725800
  0.913000, -0.715000
  0.915000, -0.704500
  0.917000, -0.694500
  0.919000, -0.685200
  0.921000, -0.676200
  0.923000, -0.667800
  0.925000, -0.659900
  0.927000, -0.652500
  0.929000, -0.645500
  0.931000, -0.639000
  0.933000, -0.632900
  0.935000, -0.627400
  0.937000, -0.622400
  0.939000, -0.618200
  0.941000, -0.614400
  0.943000, -0.610300
  0.945000, -0.606800
  0.947000, -0.604100
  0.949000, -0.602000
  0.951000, -0.599500
  0.953000, -0.596600
  0.955000, -0.593200
  0.957000, -0.590000
  0.959000, -0.586800
  0.961000, -0.583500
  0.963000, -0.580700
  0.965000, -0.577700
  0.967000, -0.574100
  0.969000, -0.570000
  0.971000, -0.565800
  0.973000, -0.560900
  0.975000, -0.554800
  0.977000, -0.548600
  0.979000, -0.542600
  0.981000, -0.536400
  0.983000, -0.530100
  0.985000, -0.523200
  0.987000, -0.515500
  0.989000, -0.507000
  0.991000, -0.498200
  0.993000, -0.489000
  0.995000, -0.479400
  0.997000, -0.469800
  0.999000, -0.460100
  1.001000, -0.449400
  1.003000, -0.438200
  1.005000, -0.427200
  1.007000, -0.415800
  1.009000, -0.403800
  1.011000, -0.391800
  1.013000, -0.379300
  1.015000, -0.366400
  1.017000, -0.353400
  1.019000, -0.340400
  1.021000, -0.327400
  1.023000, -0.314500
  1.025000, -0.302000
  1.027000, -0.289400
  1.029000, -0.276800
  1.031000, -0.264200
  1.033000, -0.252100
  1.035000, -0.240400
  1.037000, -0.229000
  1.039000, -0.217600
  1.041000, -0.206700
  1.043000, -0.196100
  1.045000, -0.185900
  1.047000, -0.176300
  1.049000, -0.166900
  1.051000, -0.157800
  1.053000, -0.149200
  1.055000, -0.141100
  1.057000, -0.133500
  1.059000, -0.126500
  1.061000, -0.120000
  1.063000, -0.113900
  1.065000, -0.108300
  1.067000, -0.103300
  1.069000, -0.098600
  1.071000, -0.094400
  1.073000, -0.090700
  1.075000, -0.087400
  1.077000, -0.084500
  1.079000, -0.082100
  1.081000, -0.080000
  1.083000, -0.078400
  1.085000, -0.077100
  1.087000, -0.076000
  1.089000, -0.075400
  1.091000, -0.075000
  1.093000, -0.074700
  1.095000, -0.074900
  1.097000, -0.075300
  1.099000, -0.075800
  1.101000, -0.076400
  1.103000, -0.077300
  1.105000, -0.078400
  1.107000, -0.079600
  1.109000, -0.080900
  1.111000, -0.082100
  1.113000, -0.083200
  1.115000, -0.084400
  1.117000, -0.085600
  1.119000, -0.086900
  1.121000, -0.088300
  1.123000, -0.089400
  1.125000, -0.090200
  1.127000, -0.091000
  1.129000, -0.091900
  1.131000, -0.092700
  1.133000, -0.093300
  1.135000, -0.093900
  1.137000, -0.094600
  1.139000, -0.095100
  1.141000, -0.095200
  1.143000, -0.095200
  1.145000, -0.095000
  1.147000, -0.094800
  1.149000, -0.094500
  1.151000, -0.093800
  1.153000, -0.093100
  1.155000, -0.092200
  1.157000, -0.091100
  1.159000, -0.089700
  1.161000, -0.088400
  1.163000, -0.086800
  1.165000, -0.085000
  1.167000, -0.083200
  1.169000, -0.081300
  1.171000, -0.079300
  1.173000, -0.077200
  1.175000, -0.074800
  1.177000, -0.072300
  1.179000, -0.069900
  1.181000, -0.067300
  1.183000, -0.064700
  1.185000, -0.062200
  1.187000, -0.059300
  1.189000, -0.056200
  1.191000, -0.053000
  1.193000, -0.049900
  1.195000, -0.046700
  1.197000, -0.043400
  1.199000, -0.040000
  1.201000, -0.036600
  1.203000, -0.033100
  1.205000, -0.029700
  1.207000, -0.026500
  1.209000, -0.023000
  1.211000, -0.019300
  1.213000, -0.015800
  1.215000, -0.012300
  1.217000, -0.008900
  1.219000, -0.005400
  1.221000, -0.001900
  1.223000,  0.001600
  1.225000,  0.005200
  1.227000,  0.008700
  1.229000,  0.012100
  1.231000,  0.015600
  1.233000,  0.018900
  1.235000,  0.022000
  1.237000,  0.025000
  1.239000,  0.028100
  1.241000,  0.031000
  1.243000,  0.033600
  1.245000,  0.036100
  1.247000,  0.038600
  1.249000,  0.040800
  1.251000,  0.042900
  1.253000,  0.044800
  1.255000,  0.046600
  1.257000,  0.048300
  1.259000,  0.049700
  1.261000,  0.051000
  1.263000,  0.052100
  1.265000,  0.052800
  1.267000,  0.053400
  1.269000,  0.053800
  1.271000,  0.054000
  1.273000,  0.053800
  1.275000,  0.053500
  1.277000,  0.053000
  1.279000,  0.052000
  1.281000,  0.050900
  1.283000,  0.049600
  1.285000,  0.048000
  1.287000,  0.046300
  1.289000,  0.044300
  1.291000,  0.042100
  1.293000,  0.039600
  1.295000,  0.036900
  1.297000,  0.034100
  1.299000,  0.031300
  1.301000,  0.028300
  1.303000,  0.025300
  1.305000,  0.022200
  1.307000,  0.019000
  1.309000,  0.015700
  1.311000,  0.012100
  1.313000,  0.008600
  1.315000,  0.005200
  1.317000,  0.001800
  1.319000, -0.001700
  1.321000, -0.005300
  1.323000, -0.008900
  1.325000, -0.012200
  1.327000, -0.015500
  1.329000, -0.018600
  1.331000, -0.021600
  1.333000, -0.024600
  1.335000, -0.027300
  1.337000, -0.029900
  1.339000, -0.032200
  1.341000, -0.034400
  1.343000, -0.036400
  1.345000, -0.038400
  1.347000, -0.040100
  1.349000, -0.041500
  1.351000, -0.042700
  1.353000, -0.043600
  1.355000, -0.044400
  1.357000, -0.045100
  1.359000, -0.045700
  1.361000, -0.046200
  1.363000, -0.046300
  1.365000, -0.046200
  1.367000, -0.045900
  1.369000, -0.045600
  1.371000, -0.045200
  1.373000, -0.044500
  1.375000, -0.043800
  1.377000, -0.043100
  1.379000, -0.042000
  1.381000, -0.040700
  1.383000, -0.039600
  1.385000, -0.038500
  1.387000, -0.037600
  1.389000, -0.036700
  1.391000, -0.035900
  1.393000, -0.035100
  1.395000, -0.034500
  1.397000, -0.034300
  1.399000, -0.034600
