# z (nm)   (kJ/mol)
  0.497000,  9.767900
  0.499000,  9.476100
  0.501000,  9.237300
  0.503000,  8.973600
  0.505000,  8.698500
  0.507000,  8.440400
  0.509000,  8.196300
  0.511000,  7.962400
  0.513000,  7.738100
  0.515000,  7.526500
  0.517000,  7.326900
  0.519000,  7.139600
  0.521000,  6.960500
  0.523000,  6.792000
  0.525000,  6.632200
  0.527000,  6.482200
  0.529000,  6.343200
  0.531000,  6.213000
  0.533000,  6.092700
  0.535000,  5.981200
  0.537000,  5.876900
  0.539000,  5.781100
  0.541000,  5.692700
  0.543000,  5.611600
  0.545000,  5.538200
  0.547000,  5.472100
  0.549000,  5.412600
  0.551000,  5.361000
  0.553000,  5.316600
  0.555000,  5.278300
  0.557000,  5.246600
  0.559000,  5.221400
  0.561000,  5.200200
  0.563000,  5.183600
  0.565000,  5.172000
  0.567000,  5.169900
  0.569000,  5.174500
  0.571000,  5.186100
  0.573000,  5.205800
  0.575000,  5.226300
  0.577000,  5.249400
  0.579000,  5.268200
  0.581000,  5.295000
  0.583000,  5.325700
  0.585000,  5.356500
  0.587000,  5.397300
  0.589000,  5.423100
  0.591000,  5.447600
  0.593000,  5.473400
  0.595000,  5.472700
  0.597000,  5.445700
  0.599000,  5.407200
  0.601000,  5.347700
  0.603000,  5.247100
  0.605000,  5.142000
  0.607000,  5.032900
  0.609000,  4.890000
  0.611000,  4.711600
  0.613000,  4.512600
  0.615000,  4.318500
  0.617000,  4.123500
  0.619000,  3.915600
  0.621000,  3.702000
  0.623000,  3.488600
  0.625000,  3.274800
  0.627000,  3.056300
  0.629000,  2.839300
  0.631000,  2.624800
  0.633000,  2.405400
  0.635000,  2.189800
  0.637000,  1.978700
  0.639000,  1.770900
  0.641000,  1.568800
  0.643000,  1.367300
  0.645000,  1.169600
  0.647000,  0.978800
  0.649000,  0.793200
  0.651000,  0.612300
  0.653000,  0.436100
  0.655000,  0.267500
  0.657000,  0.104700
  0.659000, -0.052500
  0.661000, -0.200700
  0.663000, -0.341000
  0.665000, -0.473800
  0.667000, -0.599800
  0.669000, -0.720600
  0.671000, -0.834600
  0.673000, -0.940100
  0.675000, -1.039000
  0.677000, -1.131500
  0.679000, -1.216600
  0.681000, -1.294700
  0.683000, -1.365600
  0.685000, -1.430100
  0.687000, -1.489600
  0.689000, -1.543100
  0.691000, -1.590800
  0.693000, -1.633500
  0.695000, -1.671100
  0.697000, -1.704000
  0.699000, -1.732800
  0.701000, -1.758100
  0.703000, -1.779800
  0.705000, -1.797400
  0.707000, -1.811800
  0.709000, -1.824600
  0.711000, -1.834900
  0.713000, -1.842800
  0.715000, -1.848700
  0.717000, -1.852900
  0.719000, -1.856300
  0.721000, -1.858200
  0.723000, -1.860100
  0.725000, -1.861800
  0.727000, -1.862800
  0.729000, -1.863500
  0.731000, -1.864400
  0.733000, -1.865400
  0.735000, -1.866800
  0.737000, -1.868300
  0.739000, -1.868900
  0.741000, -1.870000
  0.743000, -1.871400
  0.745000, -1.872800
  0.747000, -1.874200
  0.749000, -1.875600
  0.751000, -1.876800
  0.753000, -1.877800
  0.755000, -1.878200
  0.757000, -1.878000
  0.759000, -1.877100
  0.761000, -1.875700
  0.763000, -1.873100
  0.765000, -1.869600
  0.767000, -1.864900
  0.769000, -1.858800
  0.771000, -1.851300
  0.773000, -1.842200
  0.775000, -1.831500
  0.777000, -1.819300
  0.779000, -1.805100
  0.781000, -1.789000
  0.783000, -1.771000
  0.785000, -1.751000
  0.787000, -1.729100
  0.789000, -1.705300
  0.791000, -1.679500
  0.793000, -1.651500
  0.795000, -1.621600
  0.797000, -1.589900
  0.799000, -1.556400
  0.801000, -1.521000
  0.803000, -1.484000
  0.805000, -1.445500
  0.807000, -1.405500
  0.809000, -1.364200
  0.811000, -1.321600
  0.813000, -1.277900
  0.815000, -1.233400
  0.817000, -1.188100
  0.819000, -1.142200
  0.821000, -1.095800
  0.823000, -1.049100
  0.825000, -1.002400
  0.827000, -0.955600
  0.829000, -0.909100
  0.831000, -0.862800
  0.833000, -0.816800
  0.835000, -0.771500
  0.837000, -0.727300
  0.839000, -0.684200
  0.841000, -0.641900
  0.843000, -0.600800
  0.845000, -0.560800
  0.847000, -0.522100
  0.849000, -0.485100
  0.851000, -0.449500
  0.853000, -0.415300
  0.855000, -0.382600
  0.857000, -0.351800
  0.859000, -0.322700
  0.861000, -0.295400
  0.863000, -0.270000
  0.865000, -0.246100
  0.867000, -0.223700
  0.869000, -0.203300
  0.871000, -0.184700
  0.873000, -0.167800
  0.875000, -0.152600
  0.877000, -0.139100
  0.879000, -0.127100
  0.881000, -0.116500
  0.883000, -0.107500
  0.885000, -0.099800
  0.887000, -0.093400
  0.889000, -0.088300
  0.891000, -0.084500
  0.893000, -0.081800
  0.895000, -0.080200
  0.897000, -0.079700
  0.899000, -0.080100
  0.901000, -0.081300
  0.903000, -0.083100
  0.905000, -0.085500
  0.907000, -0.088500
  0.909000, -0.092100
  0.911000, -0.096200
  0.913000, -0.100600
  0.915000, -0.105500
  0.917000, -0.110700
  0.919000, -0.116300
  0.921000, -0.122100
  0.923000, -0.127700
  0.925000, -0.133300
  0.927000, -0.139100
  0.929000, -0.144900
  0.931000, -0.150300
  0.933000, -0.155800
  0.935000, -0.161300
  0.937000, -0.166800
  0.939000, -0.172200
  0.941000, -0.177400
  0.943000, -0.182200
  0.945000, -0.186700
  0.947000, -0.191300
  0.949000, -0.195500
  0.951000, -0.199700
  0.953000, -0.204000
  0.955000, -0.208100
  0.957000, -0.212000
  0.959000, -0.215600
  0.961000, -0.219200
  0.963000, -0.222800
  0.965000, -0.226200
  0.967000, -0.229600
  0.969000, -0.233000
  0.971000, -0.236100
  0.973000, -0.239000
  0.975000, -0.242200
  0.977000, -0.245400
  0.979000, -0.248400
  0.981000, -0.251400
  0.983000, -0.254400
  0.985000, -0.257300
  0.987000, -0.260300
  0.989000, -0.263300
  0.991000, -0.266300
  0.993000, -0.269200
  0.995000, -0.272500
  0.997000, -0.275900
  0.999000, -0.279200
  1.001000, -0.282700
  1.003000, -0.286500
  1.005000, -0.290200
  1.007000, -0.294100
  1.009000, -0.298100
  1.011000, -0.302200
  1.013000, -0.306500
  1.015000, -0.310800
  1.017000, -0.315200
  1.019000, -0.319600
  1.021000, -0.324100
  1.023000, -0.328900
  1.025000, -0.333700
  1.027000, -0.338300
  1.029000, -0.343000
  1.031000, -0.347900
  1.033000, -0.352900
  1.035000, -0.358000
  1.037000, -0.363000
  1.039000, -0.368100
  1.041000, -0.373100
  1.043000, -0.378100
  1.045000, -0.383300
  1.047000, -0.388200
  1.049000, -0.392900
  1.051000, -0.397700
  1.053000, -0.402500
  1.055000, -0.407100
  1.057000, -0.411600
  1.059000, -0.415900
  1.061000, -0.420000
  1.063000, -0.423800
  1.065000, -0.427500
  1.067000, -0.431100
  1.069000, -0.434300
  1.071000, -0.437400
  1.073000, -0.440300
  1.075000, -0.443000
  1.077000, -0.445600
  1.079000, -0.448000
  1.081000, -0.450000
  1.083000, -0.451900
  1.085000, -0.453400
  1.087000, -0.454700
  1.089000, -0.455700
  1.091000, -0.456500
  1.093000, -0.457200
  1.095000, -0.457500
  1.097000, -0.457500
  1.099000, -0.457300
  1.101000, -0.456900
  1.103000, -0.456100
  1.105000, -0.455100
  1.107000, -0.453700
  1.109000, -0.452200
  1.111000, -0.450400
  1.113000, -0.448400
  1.115000, -0.446100
  1.117000, -0.443700
  1.119000, -0.440800
  1.121000, -0.437700
  1.123000, -0.434500
  1.125000, -0.431000
  1.127000, -0.427400
  1.129000, -0.423600
  1.131000, -0.419600
  1.133000, -0.415500
  1.135000, -0.411100
  1.137000, -0.406700
  1.139000, -0.402100
  1.141000, -0.397200
  1.143000, -0.392200
  1.145000, -0.387000
  1.147000, -0.381700
  1.149000, -0.376300
  1.151000, -0.370700
  1.153000, -0.365000
  1.155000, -0.359300
  1.157000, -0.353500
  1.159000, -0.347500
  1.161000, -0.341400
  1.163000, -0.335200
  1.165000, -0.328900
  1.167000, -0.322400
  1.169000, -0.316000
  1.171000, -0.309400
  1.173000, -0.302700
  1.175000, -0.295900
  1.177000, -0.289000
  1.179000, -0.282100
  1.181000, -0.275100
  1.183000, -0.268100
  1.185000, -0.261000
  1.187000, -0.253900
  1.189000, -0.246700
  1.191000, -0.239500
  1.193000, -0.232200
  1.195000, -0.225000
  1.197000, -0.217700
  1.199000, -0.210300
  1.201000, -0.202800
  1.203000, -0.195300
  1.205000, -0.187800
  1.207000, -0.180500
  1.209000, -0.173200
  1.211000, -0.165900
  1.213000, -0.158500
  1.215000, -0.151100
  1.217000, -0.143600
  1.219000, -0.136200
  1.221000, -0.128900
  1.223000, -0.121500
  1.225000, -0.114100
  1.227000, -0.106900
  1.229000, -0.099700
  1.231000, -0.092600
  1.233000, -0.085600
  1.235000, -0.078700
  1.237000, -0.071700
  1.239000, -0.064900
  1.241000, -0.058200
  1.243000, -0.051700
  1.245000, -0.045200
  1.247000, -0.038700
  1.249000, -0.032500
  1.251000, -0.026600
  1.253000, -0.020800
  1.255000, -0.015000
  1.257000, -0.009400
  1.259000, -0.004000
  1.261000,  0.001200
  1.263000,  0.006300
  1.265000,  0.011200
  1.267000,  0.015800
  1.269000,  0.020200
  1.271000,  0.024400
  1.273000,  0.028300
  1.275000,  0.031900
  1.277000,  0.035200
  1.279000,  0.038300
  1.281000,  0.041100
  1.283000,  0.043600
  1.285000,  0.046000
  1.287000,  0.047900
  1.289000,  0.049700
  1.291000,  0.051200
  1.293000,  0.052600
  1.295000,  0.053600
  1.297000,  0.054300
  1.299000,  0.054700
  1.301000,  0.055000
  1.303000,  0.055000
  1.305000,  0.054800
  1.307000,  0.054300
  1.309000,  0.053600
  1.311000,  0.052700
  1.313000,  0.051600
  1.315000,  0.050300
  1.317000,  0.049000
  1.319000,  0.047500
  1.321000,  0.045900
  1.323000,  0.044200
  1.325000,  0.042400
  1.327000,  0.040600
  1.329000,  0.038900
  1.331000,  0.037100
  1.333000,  0.035500
  1.335000,  0.033900
  1.337000,  0.032400
  1.339000,  0.031100
  1.341000,  0.029900
  1.343000,  0.028700
  1.345000,  0.027700
  1.347000,  0.027000
  1.349000,  0.026400
  1.351000,  0.026200
  1.353000,  0.026200
  1.355000,  0.026400
  1.357000,  0.027000
  1.359000,  0.027900
  1.361000,  0.029100
  1.363000,  0.030700
  1.365000,  0.032600
  1.367000,  0.034900
  1.369000,  0.037200
  1.371000,  0.040000
  1.373000,  0.043400
  1.375000,  0.047000
  1.377000,  0.050800
  1.379000,  0.055000
  1.381000,  0.059500
  1.383000,  0.064300
  1.385000,  0.069300
  1.387000,  0.074600
  1.389000,  0.080200
  1.391000,  0.085800
  1.393000,  0.091400
  1.395000,  0.096900
  1.397000,  0.102500
  1.399000,  0.107900
