# z (nm)   (kJ/mol)
  0.3710   17.77270
  0.3750   16.94710
  0.3770   16.58160
  0.3790   16.23830
  0.3810   15.85940
  0.3830   15.47080
  0.3850   15.08520
  0.3870   14.70020
  0.3890   14.31430
  0.3910   13.93300
  0.3930   13.55310
  0.3950   13.17320
  0.3970   12.79700
  0.3990   12.42620
  0.4010   12.06240
  0.4030   11.70090
  0.4050   11.34520
  0.4070   10.99910
  0.4090   10.66390
  0.4110   10.33710
  0.4130   10.01680
  0.4150    9.70450
  0.4170    9.39780
  0.4190    9.10340
  0.4210    8.82070
  0.4230    8.54400
  0.4250    8.27660
  0.4270    8.01840
  0.4290    7.76850
  0.4310    7.52990
  0.4330    7.30190
  0.4350    7.08320
  0.4370    6.87540
  0.4390    6.67460
  0.4410    6.48220
  0.4430    6.30120
  0.4450    6.12840
  0.4470    5.96390
  0.4490    5.80930
  0.4510    5.66320
  0.4530    5.52450
  0.4550    5.39420
  0.4570    5.27150
  0.4590    5.15540
  0.4610    5.04690
  0.4630    4.94520
  0.4650    4.85090
  0.4670    4.76380
  0.4690    4.68260
  0.4710    4.60680
  0.4730    4.53700
  0.4750    4.47330
  0.4770    4.41560
  0.4790    4.36320
  0.4810    4.31560
  0.4830    4.27310
  0.4850    4.23560
  0.4870    4.20210
  0.4890    4.17260
  0.4910    4.14720
  0.4930    4.12530
  0.4950    4.10710
  0.4970    4.09220
  0.4990    4.08100
  0.5010    4.07340
  0.5030    4.06730
  0.5050    4.06280
  0.5070    4.06080
  0.5090    4.06020
  0.5110    4.06120
  0.5130    4.06320
  0.5150    4.06660
  0.5170    4.07100
  0.5190    4.07560
  0.5210    4.08110
  0.5230    4.08730
  0.5250    4.09360
  0.5270    4.09920
  0.5290    4.10470
  0.5310    4.11020
  0.5330    4.11540
  0.5350    4.11970
  0.5370    4.12310
  0.5390    4.12600
  0.5410    4.12840
  0.5430    4.12980
  0.5450    4.12980
  0.5470    4.12880
  0.5490    4.12700
  0.5510    4.12410
  0.5530    4.11960
  0.5550    4.11370
  0.5570    4.10640
  0.5590    4.09790
  0.5610    4.08790
  0.5630    4.07660
  0.5650    4.06370
  0.5670    4.04940
  0.5690    4.03350
  0.5710    4.01610
  0.5730    3.99720
  0.5750    3.97660
  0.5770    3.95440
  0.5790    3.93060
  0.5810    3.90540
  0.5830    3.87830
  0.5850    3.84970
  0.5870    3.81960
  0.5890    3.78770
  0.5910    3.75400
  0.5930    3.71850
  0.5950    3.68120
  0.5970    3.64220
  0.5990    3.60140
  0.6010    3.55870
  0.6030    3.51400
  0.6050    3.46770
  0.6070    3.41940
  0.6090    3.36940
  0.6110    3.31750
  0.6130    3.26370
  0.6150    3.20800
  0.6170    3.15030
  0.6190    3.09080
  0.6210    3.02940
  0.6230    2.96620
  0.6250    2.90130
  0.6270    2.83470
  0.6290    2.76630
  0.6310    2.69620
  0.6330    2.62430
  0.6350    2.55070
  0.6370    2.47560
  0.6390    2.39910
  0.6410    2.32110
  0.6430    2.24210
  0.6450    2.16190
  0.6470    2.08060
  0.6490    1.99780
  0.6510    1.91390
  0.6530    1.82930
  0.6550    1.74390
  0.6570    1.65800
  0.6590    1.57170
  0.6610    1.48520
  0.6630    1.39830
  0.6650    1.31130
  0.6670    1.22440
  0.6690    1.13770
  0.6710    1.05140
  0.6730    0.96540
  0.6750    0.88040
  0.6770    0.79610
  0.6790    0.71260
  0.6810    0.63010
  0.6830    0.54890
  0.6850    0.46930
  0.6870    0.39110
  0.6890    0.31430
  0.6910    0.23940
  0.6930    0.16630
  0.6950    0.09550
  0.6970    0.02680
  0.6990   -0.03960
  0.7010   -0.10350
  0.7030   -0.16490
  0.7050   -0.22370
  0.7070   -0.27980
  0.7090   -0.33330
  0.7110   -0.38390
  0.7130   -0.43160
  0.7150   -0.47630
  0.7170   -0.51800
  0.7190   -0.55660
  0.7210   -0.59210
  0.7230   -0.62470
  0.7250   -0.65410
  0.7270   -0.68040
  0.7290   -0.70370
  0.7310   -0.72400
  0.7330   -0.74120
  0.7350   -0.75550
  0.7370   -0.76700
  0.7390   -0.77530
  0.7410   -0.78070
  0.7430   -0.78340
  0.7450   -0.78350
  0.7470   -0.78090
  0.7490   -0.77560
  0.7510   -0.76810
  0.7530   -0.75810
  0.7550   -0.74590
  0.7570   -0.73150
  0.7590   -0.71490
  0.7610   -0.69620
  0.7630   -0.67580
  0.7650   -0.65360
  0.7670   -0.62960
  0.7690   -0.60410
  0.7710   -0.57730
  0.7730   -0.54910
  0.7750   -0.51980
  0.7770   -0.48940
  0.7790   -0.45800
  0.7810   -0.42580
  0.7830   -0.39280
  0.7850   -0.35890
  0.7870   -0.32450
  0.7890   -0.28980
  0.7910   -0.25490
  0.7930   -0.21950
  0.7950   -0.18400
  0.7970   -0.14840
  0.7990   -0.11270
  0.8010   -0.07700
  0.8030   -0.04150
  0.8050   -0.00640
  0.8070    0.02840
  0.8090    0.06310
  0.8110    0.09740
  0.8130    0.13120
  0.8150    0.16430
  0.8170    0.19690
  0.8190    0.22900
  0.8210    0.26040
  0.8230    0.29100
  0.8250    0.32080
  0.8270    0.35000
  0.8290    0.37850
  0.8310    0.40600
  0.8330    0.43260
  0.8350    0.45840
  0.8370    0.48320
  0.8390    0.50700
  0.8410    0.52990
  0.8430    0.55190
  0.8450    0.57280
  0.8470    0.59260
  0.8490    0.61150
  0.8510    0.62920
  0.8530    0.64590
  0.8550    0.66160
  0.8570    0.67630
  0.8590    0.68980
  0.8610    0.70220
  0.8630    0.71350
  0.8650    0.72360
  0.8670    0.73250
  0.8690    0.74040
  0.8710    0.74730
  0.8730    0.75310
  0.8750    0.75780
  0.8770    0.76130
  0.8790    0.76380
  0.8810    0.76510
  0.8830    0.76550
  0.8850    0.76470
  0.8870    0.76280
  0.8890    0.75990
  0.8910    0.75600
  0.8930    0.75100
  0.8950    0.74510
  0.8970    0.73810
  0.8990    0.73030
  0.9010    0.72150
  0.9030    0.71170
  0.9050    0.70120
  0.9070    0.68980
  0.9090    0.67750
  0.9110    0.66440
  0.9130    0.65050
  0.9150    0.63600
  0.9170    0.62070
  0.9190    0.60480
  0.9210    0.58830
  0.9230    0.57100
  0.9250    0.55310
  0.9270    0.53480
  0.9290    0.51600
  0.9310    0.49670
  0.9330    0.47700
  0.9350    0.45680
  0.9370    0.43620
  0.9390    0.41540
  0.9410    0.39450
  0.9430    0.37350
  0.9450    0.35220
  0.9470    0.33100
  0.9490    0.30950
  0.9510    0.28790
  0.9530    0.26650
  0.9550    0.24530
  0.9570    0.22410
  0.9590    0.20290
  0.9610    0.18190
  0.9630    0.16100
  0.9650    0.14040
  0.9670    0.12010
  0.9690    0.10030
  0.9710    0.08080
  0.9730    0.06170
  0.9750    0.04290
  0.9770    0.02460
  0.9790    0.00680
  0.9810   -0.01060
  0.9830   -0.02750
  0.9850   -0.04390
  0.9870   -0.05970
  0.9890   -0.07490
  0.9910   -0.08960
  0.9930   -0.10360
  0.9950   -0.11710
  0.9970   -0.13000
  0.9990   -0.14230
  1.0010   -0.15380
  1.0030   -0.16470
  1.0050   -0.17510
  1.0070   -0.18470
  1.0090   -0.19380
  1.0110   -0.20220
  1.0130   -0.21000
  1.0150   -0.21710
  1.0170   -0.22360
  1.0190   -0.22940
  1.0210   -0.23460
  1.0230   -0.23920
  1.0250   -0.24330
  1.0270   -0.24690
  1.0290   -0.24970
  1.0310   -0.25200
  1.0330   -0.25370
  1.0350   -0.25500
  1.0370   -0.25570
  1.0390   -0.25610
  1.0410   -0.25590
  1.0430   -0.25520
  1.0450   -0.25410
  1.0470   -0.25250
  1.0490   -0.25050
  1.0510   -0.24810
  1.0530   -0.24530
  1.0550   -0.24220
  1.0570   -0.23870
  1.0590   -0.23480
  1.0610   -0.23070
  1.0630   -0.22630
  1.0650   -0.22170
  1.0670   -0.21690
  1.0690   -0.21190
  1.0710   -0.20670
  1.0730   -0.20120
  1.0750   -0.19570
  1.0770   -0.19000
  1.0790   -0.18420
  1.0810   -0.17830
  1.0830   -0.17230
  1.0850   -0.16630
  1.0870   -0.16020
  1.0890   -0.15400
  1.0910   -0.14780
  1.0930   -0.14160
  1.0950   -0.13550
  1.0970   -0.12940
  1.0990   -0.12330
  1.1010   -0.11720
  1.1030   -0.11130
  1.1050   -0.10540
  1.1070   -0.09960
  1.1090   -0.09380
  1.1110   -0.08820
  1.1130   -0.08260
  1.1150   -0.07720
  1.1170   -0.07190
  1.1190   -0.06670
  1.1210   -0.06160
  1.1230   -0.05660
  1.1250   -0.05170
  1.1270   -0.04680
  1.1290   -0.04210
  1.1310   -0.03750
  1.1330   -0.03300
  1.1350   -0.02880
  1.1370   -0.02460
  1.1390   -0.02040
  1.1410   -0.01630
  1.1430   -0.01240
  1.1450   -0.00860
  1.1470   -0.00480
  1.1490   -0.00120
  1.1510    0.00250
  1.1530    0.00620
  1.1550    0.00970
  1.1570    0.01320
  1.1590    0.01670
  1.1610    0.02010
  1.1630    0.02340
  1.1650    0.02670
  1.1670    0.02990
  1.1690    0.03310
  1.1710    0.03620
  1.1730    0.03920
  1.1750    0.04220
  1.1770    0.04510
  1.1790    0.04800
  1.1810    0.05090
  1.1830    0.05370
  1.1850    0.05640
  1.1870    0.05920
  1.1890    0.06180
  1.1910    0.06430
  1.1930    0.06680
  1.1950    0.06910
  1.1970    0.07140
  1.1990    0.07360
  1.2010    0.07550
  1.2030    0.07750
  1.2050    0.07940
  1.2070    0.08110
  1.2090    0.08270
  1.2110    0.08410
  1.2130    0.08520
  1.2150    0.08630
  1.2170    0.08730
  1.2190    0.08800
  1.2210    0.08850
  1.2230    0.08870
  1.2250    0.08870
  1.2270    0.08850
  1.2290    0.08810
  1.2310    0.08750
  1.2330    0.08660
  1.2350    0.08550
  1.2370    0.08420
  1.2390    0.08260
  1.2410    0.08090
  1.2430    0.07890
  1.2450    0.07660
  1.2470    0.07410
  1.2490    0.07140
  1.2510    0.06850
  1.2530    0.06540
  1.2550    0.06200
  1.2570    0.05850
  1.2590    0.05470
  1.2610    0.05090
  1.2630    0.04690
  1.2650    0.04280
  1.2670    0.03850
  1.2690    0.03410
  1.2710    0.02970
  1.2730    0.02510
  1.2750    0.02050
  1.2770    0.01590
  1.2790    0.01120
  1.2810    0.00650
  1.2830    0.00170
  1.2850   -0.00310
  1.2870   -0.00780
  1.2890   -0.01240
  1.2910   -0.01700
  1.2930   -0.02150
  1.2950   -0.02600
  1.2970   -0.03040
  1.2990   -0.03480
  1.3010   -0.03900
  1.3030   -0.04300
  1.3050   -0.04690
  1.3070   -0.05070
  1.3090   -0.05430
  1.3110   -0.05770
  1.3130   -0.06090
  1.3150   -0.06400
  1.3170   -0.06680
  1.3190   -0.06940
  1.3210   -0.07170
  1.3230   -0.07390
  1.3250   -0.07590
  1.3270   -0.07750
  1.3290   -0.07890
  1.3310   -0.08010
  1.3330   -0.08100
  1.3350   -0.08160
  1.3370   -0.08190
  1.3390   -0.08200
  1.3410   -0.08180
  1.3430   -0.08130
  1.3450   -0.08040
  1.3470   -0.07930
  1.3490   -0.07790
  1.3510   -0.07620
  1.3530   -0.07430
  1.3550   -0.07210
  1.3570   -0.06960
  1.3590   -0.06680
  1.3610   -0.06390
  1.3630   -0.06070
  1.3650   -0.05710
  1.3670   -0.05350
  1.3690   -0.04970
  1.3710   -0.04570
  1.3730   -0.04150
  1.3750   -0.03720
  1.3770   -0.03280
  1.3790   -0.02810
  1.3810   -0.02340
  1.3830   -0.01860
  1.3850   -0.01340
  1.3870   -0.00840
  1.3890   -0.00370
  1.3910    0.00100
  1.3930    0.00560
  1.3950    0.01010
  1.3970    0.01440
  1.3990    0.01830
