# z (nm)   (kJ/mol)
  0.371000, 17.772700
  0.375000, 16.947100
  0.377000, 16.581600
  0.379000, 16.238300
  0.381000, 15.859400
  0.383000, 15.470800
  0.385000, 15.085200
  0.387000, 14.700200
  0.389000, 14.314300
  0.391000, 13.933000
  0.393000, 13.553100
  0.395000, 13.173200
  0.397000, 12.797000
  0.399000, 12.426200
  0.401000, 12.062400
  0.403000, 11.700900
  0.405000, 11.345200
  0.407000, 10.999100
  0.409000, 10.663900
  0.411000, 10.337100
  0.413000, 10.016800
  0.415000,  9.704500
  0.417000,  9.397800
  0.419000,  9.103400
  0.421000,  8.820700
  0.423000,  8.544000
  0.425000,  8.276600
  0.427000,  8.018400
  0.429000,  7.768500
  0.431000,  7.529900
  0.433000,  7.301900
  0.435000,  7.083200
  0.437000,  6.875400
  0.439000,  6.674600
  0.441000,  6.482200
  0.443000,  6.301200
  0.445000,  6.128400
  0.447000,  5.963900
  0.449000,  5.809300
  0.451000,  5.663200
  0.453000,  5.524500
  0.455000,  5.394200
  0.457000,  5.271500
  0.459000,  5.155400
  0.461000,  5.046900
  0.463000,  4.945200
  0.465000,  4.850900
  0.467000,  4.763800
  0.469000,  4.682600
  0.471000,  4.606800
  0.473000,  4.537000
  0.475000,  4.473300
  0.477000,  4.415600
  0.479000,  4.363200
  0.481000,  4.315600
  0.483000,  4.273100
  0.485000,  4.235600
  0.487000,  4.202100
  0.489000,  4.172600
  0.491000,  4.147200
  0.493000,  4.125300
  0.495000,  4.107100
  0.497000,  4.092200
  0.499000,  4.081000
  0.501000,  4.073400
  0.503000,  4.067300
  0.505000,  4.062800
  0.507000,  4.060800
  0.509000,  4.060200
  0.511000,  4.061200
  0.513000,  4.063200
  0.515000,  4.066600
  0.517000,  4.071000
  0.519000,  4.075600
  0.521000,  4.081100
  0.523000,  4.087300
  0.525000,  4.093600
  0.527000,  4.099200
  0.529000,  4.104700
  0.531000,  4.110200
  0.533000,  4.115400
  0.535000,  4.119700
  0.537000,  4.123100
  0.539000,  4.126000
  0.541000,  4.128400
  0.543000,  4.129800
  0.545000,  4.129800
  0.547000,  4.128800
  0.549000,  4.127000
  0.551000,  4.124100
  0.553000,  4.119600
  0.555000,  4.113700
  0.557000,  4.106400
  0.559000,  4.097900
  0.561000,  4.087900
  0.563000,  4.076600
  0.565000,  4.063700
  0.567000,  4.049400
  0.569000,  4.033500
  0.571000,  4.016100
  0.573000,  3.997200
  0.575000,  3.976600
  0.577000,  3.954400
  0.579000,  3.930600
  0.581000,  3.905400
  0.583000,  3.878300
  0.585000,  3.849700
  0.587000,  3.819600
  0.589000,  3.787700
  0.591000,  3.754000
  0.593000,  3.718500
  0.595000,  3.681200
  0.597000,  3.642200
  0.599000,  3.601400
  0.601000,  3.558700
  0.603000,  3.514000
  0.605000,  3.467700
  0.607000,  3.419400
  0.609000,  3.369400
  0.611000,  3.317500
  0.613000,  3.263700
  0.615000,  3.208000
  0.617000,  3.150300
  0.619000,  3.090800
  0.621000,  3.029400
  0.623000,  2.966200
  0.625000,  2.901300
  0.627000,  2.834700
  0.629000,  2.766300
  0.631000,  2.696200
  0.633000,  2.624300
  0.635000,  2.550700
  0.637000,  2.475600
  0.639000,  2.399100
  0.641000,  2.321100
  0.643000,  2.242100
  0.645000,  2.161900
  0.647000,  2.080600
  0.649000,  1.997800
  0.651000,  1.913900
  0.653000,  1.829300
  0.655000,  1.743900
  0.657000,  1.658000
  0.659000,  1.571700
  0.661000,  1.485200
  0.663000,  1.398300
  0.665000,  1.311300
  0.667000,  1.224400
  0.669000,  1.137700
  0.671000,  1.051400
  0.673000,  0.965400
  0.675000,  0.880400
  0.677000,  0.796100
  0.679000,  0.712600
  0.681000,  0.630100
  0.683000,  0.548900
  0.685000,  0.469300
  0.687000,  0.391100
  0.689000,  0.314300
  0.691000,  0.239400
  0.693000,  0.166300
  0.695000,  0.095500
  0.697000,  0.026800
  0.699000, -0.039600
  0.701000, -0.103500
  0.703000, -0.164900
  0.705000, -0.223700
  0.707000, -0.279800
  0.709000, -0.333300
  0.711000, -0.383900
  0.713000, -0.431600
  0.715000, -0.476300
  0.717000, -0.518000
  0.719000, -0.556600
  0.721000, -0.592100
  0.723000, -0.624700
  0.725000, -0.654100
  0.727000, -0.680400
  0.729000, -0.703700
  0.731000, -0.724000
  0.733000, -0.741200
  0.735000, -0.755500
  0.737000, -0.767000
  0.739000, -0.775300
  0.741000, -0.780700
  0.743000, -0.783400
  0.745000, -0.783500
  0.747000, -0.780900
  0.749000, -0.775600
  0.751000, -0.768100
  0.753000, -0.758100
  0.755000, -0.745900
  0.757000, -0.731500
  0.759000, -0.714900
  0.761000, -0.696200
  0.763000, -0.675800
  0.765000, -0.653600
  0.767000, -0.629600
  0.769000, -0.604100
  0.771000, -0.577300
  0.773000, -0.549100
  0.775000, -0.519800
  0.777000, -0.489400
  0.779000, -0.458000
  0.781000, -0.425800
  0.783000, -0.392800
  0.785000, -0.358900
  0.787000, -0.324500
  0.789000, -0.289800
  0.791000, -0.254900
  0.793000, -0.219500
  0.795000, -0.184000
  0.797000, -0.148400
  0.799000, -0.112700
  0.801000, -0.077000
  0.803000, -0.041500
  0.805000, -0.006400
  0.807000,  0.028400
  0.809000,  0.063100
  0.811000,  0.097400
  0.813000,  0.131200
  0.815000,  0.164300
  0.817000,  0.196900
  0.819000,  0.229000
  0.821000,  0.260400
  0.823000,  0.291000
  0.825000,  0.320800
  0.827000,  0.350000
  0.829000,  0.378500
  0.831000,  0.406000
  0.833000,  0.432600
  0.835000,  0.458400
  0.837000,  0.483200
  0.839000,  0.507000
  0.841000,  0.529900
  0.843000,  0.551900
  0.845000,  0.572800
  0.847000,  0.592600
  0.849000,  0.611500
  0.851000,  0.629200
  0.853000,  0.645900
  0.855000,  0.661600
  0.857000,  0.676300
  0.859000,  0.689800
  0.861000,  0.702200
  0.863000,  0.713500
  0.865000,  0.723600
  0.867000,  0.732500
  0.869000,  0.740400
  0.871000,  0.747300
  0.873000,  0.753100
  0.875000,  0.757800
  0.877000,  0.761300
  0.879000,  0.763800
  0.881000,  0.765100
  0.883000,  0.765500
  0.885000,  0.764700
  0.887000,  0.762800
  0.889000,  0.759900
  0.891000,  0.756000
  0.893000,  0.751000
  0.895000,  0.745100
  0.897000,  0.738100
  0.899000,  0.730300
  0.901000,  0.721500
  0.903000,  0.711700
  0.905000,  0.701200
  0.907000,  0.689800
  0.909000,  0.677500
  0.911000,  0.664400
  0.913000,  0.650500
  0.915000,  0.636000
  0.917000,  0.620700
  0.919000,  0.604800
  0.921000,  0.588300
  0.923000,  0.571000
  0.925000,  0.553100
  0.927000,  0.534800
  0.929000,  0.516000
  0.931000,  0.496700
  0.933000,  0.477000
  0.935000,  0.456800
  0.937000,  0.436200
  0.939000,  0.415400
  0.941000,  0.394500
  0.943000,  0.373500
  0.945000,  0.352200
  0.947000,  0.331000
  0.949000,  0.309500
  0.951000,  0.287900
  0.953000,  0.266500
  0.955000,  0.245300
  0.957000,  0.224100
  0.959000,  0.202900
  0.961000,  0.181900
  0.963000,  0.161000
  0.965000,  0.140400
  0.967000,  0.120100
  0.969000,  0.100300
  0.971000,  0.080800
  0.973000,  0.061700
  0.975000,  0.042900
  0.977000,  0.024600
  0.979000,  0.006800
  0.981000, -0.010600
  0.983000, -0.027500
  0.985000, -0.043900
  0.987000, -0.059700
  0.989000, -0.074900
  0.991000, -0.089600
  0.993000, -0.103600
  0.995000, -0.117100
  0.997000, -0.130000
  0.999000, -0.142300
  1.001000, -0.153800
  1.003000, -0.164700
  1.005000, -0.175100
  1.007000, -0.184700
  1.009000, -0.193800
  1.011000, -0.202200
  1.013000, -0.210000
  1.015000, -0.217100
  1.017000, -0.223600
  1.019000, -0.229400
  1.021000, -0.234600
  1.023000, -0.239200
  1.025000, -0.243300
  1.027000, -0.246900
  1.029000, -0.249700
  1.031000, -0.252000
  1.033000, -0.253700
  1.035000, -0.255000
  1.037000, -0.255700
  1.039000, -0.256100
  1.041000, -0.255900
  1.043000, -0.255200
  1.045000, -0.254100
  1.047000, -0.252500
  1.049000, -0.250500
  1.051000, -0.248100
  1.053000, -0.245300
  1.055000, -0.242200
  1.057000, -0.238700
  1.059000, -0.234800
  1.061000, -0.230700
  1.063000, -0.226300
  1.065000, -0.221700
  1.067000, -0.216900
  1.069000, -0.211900
  1.071000, -0.206700
  1.073000, -0.201200
  1.075000, -0.195700
  1.077000, -0.190000
  1.079000, -0.184200
  1.081000, -0.178300
  1.083000, -0.172300
  1.085000, -0.166300
  1.087000, -0.160200
  1.089000, -0.154000
  1.091000, -0.147800
  1.093000, -0.141600
  1.095000, -0.135500
  1.097000, -0.129400
  1.099000, -0.123300
  1.101000, -0.117200
  1.103000, -0.111300
  1.105000, -0.105400
  1.107000, -0.099600
  1.109000, -0.093800
  1.111000, -0.088200
  1.113000, -0.082600
  1.115000, -0.077200
  1.117000, -0.071900
  1.119000, -0.066700
  1.121000, -0.061600
  1.123000, -0.056600
  1.125000, -0.051700
  1.127000, -0.046800
  1.129000, -0.042100
  1.131000, -0.037500
  1.133000, -0.033000
  1.135000, -0.028800
  1.137000, -0.024600
  1.139000, -0.020400
  1.141000, -0.016300
  1.143000, -0.012400
  1.145000, -0.008600
  1.147000, -0.004800
  1.149000, -0.001200
  1.151000,  0.002500
  1.153000,  0.006200
  1.155000,  0.009700
  1.157000,  0.013200
  1.159000,  0.016700
  1.161000,  0.020100
  1.163000,  0.023400
  1.165000,  0.026700
  1.167000,  0.029900
  1.169000,  0.033100
  1.171000,  0.036200
  1.173000,  0.039200
  1.175000,  0.042200
  1.177000,  0.045100
  1.179000,  0.048000
  1.181000,  0.050900
  1.183000,  0.053700
  1.185000,  0.056400
  1.187000,  0.059200
  1.189000,  0.061800
  1.191000,  0.064300
  1.193000,  0.066800
  1.195000,  0.069100
  1.197000,  0.071400
  1.199000,  0.073600
  1.201000,  0.075500
  1.203000,  0.077500
  1.205000,  0.079400
  1.207000,  0.081100
  1.209000,  0.082700
  1.211000,  0.084100
  1.213000,  0.085200
  1.215000,  0.086300
  1.217000,  0.087300
  1.219000,  0.088000
  1.221000,  0.088500
  1.223000,  0.088700
  1.225000,  0.088700
  1.227000,  0.088500
  1.229000,  0.088100
  1.231000,  0.087500
  1.233000,  0.086600
  1.235000,  0.085500
  1.237000,  0.084200
  1.239000,  0.082600
  1.241000,  0.080900
  1.243000,  0.078900
  1.245000,  0.076600
  1.247000,  0.074100
  1.249000,  0.071400
  1.251000,  0.068500
  1.253000,  0.065400
  1.255000,  0.062000
  1.257000,  0.058500
  1.259000,  0.054700
  1.261000,  0.050900
  1.263000,  0.046900
  1.265000,  0.042800
  1.267000,  0.038500
  1.269000,  0.034100
  1.271000,  0.029700
  1.273000,  0.025100
  1.275000,  0.020500
  1.277000,  0.015900
  1.279000,  0.011200
  1.281000,  0.006500
  1.283000,  0.001700
  1.285000, -0.003100
  1.287000, -0.007800
  1.289000, -0.012400
  1.291000, -0.017000
  1.293000, -0.021500
  1.295000, -0.026000
  1.297000, -0.030400
  1.299000, -0.034800
  1.301000, -0.039000
  1.303000, -0.043000
  1.305000, -0.046900
  1.307000, -0.050700
  1.309000, -0.054300
  1.311000, -0.057700
  1.313000, -0.060900
  1.315000, -0.064000
  1.317000, -0.066800
  1.319000, -0.069400
  1.321000, -0.071700
  1.323000, -0.073900
  1.325000, -0.075900
  1.327000, -0.077500
  1.329000, -0.078900
  1.331000, -0.080100
  1.333000, -0.081000
  1.335000, -0.081600
  1.337000, -0.081900
  1.339000, -0.082000
  1.341000, -0.081800
  1.343000, -0.081300
  1.345000, -0.080400
  1.347000, -0.079300
  1.349000, -0.077900
  1.351000, -0.076200
  1.353000, -0.074300
  1.355000, -0.072100
  1.357000, -0.069600
  1.359000, -0.066800
  1.361000, -0.063900
  1.363000, -0.060700
  1.365000, -0.057100
  1.367000, -0.053500
  1.369000, -0.049700
  1.371000, -0.045700
  1.373000, -0.041500
  1.375000, -0.037200
  1.377000, -0.032800
  1.379000, -0.028100
  1.381000, -0.023400
  1.383000, -0.018600
  1.385000, -0.013400
  1.387000, -0.008400
  1.389000, -0.003700
  1.391000,  0.001000
  1.393000,  0.005600
  1.395000,  0.010100
  1.397000,  0.014400
  1.399000,  0.018300
