# z (nm)   (kJ/mol)
  0.411000, 15.044200
  0.413000, 14.463500
  0.415000, 13.870200
  0.417000, 13.274900
  0.419000, 12.692600
  0.421000, 12.118200
  0.423000, 11.537000
  0.425000, 10.942600
  0.427000, 10.349700
  0.429000,  9.764400
  0.431000,  9.192200
  0.433000,  8.629600
  0.435000,  8.071100
  0.437000,  7.527600
  0.439000,  6.990900
  0.441000,  6.464800
  0.443000,  5.954100
  0.445000,  5.458600
  0.447000,  4.981600
  0.449000,  4.521700
  0.451000,  4.077300
  0.453000,  3.653900
  0.455000,  3.247600
  0.457000,  2.852500
  0.459000,  2.474400
  0.461000,  2.110900
  0.463000,  1.756600
  0.465000,  1.414500
  0.467000,  1.086100
  0.469000,  0.772100
  0.471000,  0.471800
  0.473000,  0.184400
  0.475000, -0.091200
  0.477000, -0.356400
  0.479000, -0.609900
  0.481000, -0.851700
  0.483000, -1.083600
  0.485000, -1.305400
  0.487000, -1.519000
  0.489000, -1.723000
  0.491000, -1.918500
  0.493000, -2.108800
  0.495000, -2.292200
  0.497000, -2.470000
  0.499000, -2.643400
  0.501000, -2.810000
  0.503000, -2.969100
  0.505000, -3.121200
  0.507000, -3.270100
  0.509000, -3.415500
  0.511000, -3.556300
  0.513000, -3.693300
  0.515000, -3.828900
  0.517000, -3.962800
  0.519000, -4.093400
  0.521000, -4.221800
  0.523000, -4.348500
  0.525000, -4.473700
  0.527000, -4.597300
  0.529000, -4.719400
  0.531000, -4.840000
  0.533000, -4.960700
  0.535000, -5.081200
  0.537000, -5.200300
  0.539000, -5.318200
  0.541000, -5.435000
  0.543000, -5.550600
  0.545000, -5.664100
  0.547000, -5.776000
  0.549000, -5.886800
  0.551000, -5.995600
  0.553000, -6.101600
  0.555000, -6.203700
  0.557000, -6.301200
  0.559000, -6.395800
  0.561000, -6.486000
  0.563000, -6.571600
  0.565000, -6.652500
  0.567000, -6.727300
  0.569000, -6.796700
  0.571000, -6.860400
  0.573000, -6.917800
  0.575000, -6.968600
  0.577000, -7.012200
  0.579000, -7.047400
  0.581000, -7.074100
  0.583000, -7.093000
  0.585000, -7.103600
  0.587000, -7.105400
  0.589000, -7.098000
  0.591000, -7.081300
  0.593000, -7.055400
  0.595000, -7.020700
  0.597000, -6.976700
  0.599000, -6.923600
  0.601000, -6.860900
  0.603000, -6.789400
  0.605000, -6.709700
  0.607000, -6.621800
  0.609000, -6.525500
  0.611000, -6.421200
  0.613000, -6.309200
  0.615000, -6.189800
  0.617000, -6.063200
  0.619000, -5.931000
  0.621000, -5.793400
  0.623000, -5.649900
  0.625000, -5.501100
  0.627000, -5.347900
  0.629000, -5.193200
  0.631000, -5.036900
  0.633000, -4.876900
  0.635000, -4.715200
  0.637000, -4.552000
  0.639000, -4.387600
  0.641000, -4.223800
  0.643000, -4.061000
  0.645000, -3.898800
  0.647000, -3.738000
  0.649000, -3.579800
  0.651000, -3.425500
  0.653000, -3.276000
  0.655000, -3.129800
  0.657000, -2.986800
  0.659000, -2.848300
  0.661000, -2.715800
  0.663000, -2.588700
  0.665000, -2.467100
  0.667000, -2.351800
  0.669000, -2.242100
  0.671000, -2.138600
  0.673000, -2.042300
  0.675000, -1.952200
  0.677000, -1.867900
  0.679000, -1.790500
  0.681000, -1.720300
  0.683000, -1.656500
  0.685000, -1.598700
  0.687000, -1.547000
  0.689000, -1.501700
  0.691000, -1.462500
  0.693000, -1.428900
  0.695000, -1.400600
  0.697000, -1.378100
  0.699000, -1.360700
  0.701000, -1.348000
  0.703000, -1.339800
  0.705000, -1.335900
  0.707000, -1.335600
  0.709000, -1.338100
  0.711000, -1.343500
  0.713000, -1.352100
  0.715000, -1.364200
  0.717000, -1.378600
  0.719000, -1.394700
  0.721000, -1.412700
  0.723000, -1.432300
  0.725000, -1.452700
  0.727000, -1.474200
  0.729000, -1.496900
  0.731000, -1.520500
  0.733000, -1.544700
  0.735000, -1.569000
  0.737000, -1.593100
  0.739000, -1.617100
  0.741000, -1.641300
  0.743000, -1.664900
  0.745000, -1.687300
  0.747000, -1.709000
  0.749000, -1.730000
  0.751000, -1.750400
  0.753000, -1.769700
  0.755000, -1.787500
  0.757000, -1.804100
  0.759000, -1.819700
  0.761000, -1.834400
  0.763000, -1.847500
  0.765000, -1.859400
  0.767000, -1.870200
  0.769000, -1.879600
  0.771000, -1.887800
  0.773000, -1.895000
  0.775000, -1.900800
  0.777000, -1.905600
  0.779000, -1.909300
  0.781000, -1.911800
  0.783000, -1.913600
  0.785000, -1.914200
  0.787000, -1.914200
  0.789000, -1.913400
  0.791000, -1.911700
  0.793000, -1.909300
  0.795000, -1.906300
  0.797000, -1.902500
  0.799000, -1.897900
  0.801000, -1.892700
  0.803000, -1.886700
  0.805000, -1.880700
  0.807000, -1.874400
  0.809000, -1.867400
  0.811000, -1.859800
  0.813000, -1.851700
  0.815000, -1.843600
  0.817000, -1.835200
  0.819000, -1.826000
  0.821000, -1.816800
  0.823000, -1.807400
  0.825000, -1.797700
  0.827000, -1.787400
  0.829000, -1.776700
  0.831000, -1.766100
  0.833000, -1.755400
  0.835000, -1.744200
  0.837000, -1.732500
  0.839000, -1.720700
  0.841000, -1.708500
  0.843000, -1.695900
  0.845000, -1.682900
  0.847000, -1.669600
  0.849000, -1.656100
  0.851000, -1.642400
  0.853000, -1.628400
  0.855000, -1.614100
  0.857000, -1.599600
  0.859000, -1.584800
  0.861000, -1.569400
  0.863000, -1.554100
  0.865000, -1.538300
  0.867000, -1.522000
  0.869000, -1.505400
  0.871000, -1.488800
  0.873000, -1.471900
  0.875000, -1.454600
  0.877000, -1.436900
  0.879000, -1.419100
  0.881000, -1.401100
  0.883000, -1.383000
  0.885000, -1.364500
  0.887000, -1.345700
  0.889000, -1.326700
  0.891000, -1.307800
  0.893000, -1.288600
  0.895000, -1.269300
  0.897000, -1.250200
  0.899000, -1.230900
  0.901000, -1.211500
  0.903000, -1.192500
  0.905000, -1.173600
  0.907000, -1.154600
  0.909000, -1.135700
  0.911000, -1.116900
  0.913000, -1.098300
  0.915000, -1.079900
  0.917000, -1.061800
  0.919000, -1.043800
  0.921000, -1.025900
  0.923000, -1.008400
  0.925000, -0.991100
  0.927000, -0.974000
  0.929000, -0.957100
  0.931000, -0.940500
  0.933000, -0.924300
  0.935000, -0.908400
  0.937000, -0.892900
  0.939000, -0.877700
  0.941000, -0.862800
  0.943000, -0.848400
  0.945000, -0.834100
  0.947000, -0.820200
  0.949000, -0.806600
  0.951000, -0.793300
  0.953000, -0.780500
  0.955000, -0.768100
  0.957000, -0.755900
  0.959000, -0.744200
  0.961000, -0.732800
  0.963000, -0.721500
  0.965000, -0.710600
  0.967000, -0.700200
  0.969000, -0.689900
  0.971000, -0.680200
  0.973000, -0.670700
  0.975000, -0.661500
  0.977000, -0.652500
  0.979000, -0.643700
  0.981000, -0.635200
  0.983000, -0.626800
  0.985000, -0.618700
  0.987000, -0.610800
  0.989000, -0.603100
  0.991000, -0.595800
  0.993000, -0.588800
  0.995000, -0.582000
  0.997000, -0.575200
  0.999000, -0.568600
  1.001000, -0.562400
  1.003000, -0.556300
  1.005000, -0.550500
  1.007000, -0.544900
  1.009000, -0.539100
  1.011000, -0.533900
  1.013000, -0.528900
  1.015000, -0.523800
  1.017000, -0.519000
  1.019000, -0.514100
  1.021000, -0.509300
  1.023000, -0.504800
  1.025000, -0.500600
  1.027000, -0.496500
  1.029000, -0.492500
  1.031000, -0.488700
  1.033000, -0.484800
  1.035000, -0.481300
  1.037000, -0.477800
  1.039000, -0.474000
  1.041000, -0.470200
  1.043000, -0.466500
  1.045000, -0.463100
  1.047000, -0.459900
  1.049000, -0.456800
  1.051000, -0.453700
  1.053000, -0.450600
  1.055000, -0.447600
  1.057000, -0.444400
  1.059000, -0.441000
  1.061000, -0.437800
  1.063000, -0.434700
  1.065000, -0.431700
  1.067000, -0.428300
  1.069000, -0.425000
  1.071000, -0.421500
  1.073000, -0.417600
  1.075000, -0.413800
  1.077000, -0.409900
  1.079000, -0.405900
  1.081000, -0.402000
  1.083000, -0.397700
  1.085000, -0.393300
  1.087000, -0.389000
  1.089000, -0.384600
  1.091000, -0.380100
  1.093000, -0.375500
  1.095000, -0.370500
  1.097000, -0.365400
  1.099000, -0.360300
  1.101000, -0.355000
  1.103000, -0.349800
  1.105000, -0.344700
  1.107000, -0.339400
  1.109000, -0.333900
  1.111000, -0.328200
  1.113000, -0.322600
  1.115000, -0.317200
  1.117000, -0.311700
  1.119000, -0.306300
  1.121000, -0.300800
  1.123000, -0.295100
  1.125000, -0.289300
  1.127000, -0.283800
  1.129000, -0.278200
  1.131000, -0.272500
  1.133000, -0.267000
  1.135000, -0.261600
  1.137000, -0.256100
  1.139000, -0.250900
  1.141000, -0.245600
  1.143000, -0.240400
  1.145000, -0.235400
  1.147000, -0.230400
  1.149000, -0.225400
  1.151000, -0.220700
  1.153000, -0.215800
  1.155000, -0.211000
  1.157000, -0.206500
  1.159000, -0.202200
  1.161000, -0.198000
  1.163000, -0.193800
  1.165000, -0.189600
  1.167000, -0.185600
  1.169000, -0.181600
  1.171000, -0.178000
  1.173000, -0.174600
  1.175000, -0.170800
  1.177000, -0.167100
  1.179000, -0.163600
  1.181000, -0.160300
  1.183000, -0.156900
  1.185000, -0.153800
  1.187000, -0.150800
  1.189000, -0.147600
  1.191000, -0.144600
  1.193000, -0.141600
  1.195000, -0.138500
  1.197000, -0.135600
  1.199000, -0.132500
  1.201000, -0.129300
  1.203000, -0.126300
  1.205000, -0.123400
  1.207000, -0.120600
  1.209000, -0.117800
  1.211000, -0.115100
  1.213000, -0.112300
  1.215000, -0.109400
  1.217000, -0.106400
  1.219000, -0.103600
  1.221000, -0.100800
  1.223000, -0.097800
  1.225000, -0.094900
  1.227000, -0.092100
  1.229000, -0.089200
  1.231000, -0.086400
  1.233000, -0.083700
  1.235000, -0.080900
  1.237000, -0.078300
  1.239000, -0.075700
  1.241000, -0.073000
  1.243000, -0.070400
  1.245000, -0.067700
  1.247000, -0.065100
  1.249000, -0.062500
  1.251000, -0.060000
  1.253000, -0.057600
  1.255000, -0.055100
  1.257000, -0.052600
  1.259000, -0.050200
  1.261000, -0.047900
  1.263000, -0.045800
  1.265000, -0.043600
  1.267000, -0.041300
  1.269000, -0.039100
  1.271000, -0.037100
  1.273000, -0.034900
  1.275000, -0.032800
  1.277000, -0.030800
  1.279000, -0.028900
  1.281000, -0.027000
  1.283000, -0.025000
  1.285000, -0.023100
  1.287000, -0.021300
  1.289000, -0.019700
  1.291000, -0.017900
  1.293000, -0.016200
  1.295000, -0.014600
  1.297000, -0.012900
  1.299000, -0.011300
  1.301000, -0.009800
  1.303000, -0.008100
  1.305000, -0.006400
  1.307000, -0.004800
  1.309000, -0.003000
  1.311000, -0.001200
  1.313000,  0.000400
  1.315000,  0.002100
  1.317000,  0.003900
  1.319000,  0.005700
  1.321000,  0.007700
  1.323000,  0.009800
  1.325000,  0.011900
  1.327000,  0.014100
  1.329000,  0.016600
  1.331000,  0.019300
  1.333000,  0.022100
  1.335000,  0.025000
  1.337000,  0.028200
  1.339000,  0.031300
  1.341000,  0.034700
  1.343000,  0.038300
  1.345000,  0.042000
  1.347000,  0.045800
  1.349000,  0.049900
  1.351000,  0.054200
  1.353000,  0.058600
  1.355000,  0.063200
  1.357000,  0.068000
  1.359000,  0.073000
  1.361000,  0.078200
  1.363000,  0.083600
  1.365000,  0.089100
  1.367000,  0.095000
  1.369000,  0.100900
  1.371000,  0.107200
  1.373000,  0.113400
  1.375000,  0.119500
  1.377000,  0.125800
  1.379000,  0.132000
  1.381000,  0.138300
  1.383000,  0.144800
  1.385000,  0.151100
  1.387000,  0.157100
  1.389000,  0.162900
  1.391000,  0.168900
  1.393000,  0.174700
  1.395000,  0.180300
  1.397000,  0.185500
  1.399000,  0.190100
