# z (nm)   (kJ/mol)
  0.4110   15.04420
  0.4130   14.46350
  0.4150   13.87020
  0.4170   13.27490
  0.4190   12.69260
  0.4210   12.11820
  0.4230   11.53700
  0.4250   10.94260
  0.4270   10.34970
  0.4290    9.76440
  0.4310    9.19220
  0.4330    8.62960
  0.4350    8.07110
  0.4370    7.52760
  0.4390    6.99090
  0.4410    6.46480
  0.4430    5.95410
  0.4450    5.45860
  0.4470    4.98160
  0.4490    4.52170
  0.4510    4.07730
  0.4530    3.65390
  0.4550    3.24760
  0.4570    2.85250
  0.4590    2.47440
  0.4610    2.11090
  0.4630    1.75660
  0.4650    1.41450
  0.4670    1.08610
  0.4690    0.77210
  0.4710    0.47180
  0.4730    0.18440
  0.4750   -0.09120
  0.4770   -0.35640
  0.4790   -0.60990
  0.4810   -0.85170
  0.4830   -1.08360
  0.4850   -1.30540
  0.4870   -1.51900
  0.4890   -1.72300
  0.4910   -1.91850
  0.4930   -2.10880
  0.4950   -2.29220
  0.4970   -2.47000
  0.4990   -2.64340
  0.5010   -2.81000
  0.5030   -2.96910
  0.5050   -3.12120
  0.5070   -3.27010
  0.5090   -3.41550
  0.5110   -3.55630
  0.5130   -3.69330
  0.5150   -3.82890
  0.5170   -3.96280
  0.5190   -4.09340
  0.5210   -4.22180
  0.5230   -4.34850
  0.5250   -4.47370
  0.5270   -4.59730
  0.5290   -4.71940
  0.5310   -4.84000
  0.5330   -4.96070
  0.5350   -5.08120
  0.5370   -5.20030
  0.5390   -5.31820
  0.5410   -5.43500
  0.5430   -5.55060
  0.5450   -5.66410
  0.5470   -5.77600
  0.5490   -5.88680
  0.5510   -5.99560
  0.5530   -6.10160
  0.5550   -6.20370
  0.5570   -6.30120
  0.5590   -6.39580
  0.5610   -6.48600
  0.5630   -6.57160
  0.5650   -6.65250
  0.5670   -6.72730
  0.5690   -6.79670
  0.5710   -6.86040
  0.5730   -6.91780
  0.5750   -6.96860
  0.5770   -7.01220
  0.5790   -7.04740
  0.5810   -7.07410
  0.5830   -7.09300
  0.5850   -7.10360
  0.5870   -7.10540
  0.5890   -7.09800
  0.5910   -7.08130
  0.5930   -7.05540
  0.5950   -7.02070
  0.5970   -6.97670
  0.5990   -6.92360
  0.6010   -6.86090
  0.6030   -6.78940
  0.6050   -6.70970
  0.6070   -6.62180
  0.6090   -6.52550
  0.6110   -6.42120
  0.6130   -6.30920
  0.6150   -6.18980
  0.6170   -6.06320
  0.6190   -5.93100
  0.6210   -5.79340
  0.6230   -5.64990
  0.6250   -5.50110
  0.6270   -5.34790
  0.6290   -5.19320
  0.6310   -5.03690
  0.6330   -4.87690
  0.6350   -4.71520
  0.6370   -4.55200
  0.6390   -4.38760
  0.6410   -4.22380
  0.6430   -4.06100
  0.6450   -3.89880
  0.6470   -3.73800
  0.6490   -3.57980
  0.6510   -3.42550
  0.6530   -3.27600
  0.6550   -3.12980
  0.6570   -2.98680
  0.6590   -2.84830
  0.6610   -2.71580
  0.6630   -2.58870
  0.6650   -2.46710
  0.6670   -2.35180
  0.6690   -2.24210
  0.6710   -2.13860
  0.6730   -2.04230
  0.6750   -1.95220
  0.6770   -1.86790
  0.6790   -1.79050
  0.6810   -1.72030
  0.6830   -1.65650
  0.6850   -1.59870
  0.6870   -1.54700
  0.6890   -1.50170
  0.6910   -1.46250
  0.6930   -1.42890
  0.6950   -1.40060
  0.6970   -1.37810
  0.6990   -1.36070
  0.7010   -1.34800
  0.7030   -1.33980
  0.7050   -1.33590
  0.7070   -1.33560
  0.7090   -1.33810
  0.7110   -1.34350
  0.7130   -1.35210
  0.7150   -1.36420
  0.7170   -1.37860
  0.7190   -1.39470
  0.7210   -1.41270
  0.7230   -1.43230
  0.7250   -1.45270
  0.7270   -1.47420
  0.7290   -1.49690
  0.7310   -1.52050
  0.7330   -1.54470
  0.7350   -1.56900
  0.7370   -1.59310
  0.7390   -1.61710
  0.7410   -1.64130
  0.7430   -1.66490
  0.7450   -1.68730
  0.7470   -1.70900
  0.7490   -1.73000
  0.7510   -1.75040
  0.7530   -1.76970
  0.7550   -1.78750
  0.7570   -1.80410
  0.7590   -1.81970
  0.7610   -1.83440
  0.7630   -1.84750
  0.7650   -1.85940
  0.7670   -1.87020
  0.7690   -1.87960
  0.7710   -1.88780
  0.7730   -1.89500
  0.7750   -1.90080
  0.7770   -1.90560
  0.7790   -1.90930
  0.7810   -1.91180
  0.7830   -1.91360
  0.7850   -1.91420
  0.7870   -1.91420
  0.7890   -1.91340
  0.7910   -1.91170
  0.7930   -1.90930
  0.7950   -1.90630
  0.7970   -1.90250
  0.7990   -1.89790
  0.8010   -1.89270
  0.8030   -1.88670
  0.8050   -1.88070
  0.8070   -1.87440
  0.8090   -1.86740
  0.8110   -1.85980
  0.8130   -1.85170
  0.8150   -1.84360
  0.8170   -1.83520
  0.8190   -1.82600
  0.8210   -1.81680
  0.8230   -1.80740
  0.8250   -1.79770
  0.8270   -1.78740
  0.8290   -1.77670
  0.8310   -1.76610
  0.8330   -1.75540
  0.8350   -1.74420
  0.8370   -1.73250
  0.8390   -1.72070
  0.8410   -1.70850
  0.8430   -1.69590
  0.8450   -1.68290
  0.8470   -1.66960
  0.8490   -1.65610
  0.8510   -1.64240
  0.8530   -1.62840
  0.8550   -1.61410
  0.8570   -1.59960
  0.8590   -1.58480
  0.8610   -1.56940
  0.8630   -1.55410
  0.8650   -1.53830
  0.8670   -1.52200
  0.8690   -1.50540
  0.8710   -1.48880
  0.8730   -1.47190
  0.8750   -1.45460
  0.8770   -1.43690
  0.8790   -1.41910
  0.8810   -1.40110
  0.8830   -1.38300
  0.8850   -1.36450
  0.8870   -1.34570
  0.8890   -1.32670
  0.8910   -1.30780
  0.8930   -1.28860
  0.8950   -1.26930
  0.8970   -1.25020
  0.8990   -1.23090
  0.9010   -1.21150
  0.9030   -1.19250
  0.9050   -1.17360
  0.9070   -1.15460
  0.9090   -1.13570
  0.9110   -1.11690
  0.9130   -1.09830
  0.9150   -1.07990
  0.9170   -1.06180
  0.9190   -1.04380
  0.9210   -1.02590
  0.9230   -1.00840
  0.9250   -0.99110
  0.9270   -0.97400
  0.9290   -0.95710
  0.9310   -0.94050
  0.9330   -0.92430
  0.9350   -0.90840
  0.9370   -0.89290
  0.9390   -0.87770
  0.9410   -0.86280
  0.9430   -0.84840
  0.9450   -0.83410
  0.9470   -0.82020
  0.9490   -0.80660
  0.9510   -0.79330
  0.9530   -0.78050
  0.9550   -0.76810
  0.9570   -0.75590
  0.9590   -0.74420
  0.9610   -0.73280
  0.9630   -0.72150
  0.9650   -0.71060
  0.9670   -0.70020
  0.9690   -0.68990
  0.9710   -0.68020
  0.9730   -0.67070
  0.9750   -0.66150
  0.9770   -0.65250
  0.9790   -0.64370
  0.9810   -0.63520
  0.9830   -0.62680
  0.9850   -0.61870
  0.9870   -0.61080
  0.9890   -0.60310
  0.9910   -0.59580
  0.9930   -0.58880
  0.9950   -0.58200
  0.9970   -0.57520
  0.9990   -0.56860
  1.0010   -0.56240
  1.0030   -0.55630
  1.0050   -0.55050
  1.0070   -0.54490
  1.0090   -0.53910
  1.0110   -0.53390
  1.0130   -0.52890
  1.0150   -0.52380
  1.0170   -0.51900
  1.0190   -0.51410
  1.0210   -0.50930
  1.0230   -0.50480
  1.0250   -0.50060
  1.0270   -0.49650
  1.0290   -0.49250
  1.0310   -0.48870
  1.0330   -0.48480
  1.0350   -0.48130
  1.0370   -0.47780
  1.0390   -0.47400
  1.0410   -0.47020
  1.0430   -0.46650
  1.0450   -0.46310
  1.0470   -0.45990
  1.0490   -0.45680
  1.0510   -0.45370
  1.0530   -0.45060
  1.0550   -0.44760
  1.0570   -0.44440
  1.0590   -0.44100
  1.0610   -0.43780
  1.0630   -0.43470
  1.0650   -0.43170
  1.0670   -0.42830
  1.0690   -0.42500
  1.0710   -0.42150
  1.0730   -0.41760
  1.0750   -0.41380
  1.0770   -0.40990
  1.0790   -0.40590
  1.0810   -0.40200
  1.0830   -0.39770
  1.0850   -0.39330
  1.0870   -0.38900
  1.0890   -0.38460
  1.0910   -0.38010
  1.0930   -0.37550
  1.0950   -0.37050
  1.0970   -0.36540
  1.0990   -0.36030
  1.1010   -0.35500
  1.1030   -0.34980
  1.1050   -0.34470
  1.1070   -0.33940
  1.1090   -0.33390
  1.1110   -0.32820
  1.1130   -0.32260
  1.1150   -0.31720
  1.1170   -0.31170
  1.1190   -0.30630
  1.1210   -0.30080
  1.1230   -0.29510
  1.1250   -0.28930
  1.1270   -0.28380
  1.1290   -0.27820
  1.1310   -0.27250
  1.1330   -0.26700
  1.1350   -0.26160
  1.1370   -0.25610
  1.1390   -0.25090
  1.1410   -0.24560
  1.1430   -0.24040
  1.1450   -0.23540
  1.1470   -0.23040
  1.1490   -0.22540
  1.1510   -0.22070
  1.1530   -0.21580
  1.1550   -0.21100
  1.1570   -0.20650
  1.1590   -0.20220
  1.1610   -0.19800
  1.1630   -0.19380
  1.1650   -0.18960
  1.1670   -0.18560
  1.1690   -0.18160
  1.1710   -0.17800
  1.1730   -0.17460
  1.1750   -0.17080
  1.1770   -0.16710
  1.1790   -0.16360
  1.1810   -0.16030
  1.1830   -0.15690
  1.1850   -0.15380
  1.1870   -0.15080
  1.1890   -0.14760
  1.1910   -0.14460
  1.1930   -0.14160
  1.1950   -0.13850
  1.1970   -0.13560
  1.1990   -0.13250
  1.2010   -0.12930
  1.2030   -0.12630
  1.2050   -0.12340
  1.2070   -0.12060
  1.2090   -0.11780
  1.2110   -0.11510
  1.2130   -0.11230
  1.2150   -0.10940
  1.2170   -0.10640
  1.2190   -0.10360
  1.2210   -0.10080
  1.2230   -0.09780
  1.2250   -0.09490
  1.2270   -0.09210
  1.2290   -0.08920
  1.2310   -0.08640
  1.2330   -0.08370
  1.2350   -0.08090
  1.2370   -0.07830
  1.2390   -0.07570
  1.2410   -0.07300
  1.2430   -0.07040
  1.2450   -0.06770
  1.2470   -0.06510
  1.2490   -0.06250
  1.2510   -0.06000
  1.2530   -0.05760
  1.2550   -0.05510
  1.2570   -0.05260
  1.2590   -0.05020
  1.2610   -0.04790
  1.2630   -0.04580
  1.2650   -0.04360
  1.2670   -0.04130
  1.2690   -0.03910
  1.2710   -0.03710
  1.2730   -0.03490
  1.2750   -0.03280
  1.2770   -0.03080
  1.2790   -0.02890
  1.2810   -0.02700
  1.2830   -0.02500
  1.2850   -0.02310
  1.2870   -0.02130
  1.2890   -0.01970
  1.2910   -0.01790
  1.2930   -0.01620
  1.2950   -0.01460
  1.2970   -0.01290
  1.2990   -0.01130
  1.3010   -0.00980
  1.3030   -0.00810
  1.3050   -0.00640
  1.3070   -0.00480
  1.3090   -0.00300
  1.3110   -0.00120
  1.3130    0.00040
  1.3150    0.00210
  1.3170    0.00390
  1.3190    0.00570
  1.3210    0.00770
  1.3230    0.00980
  1.3250    0.01190
  1.3270    0.01410
  1.3290    0.01660
  1.3310    0.01930
  1.3330    0.02210
  1.3350    0.02500
  1.3370    0.02820
  1.3390    0.03130
  1.3410    0.03470
  1.3430    0.03830
  1.3450    0.04200
  1.3470    0.04580
  1.3490    0.04990
  1.3510    0.05420
  1.3530    0.05860
  1.3550    0.06320
  1.3570    0.06800
  1.3590    0.07300
  1.3610    0.07820
  1.3630    0.08360
  1.3650    0.08910
  1.3670    0.09500
  1.3690    0.10090
  1.3710    0.10720
  1.3730    0.11340
  1.3750    0.11950
  1.3770    0.12580
  1.3790    0.13200
  1.3810    0.13830
  1.3830    0.14480
  1.3850    0.15110
  1.3870    0.15710
  1.3890    0.16290
  1.3910    0.16890
  1.3930    0.17470
  1.3950    0.18030
  1.3970    0.18550
  1.3990    0.19010
