# z (nm)   (kJ/mol)
  0.377000,  9.437900
  0.379000,  8.865500
  0.381000,  8.268600
  0.383000,  7.701300
  0.385000,  7.140500
  0.387000,  6.576800
  0.389000,  6.004700
  0.391000,  5.439500
  0.393000,  4.895000
  0.395000,  4.361500
  0.397000,  3.830900
  0.399000,  3.304800
  0.401000,  2.790900
  0.403000,  2.286400
  0.405000,  1.792500
  0.407000,  1.310000
  0.409000,  0.837300
  0.411000,  0.377300
  0.413000, -0.067600
  0.415000, -0.500900
  0.417000, -0.920500
  0.419000, -1.324700
  0.421000, -1.716600
  0.423000, -2.095000
  0.425000, -2.460200
  0.427000, -2.812000
  0.429000, -3.149600
  0.431000, -3.472400
  0.433000, -3.781800
  0.435000, -4.076900
  0.437000, -4.357100
  0.439000, -4.621600
  0.441000, -4.870000
  0.443000, -5.104200
  0.445000, -5.322600
  0.447000, -5.524600
  0.449000, -5.711500
  0.451000, -5.881100
  0.453000, -6.034000
  0.455000, -6.174100
  0.457000, -6.300800
  0.459000, -6.412500
  0.461000, -6.509000
  0.463000, -6.590600
  0.465000, -6.655500
  0.467000, -6.708100
  0.469000, -6.747600
  0.471000, -6.770600
  0.473000, -6.780300
  0.475000, -6.774100
  0.477000, -6.755200
  0.479000, -6.724500
  0.481000, -6.677200
  0.483000, -6.613600
  0.485000, -6.535500
  0.487000, -6.444900
  0.489000, -6.344500
  0.491000, -6.236100
  0.493000, -6.117900
  0.495000, -5.989800
  0.497000, -5.851800
  0.499000, -5.703100
  0.501000, -5.546400
  0.503000, -5.384700
  0.505000, -5.218800
  0.507000, -5.048700
  0.509000, -4.877000
  0.511000, -4.700900
  0.513000, -4.518200
  0.515000, -4.334500
  0.517000, -4.153800
  0.519000, -3.976600
  0.521000, -3.801600
  0.523000, -3.627200
  0.525000, -3.454400
  0.527000, -3.284300
  0.529000, -3.117800
  0.531000, -2.955700
  0.533000, -2.798600
  0.535000, -2.649300
  0.537000, -2.505200
  0.539000, -2.366900
  0.541000, -2.235100
  0.543000, -2.107000
  0.545000, -1.982900
  0.547000, -1.864900
  0.549000, -1.753100
  0.551000, -1.647000
  0.553000, -1.545700
  0.555000, -1.450000
  0.557000, -1.360500
  0.559000, -1.276800
  0.561000, -1.197500
  0.563000, -1.122300
  0.565000, -1.051700
  0.567000, -0.986200
  0.569000, -0.926400
  0.571000, -0.871600
  0.573000, -0.821200
  0.575000, -0.774400
  0.577000, -0.731400
  0.579000, -0.692400
  0.581000, -0.656000
  0.583000, -0.622700
  0.585000, -0.593300
  0.587000, -0.566900
  0.589000, -0.543200
  0.591000, -0.521800
  0.593000, -0.502800
  0.595000, -0.485300
  0.597000, -0.470300
  0.599000, -0.458300
  0.601000, -0.447400
  0.603000, -0.437600
  0.605000, -0.429500
  0.607000, -0.422000
  0.609000, -0.415900
  0.611000, -0.410900
  0.613000, -0.406600
  0.615000, -0.403600
  0.617000, -0.400700
  0.619000, -0.397800
  0.621000, -0.395400
  0.623000, -0.394200
  0.625000, -0.394400
  0.627000, -0.394700
  0.629000, -0.395400
  0.631000, -0.397000
  0.633000, -0.398800
  0.635000, -0.400900
  0.637000, -0.403400
  0.639000, -0.406600
  0.641000, -0.409600
  0.643000, -0.413000
  0.645000, -0.417300
  0.647000, -0.422100
  0.649000, -0.427700
  0.651000, -0.433500
  0.653000, -0.439300
  0.655000, -0.445600
  0.657000, -0.452400
  0.659000, -0.459000
  0.661000, -0.465500
  0.663000, -0.472500
  0.665000, -0.479900
  0.667000, -0.487600
  0.669000, -0.495300
  0.671000, -0.502800
  0.673000, -0.510300
  0.675000, -0.517800
  0.677000, -0.525400
  0.679000, -0.533000
  0.681000, -0.540300
  0.683000, -0.547700
  0.685000, -0.555500
  0.687000, -0.563000
  0.689000, -0.569900
  0.691000, -0.576700
  0.693000, -0.583000
  0.695000, -0.589000
  0.697000, -0.594900
  0.699000, -0.600100
  0.701000, -0.604700
  0.703000, -0.608700
  0.705000, -0.611900
  0.707000, -0.614500
  0.709000, -0.617100
  0.711000, -0.619300
  0.713000, -0.620900
  0.715000, -0.621900
  0.717000, -0.622200
  0.719000, -0.622000
  0.721000, -0.621300
  0.723000, -0.620200
  0.725000, -0.618300
  0.727000, -0.615700
  0.729000, -0.612800
  0.731000, -0.609500
  0.733000, -0.605800
  0.735000, -0.601600
  0.737000, -0.596900
  0.739000, -0.592100
  0.741000, -0.587000
  0.743000, -0.581600
  0.745000, -0.576000
  0.747000, -0.570300
  0.749000, -0.564400
  0.751000, -0.558300
  0.753000, -0.552200
  0.755000, -0.546100
  0.757000, -0.539900
  0.759000, -0.533600
  0.761000, -0.527400
  0.763000, -0.521100
  0.765000, -0.514700
  0.767000, -0.508500
  0.769000, -0.502500
  0.771000, -0.496600
  0.773000, -0.491000
  0.775000, -0.485300
  0.777000, -0.479700
  0.779000, -0.474400
  0.781000, -0.469300
  0.783000, -0.464300
  0.785000, -0.459200
  0.787000, -0.454200
  0.789000, -0.449400
  0.791000, -0.444600
  0.793000, -0.440100
  0.795000, -0.435800
  0.797000, -0.431300
  0.799000, -0.426700
  0.801000, -0.422200
  0.803000, -0.417700
  0.805000, -0.413200
  0.807000, -0.408700
  0.809000, -0.404100
  0.811000, -0.399400
  0.813000, -0.394600
  0.815000, -0.389600
  0.817000, -0.384400
  0.819000, -0.379100
  0.821000, -0.373600
  0.823000, -0.368000
  0.825000, -0.361800
  0.827000, -0.355500
  0.829000, -0.348900
  0.831000, -0.341800
  0.833000, -0.334700
  0.835000, -0.327100
  0.837000, -0.319100
  0.839000, -0.310800
  0.841000, -0.302200
  0.843000, -0.293100
  0.845000, -0.283800
  0.847000, -0.274000
  0.849000, -0.263900
  0.851000, -0.253400
  0.853000, -0.242600
  0.855000, -0.231600
  0.857000, -0.220300
  0.859000, -0.208600
  0.861000, -0.196700
  0.863000, -0.184600
  0.865000, -0.172100
  0.867000, -0.159300
  0.869000, -0.146300
  0.871000, -0.133400
  0.873000, -0.120500
  0.875000, -0.107400
  0.877000, -0.094200
  0.879000, -0.080800
  0.881000, -0.067500
  0.883000, -0.054500
  0.885000, -0.041500
  0.887000, -0.028600
  0.889000, -0.015700
  0.891000, -0.003000
  0.893000,  0.009400
  0.895000,  0.021600
  0.897000,  0.033900
  0.899000,  0.045500
  0.901000,  0.056600
  0.903000,  0.067500
  0.905000,  0.077900
  0.907000,  0.088000
  0.909000,  0.097700
  0.911000,  0.106800
  0.913000,  0.115400
  0.915000,  0.123600
  0.917000,  0.131200
  0.919000,  0.138100
  0.921000,  0.144400
  0.923000,  0.150300
  0.925000,  0.155700
  0.927000,  0.160500
  0.929000,  0.164600
  0.931000,  0.168100
  0.933000,  0.171000
  0.935000,  0.173200
  0.937000,  0.174900
  0.939000,  0.176000
  0.941000,  0.176600
  0.943000,  0.176400
  0.945000,  0.175700
  0.947000,  0.174700
  0.949000,  0.173100
  0.951000,  0.170900
  0.953000,  0.168300
  0.955000,  0.165300
  0.957000,  0.161800
  0.959000,  0.157800
  0.961000,  0.153400
  0.963000,  0.148700
  0.965000,  0.143600
  0.967000,  0.138100
  0.969000,  0.132200
  0.971000,  0.126100
  0.973000,  0.119600
  0.975000,  0.113000
  0.977000,  0.106300
  0.979000,  0.099400
  0.981000,  0.092300
  0.983000,  0.085000
  0.985000,  0.077700
  0.987000,  0.070400
  0.989000,  0.062900
  0.991000,  0.055200
  0.993000,  0.047400
  0.995000,  0.039700
  0.997000,  0.032100
  0.999000,  0.024500
  1.001000,  0.017100
  1.003000,  0.009700
  1.005000,  0.002500
  1.007000, -0.004600
  1.009000, -0.011500
  1.011000, -0.018300
  1.013000, -0.024900
  1.015000, -0.031500
  1.017000, -0.037800
  1.019000, -0.044100
  1.021000, -0.050200
  1.023000, -0.056100
  1.025000, -0.061600
  1.027000, -0.066900
  1.029000, -0.071900
  1.031000, -0.076800
  1.033000, -0.081400
  1.035000, -0.085900
  1.037000, -0.090100
  1.039000, -0.094000
  1.041000, -0.097700
  1.043000, -0.101300
  1.045000, -0.104700
  1.047000, -0.107800
  1.049000, -0.110900
  1.051000, -0.113600
  1.053000, -0.116100
  1.055000, -0.118400
  1.057000, -0.120600
  1.059000, -0.122500
  1.061000, -0.124200
  1.063000, -0.125600
  1.065000, -0.126900
  1.067000, -0.127800
  1.069000, -0.128700
  1.071000, -0.129500
  1.073000, -0.130000
  1.075000, -0.130200
  1.077000, -0.130100
  1.079000, -0.129800
  1.081000, -0.129500
  1.083000, -0.129000
  1.085000, -0.128400
  1.087000, -0.127500
  1.089000, -0.126400
  1.091000, -0.125100
  1.093000, -0.123800
  1.095000, -0.122200
  1.097000, -0.120500
  1.099000, -0.118700
  1.101000, -0.116700
  1.103000, -0.114700
  1.105000, -0.112400
  1.107000, -0.110100
  1.109000, -0.107600
  1.111000, -0.105000
  1.113000, -0.102300
  1.115000, -0.099600
  1.117000, -0.096800
  1.119000, -0.093800
  1.121000, -0.090700
  1.123000, -0.087500
  1.125000, -0.084500
  1.127000, -0.081300
  1.129000, -0.078100
  1.131000, -0.074800
  1.133000, -0.071500
  1.135000, -0.068400
  1.137000, -0.065200
  1.139000, -0.062000
  1.141000, -0.058800
  1.143000, -0.055800
  1.145000, -0.052600
  1.147000, -0.049400
  1.149000, -0.046100
  1.151000, -0.043100
  1.153000, -0.040200
  1.155000, -0.037200
  1.157000, -0.034300
  1.159000, -0.031400
  1.161000, -0.028800
  1.163000, -0.026200
  1.165000, -0.023600
  1.167000, -0.021100
  1.169000, -0.018700
  1.171000, -0.016400
  1.173000, -0.014200
  1.175000, -0.012200
  1.177000, -0.010200
  1.179000, -0.008400
  1.181000, -0.006700
  1.183000, -0.005100
  1.185000, -0.003600
  1.187000, -0.002400
  1.189000, -0.001200
  1.191000, -0.000100
  1.193000,  0.000900
  1.195000,  0.001900
  1.197000,  0.002700
  1.199000,  0.003400
  1.201000,  0.003800
  1.203000,  0.004300
  1.205000,  0.004700
  1.207000,  0.004900
  1.209000,  0.005000
  1.211000,  0.005100
  1.213000,  0.005100
  1.215000,  0.005000
  1.217000,  0.004700
  1.219000,  0.004500
  1.221000,  0.004100
  1.223000,  0.003800
  1.225000,  0.003300
  1.227000,  0.002800
  1.229000,  0.002300
  1.231000,  0.001700
  1.233000,  0.001000
  1.235000,  0.000400
  1.237000, -0.000200
  1.239000, -0.000800
  1.241000, -0.001400
  1.243000, -0.002000
  1.245000, -0.002400
  1.247000, -0.003000
  1.249000, -0.003500
  1.251000, -0.004000
  1.253000, -0.004500
  1.255000, -0.005100
  1.257000, -0.005600
  1.259000, -0.006100
  1.261000, -0.006600
  1.263000, -0.007000
  1.265000, -0.007400
  1.267000, -0.007800
  1.269000, -0.008000
  1.271000, -0.008200
  1.273000, -0.008500
  1.275000, -0.008700
  1.277000, -0.008800
  1.279000, -0.009000
  1.281000, -0.009100
  1.283000, -0.009100
  1.285000, -0.009200
  1.287000, -0.009300
  1.289000, -0.009400
  1.291000, -0.009500
  1.293000, -0.009600
  1.295000, -0.009700
  1.297000, -0.009700
  1.299000, -0.009700
  1.301000, -0.009800
  1.303000, -0.009900
  1.305000, -0.009800
  1.307000, -0.009600
  1.309000, -0.009500
  1.311000, -0.009600
  1.313000, -0.009600
  1.315000, -0.009600
  1.317000, -0.009700
  1.319000, -0.009700
  1.321000, -0.009600
  1.323000, -0.009700
  1.325000, -0.009700
  1.327000, -0.009800
  1.329000, -0.009800
  1.331000, -0.009700
  1.333000, -0.009600
  1.335000, -0.009300
  1.337000, -0.009100
  1.339000, -0.008600
  1.341000, -0.008000
  1.343000, -0.007400
  1.345000, -0.006700
  1.347000, -0.005800
  1.349000, -0.005000
  1.351000, -0.004100
  1.353000, -0.003100
  1.355000, -0.002100
  1.357000, -0.000900
  1.359000,  0.000500
  1.361000,  0.001900
  1.363000,  0.003300
  1.365000,  0.004800
  1.367000,  0.006600
  1.369000,  0.008500
  1.371000,  0.010400
  1.373000,  0.012400
  1.375000,  0.014300
  1.377000,  0.016400
  1.379000,  0.018500
  1.381000,  0.020700
  1.383000,  0.023000
  1.385000,  0.025300
  1.387000,  0.027700
  1.389000,  0.029900
  1.391000,  0.031900
  1.393000,  0.033500
  1.395000,  0.034900
  1.397000,  0.036300
  1.399000,  0.037300
