# z (nm)   (kJ/mol)
  0.4590    7.73470
  0.4630    6.49750
  0.4650    5.87730
  0.4670    5.31340
  0.4690    4.69780
  0.4710    4.05600
  0.4730    3.44100
  0.4750    2.84330
  0.4770    2.26730
  0.4790    1.70380
  0.4810    1.15120
  0.4830    0.61740
  0.4850    0.09370
  0.4870   -0.41220
  0.4890   -0.89960
  0.4910   -1.37080
  0.4930   -1.82470
  0.4950   -2.25590
  0.4970   -2.66670
  0.4990   -3.06380
  0.5010   -3.44570
  0.5030   -3.81140
  0.5050   -4.15890
  0.5070   -4.48730
  0.5090   -4.79730
  0.5110   -5.09160
  0.5130   -5.37140
  0.5150   -5.63560
  0.5170   -5.88510
  0.5190   -6.11870
  0.5210   -6.33600
  0.5230   -6.53770
  0.5250   -6.72620
  0.5270   -6.90300
  0.5290   -7.06670
  0.5310   -7.21650
  0.5330   -7.35390
  0.5350   -7.47950
  0.5370   -7.59350
  0.5390   -7.69610
  0.5410   -7.78790
  0.5430   -7.86900
  0.5450   -7.93800
  0.5470   -7.99900
  0.5490   -8.05030
  0.5510   -8.09110
  0.5530   -8.12420
  0.5550   -8.14740
  0.5570   -8.16260
  0.5590   -8.16760
  0.5610   -8.16280
  0.5630   -8.15130
  0.5650   -8.13450
  0.5670   -8.11120
  0.5690   -8.07830
  0.5710   -8.03840
  0.5730   -7.99440
  0.5750   -7.94330
  0.5770   -7.88810
  0.5790   -7.82990
  0.5810   -7.76650
  0.5830   -7.69760
  0.5850   -7.62450
  0.5870   -7.54860
  0.5890   -7.46820
  0.5910   -7.38240
  0.5930   -7.29380
  0.5950   -7.20480
  0.5970   -7.11330
  0.5990   -7.01790
  0.6010   -6.92070
  0.6030   -6.82180
  0.6050   -6.72050
  0.6070   -6.61720
  0.6090   -6.51160
  0.6110   -6.40430
  0.6130   -6.29650
  0.6150   -6.18730
  0.6170   -6.07520
  0.6190   -5.96240
  0.6210   -5.85010
  0.6230   -5.73680
  0.6250   -5.62190
  0.6270   -5.50670
  0.6290   -5.39110
  0.6310   -5.27480
  0.6330   -5.15920
  0.6350   -5.04470
  0.6370   -4.93070
  0.6390   -4.81690
  0.6410   -4.70450
  0.6430   -4.59430
  0.6450   -4.48450
  0.6470   -4.37530
  0.6490   -4.26850
  0.6510   -4.16360
  0.6530   -4.06050
  0.6550   -3.95960
  0.6570   -3.86080
  0.6590   -3.76470
  0.6610   -3.67170
  0.6630   -3.58080
  0.6650   -3.49200
  0.6670   -3.40670
  0.6690   -3.32510
  0.6710   -3.24640
  0.6730   -3.17130
  0.6750   -3.09980
  0.6770   -3.03160
  0.6790   -2.96640
  0.6810   -2.90480
  0.6830   -2.84750
  0.6850   -2.79420
  0.6870   -2.74460
  0.6890   -2.69860
  0.6910   -2.65630
  0.6930   -2.61750
  0.6950   -2.58250
  0.6970   -2.55140
  0.6990   -2.52380
  0.7010   -2.49970
  0.7030   -2.47880
  0.7050   -2.46110
  0.7070   -2.44690
  0.7090   -2.43580
  0.7110   -2.42740
  0.7130   -2.42200
  0.7150   -2.41980
  0.7170   -2.41990
  0.7190   -2.42200
  0.7210   -2.42640
  0.7230   -2.43270
  0.7250   -2.44090
  0.7270   -2.45130
  0.7290   -2.46330
  0.7310   -2.47670
  0.7330   -2.49160
  0.7350   -2.50760
  0.7370   -2.52410
  0.7390   -2.54150
  0.7410   -2.55990
  0.7430   -2.57890
  0.7450   -2.59850
  0.7470   -2.61830
  0.7490   -2.63800
  0.7510   -2.65800
  0.7530   -2.67850
  0.7550   -2.69870
  0.7570   -2.71860
  0.7590   -2.73800
  0.7610   -2.75740
  0.7630   -2.77620
  0.7650   -2.79420
  0.7670   -2.81170
  0.7690   -2.82860
  0.7710   -2.84460
  0.7730   -2.86000
  0.7750   -2.87460
  0.7770   -2.88830
  0.7790   -2.90110
  0.7810   -2.91310
  0.7830   -2.92410
  0.7850   -2.93420
  0.7870   -2.94320
  0.7890   -2.95120
  0.7910   -2.95810
  0.7930   -2.96410
  0.7950   -2.96930
  0.7970   -2.97340
  0.7990   -2.97650
  0.8010   -2.97880
  0.8030   -2.98020
  0.8050   -2.98060
  0.8070   -2.97990
  0.8090   -2.97810
  0.8110   -2.97540
  0.8130   -2.97180
  0.8150   -2.96730
  0.8170   -2.96170
  0.8190   -2.95530
  0.8210   -2.94800
  0.8230   -2.93970
  0.8250   -2.93040
  0.8270   -2.92020
  0.8290   -2.90900
  0.8310   -2.89690
  0.8330   -2.88390
  0.8350   -2.87010
  0.8370   -2.85540
  0.8390   -2.83970
  0.8410   -2.82290
  0.8430   -2.80540
  0.8450   -2.78710
  0.8470   -2.76750
  0.8490   -2.74710
  0.8510   -2.72580
  0.8530   -2.70360
  0.8550   -2.68060
  0.8570   -2.65670
  0.8590   -2.63210
  0.8610   -2.60650
  0.8630   -2.58030
  0.8650   -2.55330
  0.8670   -2.52540
  0.8690   -2.49670
  0.8710   -2.46730
  0.8730   -2.43720
  0.8750   -2.40640
  0.8770   -2.37510
  0.8790   -2.34310
  0.8810   -2.31060
  0.8830   -2.27770
  0.8850   -2.24400
  0.8870   -2.20970
  0.8890   -2.17510
  0.8910   -2.14010
  0.8930   -2.10450
  0.8950   -2.06850
  0.8970   -2.03230
  0.8990   -1.99570
  0.9010   -1.95900
  0.9030   -1.92200
  0.9050   -1.88510
  0.9070   -1.84840
  0.9090   -1.81160
  0.9110   -1.77460
  0.9130   -1.73780
  0.9150   -1.70130
  0.9170   -1.66470
  0.9190   -1.62820
  0.9210   -1.59170
  0.9230   -1.55570
  0.9250   -1.52030
  0.9270   -1.48530
  0.9290   -1.45030
  0.9310   -1.41580
  0.9330   -1.38170
  0.9350   -1.34830
  0.9370   -1.31530
  0.9390   -1.28260
  0.9410   -1.25060
  0.9430   -1.21920
  0.9450   -1.18830
  0.9470   -1.15810
  0.9490   -1.12850
  0.9510   -1.09940
  0.9530   -1.07090
  0.9550   -1.04300
  0.9570   -1.01600
  0.9590   -0.98980
  0.9610   -0.96400
  0.9630   -0.93880
  0.9650   -0.91420
  0.9670   -0.89060
  0.9690   -0.86750
  0.9710   -0.84510
  0.9730   -0.82320
  0.9750   -0.80170
  0.9770   -0.78120
  0.9790   -0.76120
  0.9810   -0.74210
  0.9830   -0.72360
  0.9850   -0.70580
  0.9870   -0.68850
  0.9890   -0.67180
  0.9910   -0.65580
  0.9930   -0.64030
  0.9950   -0.62550
  0.9970   -0.61140
  0.9990   -0.59800
  1.0010   -0.58530
  1.0030   -0.57300
  1.0050   -0.56130
  1.0070   -0.55030
  1.0090   -0.54000
  1.0110   -0.53010
  1.0130   -0.52090
  1.0150   -0.51230
  1.0170   -0.50420
  1.0190   -0.49660
  1.0210   -0.48950
  1.0230   -0.48280
  1.0250   -0.47690
  1.0270   -0.47160
  1.0290   -0.46660
  1.0310   -0.46230
  1.0330   -0.45860
  1.0350   -0.45530
  1.0370   -0.45250
  1.0390   -0.44990
  1.0410   -0.44780
  1.0430   -0.44620
  1.0450   -0.44480
  1.0470   -0.44390
  1.0490   -0.44340
  1.0510   -0.44320
  1.0530   -0.44340
  1.0550   -0.44370
  1.0570   -0.44440
  1.0590   -0.44530
  1.0610   -0.44650
  1.0630   -0.44790
  1.0650   -0.44950
  1.0670   -0.45120
  1.0690   -0.45300
  1.0710   -0.45500
  1.0730   -0.45720
  1.0750   -0.45940
  1.0770   -0.46170
  1.0790   -0.46390
  1.0810   -0.46610
  1.0830   -0.46830
  1.0850   -0.47050
  1.0870   -0.47280
  1.0890   -0.47500
  1.0910   -0.47710
  1.0930   -0.47910
  1.0950   -0.48090
  1.0970   -0.48270
  1.0990   -0.48430
  1.1010   -0.48560
  1.1030   -0.48680
  1.1050   -0.48790
  1.1070   -0.48880
  1.1090   -0.48940
  1.1110   -0.48970
  1.1130   -0.48980
  1.1150   -0.49000
  1.1170   -0.48990
  1.1190   -0.48950
  1.1210   -0.48890
  1.1230   -0.48820
  1.1250   -0.48720
  1.1270   -0.48590
  1.1290   -0.48450
  1.1310   -0.48290
  1.1330   -0.48110
  1.1350   -0.47900
  1.1370   -0.47680
  1.1390   -0.47430
  1.1410   -0.47150
  1.1430   -0.46850
  1.1450   -0.46530
  1.1470   -0.46200
  1.1490   -0.45860
  1.1510   -0.45500
  1.1530   -0.45120
  1.1550   -0.44720
  1.1570   -0.44280
  1.1590   -0.43840
  1.1610   -0.43380
  1.1630   -0.42900
  1.1650   -0.42410
  1.1670   -0.41890
  1.1690   -0.41370
  1.1710   -0.40830
  1.1730   -0.40300
  1.1750   -0.39730
  1.1770   -0.39140
  1.1790   -0.38550
  1.1810   -0.37920
  1.1830   -0.37290
  1.1850   -0.36630
  1.1870   -0.35950
  1.1890   -0.35270
  1.1910   -0.34590
  1.1930   -0.33900
  1.1950   -0.33190
  1.1970   -0.32450
  1.1990   -0.31710
  1.2010   -0.30970
  1.2030   -0.30220
  1.2050   -0.29460
  1.2070   -0.28670
  1.2090   -0.27890
  1.2110   -0.27090
  1.2130   -0.26260
  1.2150   -0.25430
  1.2170   -0.24590
  1.2190   -0.23750
  1.2210   -0.22900
  1.2230   -0.22050
  1.2250   -0.21200
  1.2270   -0.20350
  1.2290   -0.19500
  1.2310   -0.18640
  1.2330   -0.17790
  1.2350   -0.16920
  1.2370   -0.16050
  1.2390   -0.15160
  1.2410   -0.14300
  1.2430   -0.13450
  1.2450   -0.12610
  1.2470   -0.11780
  1.2490   -0.10940
  1.2510   -0.10100
  1.2530   -0.09290
  1.2550   -0.08490
  1.2570   -0.07700
  1.2590   -0.06920
  1.2610   -0.06170
  1.2630   -0.05440
  1.2650   -0.04730
  1.2670   -0.04040
  1.2690   -0.03370
  1.2710   -0.02720
  1.2730   -0.02090
  1.2750   -0.01470
  1.2770   -0.00880
  1.2790   -0.00310
  1.2810    0.00240
  1.2830    0.00800
  1.2850    0.01330
  1.2870    0.01820
  1.2890    0.02290
  1.2910    0.02730
  1.2930    0.03150
  1.2950    0.03560
  1.2970    0.03950
  1.2990    0.04330
  1.3010    0.04670
  1.3030    0.04990
  1.3050    0.05310
  1.3070    0.05600
  1.3090    0.05870
  1.3110    0.06130
  1.3130    0.06390
  1.3150    0.06640
  1.3170    0.06880
  1.3190    0.07110
  1.3210    0.07360
  1.3230    0.07600
  1.3250    0.07830
  1.3270    0.08060
  1.3290    0.08280
  1.3310    0.08510
  1.3330    0.08740
  1.3350    0.08980
  1.3370    0.09230
  1.3390    0.09490
  1.3410    0.09760
  1.3430    0.10040
  1.3450    0.10330
  1.3470    0.10630
  1.3490    0.10940
  1.3510    0.11270
  1.3530    0.11620
  1.3550    0.11960
  1.3570    0.12330
  1.3590    0.12720
  1.3610    0.13100
  1.3630    0.13510
  1.3650    0.13930
  1.3670    0.14350
  1.3690    0.14800
  1.3710    0.15260
  1.3730    0.15720
  1.3750    0.16210
  1.3770    0.16720
  1.3790    0.17210
  1.3810    0.17720
  1.3830    0.18230
  1.3850    0.18720
  1.3870    0.19180
  1.3890    0.19630
  1.3910    0.20090
  1.3930    0.20540
  1.3950    0.20940
  1.3970    0.21320
  1.3990    0.21650
