# z (nm)   (kJ/mol)
  0.459000,  7.734700
  0.463000,  6.497500
  0.465000,  5.877300
  0.467000,  5.313400
  0.469000,  4.697800
  0.471000,  4.056000
  0.473000,  3.441000
  0.475000,  2.843300
  0.477000,  2.267300
  0.479000,  1.703800
  0.481000,  1.151200
  0.483000,  0.617400
  0.485000,  0.093700
  0.487000, -0.412200
  0.489000, -0.899600
  0.491000, -1.370800
  0.493000, -1.824700
  0.495000, -2.255900
  0.497000, -2.666700
  0.499000, -3.063800
  0.501000, -3.445700
  0.503000, -3.811400
  0.505000, -4.158900
  0.507000, -4.487300
  0.509000, -4.797300
  0.511000, -5.091600
  0.513000, -5.371400
  0.515000, -5.635600
  0.517000, -5.885100
  0.519000, -6.118700
  0.521000, -6.336000
  0.523000, -6.537700
  0.525000, -6.726200
  0.527000, -6.903000
  0.529000, -7.066700
  0.531000, -7.216500
  0.533000, -7.353900
  0.535000, -7.479500
  0.537000, -7.593500
  0.539000, -7.696100
  0.541000, -7.787900
  0.543000, -7.869000
  0.545000, -7.938000
  0.547000, -7.999000
  0.549000, -8.050300
  0.551000, -8.091100
  0.553000, -8.124200
  0.555000, -8.147400
  0.557000, -8.162600
  0.559000, -8.167600
  0.561000, -8.162800
  0.563000, -8.151300
  0.565000, -8.134500
  0.567000, -8.111200
  0.569000, -8.078300
  0.571000, -8.038400
  0.573000, -7.994400
  0.575000, -7.943300
  0.577000, -7.888100
  0.579000, -7.829900
  0.581000, -7.766500
  0.583000, -7.697600
  0.585000, -7.624500
  0.587000, -7.548600
  0.589000, -7.468200
  0.591000, -7.382400
  0.593000, -7.293800
  0.595000, -7.204800
  0.597000, -7.113300
  0.599000, -7.017900
  0.601000, -6.920700
  0.603000, -6.821800
  0.605000, -6.720500
  0.607000, -6.617200
  0.609000, -6.511600
  0.611000, -6.404300
  0.613000, -6.296500
  0.615000, -6.187300
  0.617000, -6.075200
  0.619000, -5.962400
  0.621000, -5.850100
  0.623000, -5.736800
  0.625000, -5.621900
  0.627000, -5.506700
  0.629000, -5.391100
  0.631000, -5.274800
  0.633000, -5.159200
  0.635000, -5.044700
  0.637000, -4.930700
  0.639000, -4.816900
  0.641000, -4.704500
  0.643000, -4.594300
  0.645000, -4.484500
  0.647000, -4.375300
  0.649000, -4.268500
  0.651000, -4.163600
  0.653000, -4.060500
  0.655000, -3.959600
  0.657000, -3.860800
  0.659000, -3.764700
  0.661000, -3.671700
  0.663000, -3.580800
  0.665000, -3.492000
  0.667000, -3.406700
  0.669000, -3.325100
  0.671000, -3.246400
  0.673000, -3.171300
  0.675000, -3.099800
  0.677000, -3.031600
  0.679000, -2.966400
  0.681000, -2.904800
  0.683000, -2.847500
  0.685000, -2.794200
  0.687000, -2.744600
  0.689000, -2.698600
  0.691000, -2.656300
  0.693000, -2.617500
  0.695000, -2.582500
  0.697000, -2.551400
  0.699000, -2.523800
  0.701000, -2.499700
  0.703000, -2.478800
  0.705000, -2.461100
  0.707000, -2.446900
  0.709000, -2.435800
  0.711000, -2.427400
  0.713000, -2.422000
  0.715000, -2.419800
  0.717000, -2.419900
  0.719000, -2.422000
  0.721000, -2.426400
  0.723000, -2.432700
  0.725000, -2.440900
  0.727000, -2.451300
  0.729000, -2.463300
  0.731000, -2.476700
  0.733000, -2.491600
  0.735000, -2.507600
  0.737000, -2.524100
  0.739000, -2.541500
  0.741000, -2.559900
  0.743000, -2.578900
  0.745000, -2.598500
  0.747000, -2.618300
  0.749000, -2.638000
  0.751000, -2.658000
  0.753000, -2.678500
  0.755000, -2.698700
  0.757000, -2.718600
  0.759000, -2.738000
  0.761000, -2.757400
  0.763000, -2.776200
  0.765000, -2.794200
  0.767000, -2.811700
  0.769000, -2.828600
  0.771000, -2.844600
  0.773000, -2.860000
  0.775000, -2.874600
  0.777000, -2.888300
  0.779000, -2.901100
  0.781000, -2.913100
  0.783000, -2.924100
  0.785000, -2.934200
  0.787000, -2.943200
  0.789000, -2.951200
  0.791000, -2.958100
  0.793000, -2.964100
  0.795000, -2.969300
  0.797000, -2.973400
  0.799000, -2.976500
  0.801000, -2.978800
  0.803000, -2.980200
  0.805000, -2.980600
  0.807000, -2.979900
  0.809000, -2.978100
  0.811000, -2.975400
  0.813000, -2.971800
  0.815000, -2.967300
  0.817000, -2.961700
  0.819000, -2.955300
  0.821000, -2.948000
  0.823000, -2.939700
  0.825000, -2.930400
  0.827000, -2.920200
  0.829000, -2.909000
  0.831000, -2.896900
  0.833000, -2.883900
  0.835000, -2.870100
  0.837000, -2.855400
  0.839000, -2.839700
  0.841000, -2.822900
  0.843000, -2.805400
  0.845000, -2.787100
  0.847000, -2.767500
  0.849000, -2.747100
  0.851000, -2.725800
  0.853000, -2.703600
  0.855000, -2.680600
  0.857000, -2.656700
  0.859000, -2.632100
  0.861000, -2.606500
  0.863000, -2.580300
  0.865000, -2.553300
  0.867000, -2.525400
  0.869000, -2.496700
  0.871000, -2.467300
  0.873000, -2.437200
  0.875000, -2.406400
  0.877000, -2.375100
  0.879000, -2.343100
  0.881000, -2.310600
  0.883000, -2.277700
  0.885000, -2.244000
  0.887000, -2.209700
  0.889000, -2.175100
  0.891000, -2.140100
  0.893000, -2.104500
  0.895000, -2.068500
  0.897000, -2.032300
  0.899000, -1.995700
  0.901000, -1.959000
  0.903000, -1.922000
  0.905000, -1.885100
  0.907000, -1.848400
  0.909000, -1.811600
  0.911000, -1.774600
  0.913000, -1.737800
  0.915000, -1.701300
  0.917000, -1.664700
  0.919000, -1.628200
  0.921000, -1.591700
  0.923000, -1.555700
  0.925000, -1.520300
  0.927000, -1.485300
  0.929000, -1.450300
  0.931000, -1.415800
  0.933000, -1.381700
  0.935000, -1.348300
  0.937000, -1.315300
  0.939000, -1.282600
  0.941000, -1.250600
  0.943000, -1.219200
  0.945000, -1.188300
  0.947000, -1.158100
  0.949000, -1.128500
  0.951000, -1.099400
  0.953000, -1.070900
  0.955000, -1.043000
  0.957000, -1.016000
  0.959000, -0.989800
  0.961000, -0.964000
  0.963000, -0.938800
  0.965000, -0.914200
  0.967000, -0.890600
  0.969000, -0.867500
  0.971000, -0.845100
  0.973000, -0.823200
  0.975000, -0.801700
  0.977000, -0.781200
  0.979000, -0.761200
  0.981000, -0.742100
  0.983000, -0.723600
  0.985000, -0.705800
  0.987000, -0.688500
  0.989000, -0.671800
  0.991000, -0.655800
  0.993000, -0.640300
  0.995000, -0.625500
  0.997000, -0.611400
  0.999000, -0.598000
  1.001000, -0.585300
  1.003000, -0.573000
  1.005000, -0.561300
  1.007000, -0.550300
  1.009000, -0.540000
  1.011000, -0.530100
  1.013000, -0.520900
  1.015000, -0.512300
  1.017000, -0.504200
  1.019000, -0.496600
  1.021000, -0.489500
  1.023000, -0.482800
  1.025000, -0.476900
  1.027000, -0.471600
  1.029000, -0.466600
  1.031000, -0.462300
  1.033000, -0.458600
  1.035000, -0.455300
  1.037000, -0.452500
  1.039000, -0.449900
  1.041000, -0.447800
  1.043000, -0.446200
  1.045000, -0.444800
  1.047000, -0.443900
  1.049000, -0.443400
  1.051000, -0.443200
  1.053000, -0.443400
  1.055000, -0.443700
  1.057000, -0.444400
  1.059000, -0.445300
  1.061000, -0.446500
  1.063000, -0.447900
  1.065000, -0.449500
  1.067000, -0.451200
  1.069000, -0.453000
  1.071000, -0.455000
  1.073000, -0.457200
  1.075000, -0.459400
  1.077000, -0.461700
  1.079000, -0.463900
  1.081000, -0.466100
  1.083000, -0.468300
  1.085000, -0.470500
  1.087000, -0.472800
  1.089000, -0.475000
  1.091000, -0.477100
  1.093000, -0.479100
  1.095000, -0.480900
  1.097000, -0.482700
  1.099000, -0.484300
  1.101000, -0.485600
  1.103000, -0.486800
  1.105000, -0.487900
  1.107000, -0.488800
  1.109000, -0.489400
  1.111000, -0.489700
  1.113000, -0.489800
  1.115000, -0.490000
  1.117000, -0.489900
  1.119000, -0.489500
  1.121000, -0.488900
  1.123000, -0.488200
  1.125000, -0.487200
  1.127000, -0.485900
  1.129000, -0.484500
  1.131000, -0.482900
  1.133000, -0.481100
  1.135000, -0.479000
  1.137000, -0.476800
  1.139000, -0.474300
  1.141000, -0.471500
  1.143000, -0.468500
  1.145000, -0.465300
  1.147000, -0.462000
  1.149000, -0.458600
  1.151000, -0.455000
  1.153000, -0.451200
  1.155000, -0.447200
  1.157000, -0.442800
  1.159000, -0.438400
  1.161000, -0.433800
  1.163000, -0.429000
  1.165000, -0.424100
  1.167000, -0.418900
  1.169000, -0.413700
  1.171000, -0.408300
  1.173000, -0.403000
  1.175000, -0.397300
  1.177000, -0.391400
  1.179000, -0.385500
  1.181000, -0.379200
  1.183000, -0.372900
  1.185000, -0.366300
  1.187000, -0.359500
  1.189000, -0.352700
  1.191000, -0.345900
  1.193000, -0.339000
  1.195000, -0.331900
  1.197000, -0.324500
  1.199000, -0.317100
  1.201000, -0.309700
  1.203000, -0.302200
  1.205000, -0.294600
  1.207000, -0.286700
  1.209000, -0.278900
  1.211000, -0.270900
  1.213000, -0.262600
  1.215000, -0.254300
  1.217000, -0.245900
  1.219000, -0.237500
  1.221000, -0.229000
  1.223000, -0.220500
  1.225000, -0.212000
  1.227000, -0.203500
  1.229000, -0.195000
  1.231000, -0.186400
  1.233000, -0.177900
  1.235000, -0.169200
  1.237000, -0.160500
  1.239000, -0.151600
  1.241000, -0.143000
  1.243000, -0.134500
  1.245000, -0.126100
  1.247000, -0.117800
  1.249000, -0.109400
  1.251000, -0.101000
  1.253000, -0.092900
  1.255000, -0.084900
  1.257000, -0.077000
  1.259000, -0.069200
  1.261000, -0.061700
  1.263000, -0.054400
  1.265000, -0.047300
  1.267000, -0.040400
  1.269000, -0.033700
  1.271000, -0.027200
  1.273000, -0.020900
  1.275000, -0.014700
  1.277000, -0.008800
  1.279000, -0.003100
  1.281000,  0.002400
  1.283000,  0.008000
  1.285000,  0.013300
  1.287000,  0.018200
  1.289000,  0.022900
  1.291000,  0.027300
  1.293000,  0.031500
  1.295000,  0.035600
  1.297000,  0.039500
  1.299000,  0.043300
  1.301000,  0.046700
  1.303000,  0.049900
  1.305000,  0.053100
  1.307000,  0.056000
  1.309000,  0.058700
  1.311000,  0.061300
  1.313000,  0.063900
  1.315000,  0.066400
  1.317000,  0.068800
  1.319000,  0.071100
  1.321000,  0.073600
  1.323000,  0.076000
  1.325000,  0.078300
  1.327000,  0.080600
  1.329000,  0.082800
  1.331000,  0.085100
  1.333000,  0.087400
  1.335000,  0.089800
  1.337000,  0.092300
  1.339000,  0.094900
  1.341000,  0.097600
  1.343000,  0.100400
  1.345000,  0.103300
  1.347000,  0.106300
  1.349000,  0.109400
  1.351000,  0.112700
  1.353000,  0.116200
  1.355000,  0.119600
  1.357000,  0.123300
  1.359000,  0.127200
  1.361000,  0.131000
  1.363000,  0.135100
  1.365000,  0.139300
  1.367000,  0.143500
  1.369000,  0.148000
  1.371000,  0.152600
  1.373000,  0.157200
  1.375000,  0.162100
  1.377000,  0.167200
  1.379000,  0.172100
  1.381000,  0.177200
  1.383000,  0.182300
  1.385000,  0.187200
  1.387000,  0.191800
  1.389000,  0.196300
  1.391000,  0.200900
  1.393000,  0.205400
  1.395000,  0.209400
  1.397000,  0.213200
  1.399000,  0.216500
