# z (nm)   (kJ/mol)
  0.397000, 16.447000
  0.399000, 16.065900
  0.403000, 15.154500
  0.405000, 14.752800
  0.407000, 14.371700
  0.409000, 13.996900
  0.411000, 13.622500
  0.413000, 13.246700
  0.415000, 12.877100
  0.417000, 12.502700
  0.419000, 12.118200
  0.421000, 11.742900
  0.423000, 11.369900
  0.425000, 11.004700
  0.427000, 10.648900
  0.429000, 10.298500
  0.431000,  9.949800
  0.433000,  9.603900
  0.435000,  9.270100
  0.437000,  8.943800
  0.439000,  8.623000
  0.441000,  8.314000
  0.443000,  8.013800
  0.445000,  7.721200
  0.447000,  7.437800
  0.449000,  7.168100
  0.451000,  6.906800
  0.453000,  6.650200
  0.455000,  6.401300
  0.457000,  6.155300
  0.459000,  5.914200
  0.461000,  5.686500
  0.463000,  5.473300
  0.465000,  5.266700
  0.467000,  5.064700
  0.469000,  4.871500
  0.471000,  4.685100
  0.473000,  4.508000
  0.475000,  4.341600
  0.477000,  4.181700
  0.479000,  4.027600
  0.481000,  3.879400
  0.483000,  3.741600
  0.485000,  3.612500
  0.487000,  3.490800
  0.489000,  3.377000
  0.491000,  3.268200
  0.493000,  3.167100
  0.495000,  3.074200
  0.497000,  2.988100
  0.499000,  2.908600
  0.501000,  2.835100
  0.503000,  2.768200
  0.505000,  2.708300
  0.507000,  2.654500
  0.509000,  2.606100
  0.511000,  2.563500
  0.513000,  2.527100
  0.515000,  2.495800
  0.517000,  2.469800
  0.519000,  2.448700
  0.521000,  2.432400
  0.523000,  2.421400
  0.525000,  2.414900
  0.527000,  2.412200
  0.529000,  2.413800
  0.531000,  2.419900
  0.533000,  2.429800
  0.535000,  2.443100
  0.537000,  2.459000
  0.539000,  2.476900
  0.541000,  2.498200
  0.543000,  2.522700
  0.545000,  2.549000
  0.547000,  2.577100
  0.549000,  2.606700
  0.551000,  2.638000
  0.553000,  2.671600
  0.555000,  2.705800
  0.557000,  2.740100
  0.559000,  2.774400
  0.561000,  2.809200
  0.563000,  2.843900
  0.565000,  2.877900
  0.567000,  2.912000
  0.569000,  2.945000
  0.571000,  2.976800
  0.573000,  3.007200
  0.575000,  3.036100
  0.577000,  3.064100
  0.579000,  3.090800
  0.581000,  3.115600
  0.583000,  3.138300
  0.585000,  3.158900
  0.587000,  3.177600
  0.589000,  3.194000
  0.591000,  3.208100
  0.593000,  3.219500
  0.595000,  3.228500
  0.597000,  3.235200
  0.599000,  3.239100
  0.601000,  3.240400
  0.603000,  3.239100
  0.605000,  3.235400
  0.607000,  3.229000
  0.609000,  3.219900
  0.611000,  3.208400
  0.613000,  3.194400
  0.615000,  3.177300
  0.617000,  3.157600
  0.619000,  3.135200
  0.621000,  3.110300
  0.623000,  3.083200
  0.625000,  3.053600
  0.627000,  3.021700
  0.629000,  2.987100
  0.631000,  2.950500
  0.633000,  2.911900
  0.635000,  2.870800
  0.637000,  2.828100
  0.639000,  2.783400
  0.641000,  2.735900
  0.643000,  2.686600
  0.645000,  2.636100
  0.647000,  2.583800
  0.649000,  2.529100
  0.651000,  2.472700
  0.653000,  2.415200
  0.655000,  2.356300
  0.657000,  2.296200
  0.659000,  2.235000
  0.661000,  2.172400
  0.663000,  2.109100
  0.665000,  2.044600
  0.667000,  1.978600
  0.669000,  1.912300
  0.671000,  1.845600
  0.673000,  1.777800
  0.675000,  1.709400
  0.677000,  1.640400
  0.679000,  1.571000
  0.681000,  1.501400
  0.683000,  1.431700
  0.685000,  1.361600
  0.687000,  1.291400
  0.689000,  1.221600
  0.691000,  1.152200
  0.693000,  1.082800
  0.695000,  1.013400
  0.697000,  0.944600
  0.699000,  0.876400
  0.701000,  0.808700
  0.703000,  0.741900
  0.705000,  0.675900
  0.707000,  0.610700
  0.709000,  0.546400
  0.711000,  0.483100
  0.713000,  0.420900
  0.715000,  0.360100
  0.717000,  0.300800
  0.719000,  0.242700
  0.721000,  0.186000
  0.723000,  0.130700
  0.725000,  0.076700
  0.727000,  0.024300
  0.729000, -0.026500
  0.731000, -0.075700
  0.733000, -0.123000
  0.735000, -0.168600
  0.737000, -0.212500
  0.739000, -0.254700
  0.741000, -0.295000
  0.743000, -0.333700
  0.745000, -0.370500
  0.747000, -0.405400
  0.749000, -0.438400
  0.751000, -0.469700
  0.753000, -0.499200
  0.755000, -0.527000
  0.757000, -0.553100
  0.759000, -0.577500
  0.761000, -0.600100
  0.763000, -0.621200
  0.765000, -0.640800
  0.767000, -0.658800
  0.769000, -0.675200
  0.771000, -0.690100
  0.773000, -0.703500
  0.775000, -0.715700
  0.777000, -0.726600
  0.779000, -0.736100
  0.781000, -0.744200
  0.783000, -0.751500
  0.785000, -0.757700
  0.787000, -0.762900
  0.789000, -0.766900
  0.791000, -0.770000
  0.793000, -0.772300
  0.795000, -0.773900
  0.797000, -0.774600
  0.799000, -0.774600
  0.801000, -0.774000
  0.803000, -0.772800
  0.805000, -0.771200
  0.807000, -0.769000
  0.809000, -0.766300
  0.811000, -0.763200
  0.813000, -0.759700
  0.815000, -0.755800
  0.817000, -0.751300
  0.819000, -0.746600
  0.821000, -0.741600
  0.823000, -0.736300
  0.825000, -0.730900
  0.827000, -0.725200
  0.829000, -0.719300
  0.831000, -0.713300
  0.833000, -0.707100
  0.835000, -0.700500
  0.837000, -0.693700
  0.839000, -0.686500
  0.841000, -0.679100
  0.843000, -0.671500
  0.845000, -0.663600
  0.847000, -0.655500
  0.849000, -0.647200
  0.851000, -0.638600
  0.853000, -0.629600
  0.855000, -0.620500
  0.857000, -0.610900
  0.859000, -0.600900
  0.861000, -0.590500
  0.863000, -0.580000
  0.865000, -0.569000
  0.867000, -0.557900
  0.869000, -0.546500
  0.871000, -0.534700
  0.873000, -0.522400
  0.875000, -0.509600
  0.877000, -0.496200
  0.879000, -0.482600
  0.881000, -0.468600
  0.883000, -0.454200
  0.885000, -0.439500
  0.887000, -0.424400
  0.889000, -0.408900
  0.891000, -0.393000
  0.893000, -0.376700
  0.895000, -0.360000
  0.897000, -0.343200
  0.899000, -0.326000
  0.901000, -0.308600
  0.903000, -0.290800
  0.905000, -0.273000
  0.907000, -0.255100
  0.909000, -0.237100
  0.911000, -0.218800
  0.913000, -0.200400
  0.915000, -0.181900
  0.917000, -0.163600
  0.919000, -0.145200
  0.921000, -0.126900
  0.923000, -0.108600
  0.925000, -0.090600
  0.927000, -0.072700
  0.929000, -0.055000
  0.931000, -0.037600
  0.933000, -0.020500
  0.935000, -0.003800
  0.937000,  0.012500
  0.939000,  0.028300
  0.941000,  0.043700
  0.943000,  0.058700
  0.945000,  0.073100
  0.947000,  0.086900
  0.949000,  0.100100
  0.951000,  0.112800
  0.953000,  0.124700
  0.955000,  0.136000
  0.957000,  0.146600
  0.959000,  0.156300
  0.961000,  0.165300
  0.963000,  0.173700
  0.965000,  0.181300
  0.967000,  0.188100
  0.969000,  0.194100
  0.971000,  0.199500
  0.973000,  0.204000
  0.975000,  0.207800
  0.977000,  0.210900
  0.979000,  0.213200
  0.981000,  0.214700
  0.983000,  0.215400
  0.985000,  0.215400
  0.987000,  0.214700
  0.989000,  0.213300
  0.991000,  0.211300
  0.993000,  0.208700
  0.995000,  0.205400
  0.997000,  0.201600
  0.999000,  0.197100
  1.001000,  0.192100
  1.003000,  0.186700
  1.005000,  0.180700
  1.007000,  0.174400
  1.009000,  0.167500
  1.011000,  0.160300
  1.013000,  0.152800
  1.015000,  0.144900
  1.017000,  0.136700
  1.019000,  0.128200
  1.021000,  0.119600
  1.023000,  0.110700
  1.025000,  0.101700
  1.027000,  0.092800
  1.029000,  0.083800
  1.031000,  0.074600
  1.033000,  0.065400
  1.035000,  0.056400
  1.037000,  0.047300
  1.039000,  0.038200
  1.041000,  0.029100
  1.043000,  0.020100
  1.045000,  0.011400
  1.047000,  0.002800
  1.049000, -0.005800
  1.051000, -0.014300
  1.053000, -0.022500
  1.055000, -0.030400
  1.057000, -0.038100
  1.059000, -0.045800
  1.061000, -0.053300
  1.063000, -0.060500
  1.065000, -0.067300
  1.067000, -0.073900
  1.069000, -0.080200
  1.071000, -0.086300
  1.073000, -0.092100
  1.075000, -0.097800
  1.077000, -0.103300
  1.079000, -0.108400
  1.081000, -0.113200
  1.083000, -0.117800
  1.085000, -0.122200
  1.087000, -0.126200
  1.089000, -0.130000
  1.091000, -0.133800
  1.093000, -0.137200
  1.095000, -0.140500
  1.097000, -0.143500
  1.099000, -0.146200
  1.101000, -0.148900
  1.103000, -0.151400
  1.105000, -0.153700
  1.107000, -0.155900
  1.109000, -0.157700
  1.111000, -0.159400
  1.113000, -0.161000
  1.115000, -0.162600
  1.117000, -0.164000
  1.119000, -0.165200
  1.121000, -0.166300
  1.123000, -0.167300
  1.125000, -0.168200
  1.127000, -0.168900
  1.129000, -0.169700
  1.131000, -0.170200
  1.133000, -0.170500
  1.135000, -0.170600
  1.137000, -0.170500
  1.139000, -0.170300
  1.141000, -0.170100
  1.143000, -0.169800
  1.145000, -0.169400
  1.147000, -0.168800
  1.149000, -0.168100
  1.151000, -0.167100
  1.153000, -0.165900
  1.155000, -0.164700
  1.157000, -0.163400
  1.159000, -0.161700
  1.161000, -0.159700
  1.163000, -0.157800
  1.165000, -0.155600
  1.167000, -0.153300
  1.169000, -0.150800
  1.171000, -0.148100
  1.173000, -0.145300
  1.175000, -0.142400
  1.177000, -0.139200
  1.179000, -0.135900
  1.181000, -0.132400
  1.183000, -0.128800
  1.185000, -0.125000
  1.187000, -0.120900
  1.189000, -0.116700
  1.191000, -0.112300
  1.193000, -0.107800
  1.195000, -0.103300
  1.197000, -0.098700
  1.199000, -0.093900
  1.201000, -0.089100
  1.203000, -0.084300
  1.205000, -0.079300
  1.207000, -0.074300
  1.209000, -0.069400
  1.211000, -0.064300
  1.213000, -0.059200
  1.215000, -0.054100
  1.217000, -0.049100
  1.219000, -0.044200
  1.221000, -0.039300
  1.223000, -0.034300
  1.225000, -0.029500
  1.227000, -0.025000
  1.229000, -0.020400
  1.231000, -0.016000
  1.233000, -0.011700
  1.235000, -0.007500
  1.237000, -0.003500
  1.239000,  0.000300
  1.241000,  0.003900
  1.243000,  0.007300
  1.245000,  0.010500
  1.247000,  0.013500
  1.249000,  0.016400
  1.251000,  0.019100
  1.253000,  0.021400
  1.255000,  0.023500
  1.257000,  0.025600
  1.259000,  0.027400
  1.261000,  0.029000
  1.263000,  0.030200
  1.265000,  0.031200
  1.267000,  0.032000
  1.269000,  0.032500
  1.271000,  0.032800
  1.273000,  0.032700
  1.275000,  0.032500
  1.277000,  0.032100
  1.279000,  0.031600
  1.281000,  0.030900
  1.283000,  0.029800
  1.285000,  0.028600
  1.287000,  0.027200
  1.289000,  0.025800
  1.291000,  0.024200
  1.293000,  0.022300
  1.295000,  0.020300
  1.297000,  0.018100
  1.299000,  0.016000
  1.301000,  0.013800
  1.303000,  0.011500
  1.305000,  0.009100
  1.307000,  0.006600
  1.309000,  0.004100
  1.311000,  0.001700
  1.313000, -0.000800
  1.315000, -0.003200
  1.317000, -0.005600
  1.319000, -0.007800
  1.321000, -0.009800
  1.323000, -0.011800
  1.325000, -0.013800
  1.327000, -0.015500
  1.329000, -0.017100
  1.331000, -0.018500
  1.333000, -0.019600
  1.335000, -0.020500
  1.337000, -0.021300
  1.339000, -0.022000
  1.341000, -0.022200
  1.343000, -0.022000
  1.345000, -0.021700
  1.347000, -0.021200
  1.349000, -0.020400
  1.351000, -0.019300
  1.353000, -0.017900
  1.355000, -0.016200
  1.357000, -0.014200
  1.359000, -0.012000
  1.361000, -0.009600
  1.363000, -0.006900
  1.365000, -0.003900
  1.367000, -0.000600
  1.369000,  0.003000
  1.371000,  0.006900
  1.373000,  0.010900
  1.375000,  0.015000
  1.377000,  0.019300
  1.379000,  0.023800
  1.381000,  0.028200
  1.383000,  0.032600
  1.385000,  0.037000
  1.387000,  0.041500
  1.389000,  0.046000
  1.391000,  0.050300
  1.393000,  0.054300
  1.395000,  0.058300
  1.397000,  0.061800
  1.399000,  0.064800
