# z (nm)   (kJ/mol)
  0.395000, 12.726400
  0.397000, 12.110400
  0.399000, 11.519700
  0.401000, 10.919600
  0.403000, 10.301500
  0.405000,  9.673200
  0.407000,  9.042800
  0.409000,  8.408500
  0.411000,  7.776700
  0.413000,  7.150800
  0.415000,  6.522700
  0.417000,  5.892100
  0.419000,  5.273500
  0.421000,  4.669300
  0.423000,  4.069900
  0.425000,  3.484200
  0.427000,  2.916900
  0.429000,  2.360600
  0.431000,  1.820100
  0.433000,  1.292800
  0.435000,  0.781900
  0.437000,  0.286100
  0.439000, -0.200100
  0.441000, -0.669100
  0.443000, -1.120700
  0.445000, -1.558500
  0.447000, -1.983600
  0.449000, -2.394400
  0.451000, -2.789600
  0.453000, -3.169600
  0.455000, -3.534600
  0.457000, -3.887100
  0.459000, -4.225400
  0.461000, -4.547900
  0.463000, -4.855500
  0.465000, -5.148900
  0.467000, -5.427600
  0.469000, -5.691600
  0.471000, -5.939900
  0.473000, -6.172700
  0.475000, -6.390200
  0.477000, -6.591200
  0.479000, -6.776100
  0.481000, -6.944000
  0.483000, -7.095500
  0.485000, -7.229600
  0.487000, -7.345900
  0.489000, -7.447500
  0.491000, -7.532500
  0.493000, -7.599400
  0.495000, -7.650400
  0.497000, -7.684600
  0.499000, -7.699900
  0.501000, -7.701600
  0.503000, -7.689500
  0.505000, -7.659500
  0.507000, -7.613000
  0.509000, -7.551500
  0.511000, -7.476900
  0.513000, -7.386000
  0.515000, -7.281900
  0.517000, -7.168400
  0.519000, -7.044400
  0.521000, -6.908900
  0.523000, -6.761500
  0.525000, -6.605200
  0.527000, -6.440100
  0.529000, -6.266000
  0.531000, -6.081500
  0.533000, -5.888000
  0.535000, -5.690800
  0.537000, -5.490400
  0.539000, -5.283300
  0.541000, -5.071500
  0.543000, -4.858800
  0.545000, -4.642900
  0.547000, -4.425400
  0.549000, -4.207000
  0.551000, -3.988700
  0.553000, -3.772800
  0.555000, -3.557600
  0.557000, -3.344800
  0.559000, -3.136000
  0.561000, -2.930900
  0.563000, -2.730700
  0.565000, -2.536400
  0.567000, -2.347900
  0.569000, -2.165300
  0.571000, -1.989700
  0.573000, -1.821400
  0.575000, -1.660000
  0.577000, -1.505800
  0.579000, -1.357300
  0.581000, -1.215500
  0.583000, -1.081700
  0.585000, -0.956100
  0.587000, -0.837900
  0.589000, -0.727800
  0.591000, -0.626300
  0.593000, -0.531800
  0.595000, -0.444500
  0.597000, -0.364300
  0.599000, -0.290700
  0.601000, -0.224400
  0.603000, -0.163600
  0.605000, -0.108400
  0.607000, -0.059400
  0.609000, -0.015900
  0.611000,  0.022100
  0.613000,  0.055300
  0.615000,  0.084000
  0.617000,  0.107900
  0.619000,  0.126600
  0.621000,  0.140800
  0.623000,  0.152000
  0.625000,  0.160500
  0.627000,  0.165500
  0.629000,  0.166300
  0.631000,  0.164100
  0.633000,  0.160100
  0.635000,  0.153500
  0.637000,  0.145100
  0.639000,  0.134800
  0.641000,  0.121600
  0.643000,  0.106700
  0.645000,  0.091300
  0.647000,  0.074900
  0.649000,  0.057100
  0.651000,  0.037400
  0.653000,  0.015900
  0.655000, -0.006600
  0.657000, -0.027900
  0.659000, -0.049600
  0.661000, -0.072800
  0.663000, -0.096300
  0.665000, -0.118900
  0.667000, -0.140900
  0.669000, -0.163600
  0.671000, -0.185500
  0.673000, -0.205900
  0.675000, -0.225200
  0.677000, -0.245700
  0.679000, -0.266400
  0.681000, -0.285600
  0.683000, -0.304800
  0.685000, -0.323200
  0.687000, -0.340700
  0.689000, -0.358400
  0.691000, -0.375600
  0.693000, -0.392000
  0.695000, -0.407300
  0.697000, -0.422200
  0.699000, -0.436900
  0.701000, -0.450700
  0.703000, -0.464000
  0.705000, -0.477500
  0.707000, -0.490300
  0.709000, -0.502100
  0.711000, -0.514300
  0.713000, -0.526000
  0.715000, -0.536900
  0.717000, -0.547800
  0.719000, -0.557800
  0.721000, -0.567700
  0.723000, -0.577300
  0.725000, -0.586000
  0.727000, -0.594400
  0.729000, -0.602100
  0.731000, -0.609300
  0.733000, -0.616500
  0.735000, -0.623300
  0.737000, -0.629700
  0.739000, -0.635300
  0.741000, -0.640300
  0.743000, -0.644700
  0.745000, -0.648700
  0.747000, -0.652400
  0.749000, -0.655800
  0.751000, -0.658600
  0.753000, -0.660700
  0.755000, -0.662300
  0.757000, -0.663400
  0.759000, -0.664200
  0.761000, -0.664500
  0.763000, -0.664400
  0.765000, -0.663700
  0.767000, -0.662700
  0.769000, -0.661700
  0.771000, -0.660400
  0.773000, -0.658400
  0.775000, -0.656000
  0.777000, -0.653100
  0.779000, -0.649600
  0.781000, -0.645800
  0.783000, -0.641500
  0.785000, -0.637000
  0.787000, -0.632300
  0.789000, -0.627200
  0.791000, -0.621900
  0.793000, -0.616000
  0.795000, -0.609800
  0.797000, -0.603300
  0.799000, -0.596500
  0.801000, -0.589800
  0.803000, -0.583000
  0.805000, -0.576000
  0.807000, -0.568700
  0.809000, -0.560700
  0.811000, -0.552900
  0.813000, -0.545000
  0.815000, -0.536800
  0.817000, -0.528500
  0.819000, -0.520000
  0.821000, -0.511500
  0.823000, -0.502800
  0.825000, -0.493900
  0.827000, -0.484700
  0.829000, -0.475500
  0.831000, -0.466300
  0.833000, -0.456800
  0.835000, -0.447400
  0.837000, -0.438000
  0.839000, -0.428500
  0.841000, -0.418700
  0.843000, -0.408800
  0.845000, -0.399000
  0.847000, -0.389300
  0.849000, -0.379200
  0.851000, -0.369200
  0.853000, -0.359400
  0.855000, -0.349300
  0.857000, -0.339100
  0.859000, -0.329000
  0.861000, -0.318800
  0.863000, -0.308400
  0.865000, -0.298100
  0.867000, -0.287700
  0.869000, -0.277100
  0.871000, -0.266600
  0.873000, -0.256100
  0.875000, -0.245500
  0.877000, -0.234800
  0.879000, -0.223900
  0.881000, -0.213100
  0.883000, -0.202400
  0.885000, -0.191600
  0.887000, -0.180800
  0.889000, -0.170100
  0.891000, -0.159500
  0.893000, -0.148800
  0.895000, -0.138300
  0.897000, -0.127800
  0.899000, -0.117400
  0.901000, -0.107000
  0.903000, -0.096700
  0.905000, -0.086400
  0.907000, -0.076300
  0.909000, -0.066500
  0.911000, -0.056700
  0.913000, -0.047000
  0.915000, -0.037300
  0.917000, -0.028000
  0.919000, -0.019100
  0.921000, -0.010300
  0.923000, -0.001800
  0.925000,  0.006500
  0.927000,  0.014600
  0.929000,  0.022400
  0.931000,  0.030000
  0.933000,  0.037500
  0.935000,  0.044600
  0.937000,  0.051400
  0.939000,  0.057900
  0.941000,  0.063900
  0.943000,  0.069700
  0.945000,  0.075300
  0.947000,  0.080300
  0.949000,  0.085100
  0.951000,  0.089500
  0.953000,  0.093400
  0.955000,  0.096900
  0.957000,  0.099900
  0.959000,  0.102400
  0.961000,  0.104700
  0.963000,  0.106800
  0.965000,  0.108500
  0.967000,  0.109600
  0.969000,  0.110500
  0.971000,  0.111000
  0.973000,  0.111100
  0.975000,  0.110800
  0.977000,  0.110200
  0.979000,  0.109200
  0.981000,  0.107800
  0.983000,  0.106200
  0.985000,  0.104200
  0.987000,  0.101800
  0.989000,  0.099100
  0.991000,  0.096100
  0.993000,  0.092900
  0.995000,  0.089400
  0.997000,  0.085700
  0.999000,  0.081600
  1.001000,  0.077200
  1.003000,  0.072600
  1.005000,  0.067800
  1.007000,  0.062800
  1.009000,  0.057900
  1.011000,  0.052700
  1.013000,  0.047400
  1.015000,  0.041900
  1.017000,  0.036000
  1.019000,  0.030200
  1.021000,  0.024400
  1.023000,  0.018500
  1.025000,  0.012500
  1.027000,  0.006500
  1.029000,  0.000700
  1.031000, -0.005100
  1.033000, -0.011100
  1.035000, -0.016900
  1.037000, -0.022700
  1.039000, -0.028400
  1.041000, -0.033900
  1.043000, -0.039400
  1.045000, -0.045000
  1.047000, -0.050200
  1.049000, -0.055300
  1.051000, -0.060300
  1.053000, -0.065200
  1.055000, -0.070200
  1.057000, -0.074800
  1.059000, -0.079200
  1.061000, -0.083500
  1.063000, -0.087600
  1.065000, -0.091400
  1.067000, -0.095100
  1.069000, -0.098400
  1.071000, -0.101200
  1.073000, -0.103900
  1.075000, -0.106400
  1.077000, -0.108700
  1.079000, -0.110900
  1.081000, -0.112800
  1.083000, -0.114400
  1.085000, -0.115800
  1.087000, -0.117100
  1.089000, -0.118100
  1.091000, -0.118800
  1.093000, -0.119400
  1.095000, -0.120100
  1.097000, -0.120300
  1.099000, -0.120200
  1.101000, -0.120000
  1.103000, -0.119400
  1.105000, -0.118600
  1.107000, -0.117500
  1.109000, -0.116100
  1.111000, -0.114600
  1.113000, -0.113100
  1.115000, -0.111400
  1.117000, -0.109500
  1.119000, -0.107400
  1.121000, -0.105100
  1.123000, -0.102700
  1.125000, -0.100200
  1.127000, -0.097600
  1.129000, -0.095100
  1.131000, -0.092500
  1.133000, -0.089700
  1.135000, -0.086700
  1.137000, -0.083700
  1.139000, -0.080600
  1.141000, -0.077400
  1.143000, -0.074100
  1.145000, -0.070900
  1.147000, -0.067600
  1.149000, -0.064200
  1.151000, -0.060800
  1.153000, -0.057400
  1.155000, -0.054100
  1.157000, -0.050800
  1.159000, -0.047300
  1.161000, -0.043700
  1.163000, -0.040200
  1.165000, -0.036800
  1.167000, -0.033400
  1.169000, -0.030000
  1.171000, -0.026600
  1.173000, -0.023200
  1.175000, -0.020000
  1.177000, -0.016700
  1.179000, -0.013400
  1.181000, -0.010300
  1.183000, -0.007300
  1.185000, -0.004200
  1.187000, -0.001100
  1.189000,  0.001700
  1.191000,  0.004600
  1.193000,  0.007400
  1.195000,  0.010000
  1.197000,  0.012700
  1.199000,  0.015100
  1.201000,  0.017400
  1.203000,  0.019500
  1.205000,  0.021600
  1.207000,  0.023500
  1.209000,  0.025400
  1.211000,  0.027300
  1.213000,  0.029000
  1.215000,  0.030500
  1.217000,  0.031900
  1.219000,  0.033300
  1.221000,  0.034400
  1.223000,  0.035500
  1.225000,  0.036500
  1.227000,  0.037500
  1.229000,  0.038500
  1.231000,  0.039300
  1.233000,  0.039900
  1.235000,  0.040300
  1.237000,  0.040600
  1.239000,  0.040700
  1.241000,  0.040900
  1.243000,  0.041100
  1.245000,  0.041100
  1.247000,  0.041100
  1.249000,  0.040900
  1.251000,  0.040400
  1.253000,  0.039700
  1.255000,  0.039000
  1.257000,  0.038400
  1.259000,  0.037700
  1.261000,  0.036800
  1.263000,  0.035800
  1.265000,  0.034800
  1.267000,  0.033800
  1.269000,  0.032600
  1.271000,  0.031300
  1.273000,  0.029900
  1.275000,  0.028400
  1.277000,  0.026700
  1.279000,  0.024900
  1.281000,  0.023100
  1.283000,  0.021400
  1.285000,  0.019500
  1.287000,  0.017400
  1.289000,  0.015300
  1.291000,  0.013200
  1.293000,  0.011000
  1.295000,  0.008700
  1.297000,  0.006600
  1.299000,  0.004300
  1.301000,  0.001900
  1.303000, -0.000500
  1.305000, -0.002900
  1.307000, -0.005300
  1.309000, -0.007700
  1.311000, -0.010100
  1.313000, -0.012400
  1.315000, -0.014700
  1.317000, -0.017100
  1.319000, -0.019500
  1.321000, -0.021700
  1.323000, -0.024000
  1.325000, -0.026200
  1.327000, -0.028200
  1.329000, -0.030300
  1.331000, -0.032200
  1.333000, -0.033900
  1.335000, -0.035700
  1.337000, -0.037200
  1.339000, -0.038600
  1.341000, -0.039900
  1.343000, -0.041100
  1.345000, -0.042200
  1.347000, -0.043000
  1.349000, -0.043800
  1.351000, -0.044400
  1.353000, -0.044700
  1.355000, -0.045100
  1.357000, -0.045200
  1.359000, -0.045100
  1.361000, -0.044800
  1.363000, -0.044400
  1.365000, -0.043800
  1.367000, -0.043100
  1.369000, -0.042400
  1.371000, -0.041500
  1.373000, -0.040200
  1.375000, -0.038900
  1.377000, -0.037500
  1.379000, -0.036000
  1.381000, -0.034500
  1.383000, -0.032900
  1.385000, -0.031200
  1.387000, -0.029400
  1.389000, -0.027700
  1.391000, -0.026100
  1.393000, -0.024600
  1.395000, -0.023500
  1.397000, -0.022600
  1.399000, -0.021800
