# z (nm)   (kJ/mol)
  0.385000,  8.596900
  0.387000,  7.989100
  0.389000,  7.412400
  0.391000,  6.816300
  0.393000,  6.223300
  0.395000,  5.667600
  0.397000,  5.143400
  0.399000,  4.630200
  0.401000,  4.118800
  0.403000,  3.603100
  0.405000,  3.104500
  0.407000,  2.632500
  0.409000,  2.169500
  0.411000,  1.721000
  0.413000,  1.292700
  0.415000,  0.880400
  0.417000,  0.482100
  0.419000,  0.100900
  0.421000, -0.264600
  0.423000, -0.618600
  0.425000, -0.957900
  0.427000, -1.281500
  0.429000, -1.588700
  0.431000, -1.880700
  0.433000, -2.155600
  0.435000, -2.414600
  0.437000, -2.661000
  0.439000, -2.892000
  0.441000, -3.106600
  0.443000, -3.306200
  0.445000, -3.492900
  0.447000, -3.665100
  0.449000, -3.822900
  0.451000, -3.968600
  0.453000, -4.102700
  0.455000, -4.222500
  0.457000, -4.328000
  0.459000, -4.421600
  0.461000, -4.503100
  0.463000, -4.572900
  0.465000, -4.631000
  0.467000, -4.677400
  0.469000, -4.712500
  0.471000, -4.738400
  0.473000, -4.754700
  0.475000, -4.760900
  0.477000, -4.758400
  0.479000, -4.747600
  0.481000, -4.728300
  0.483000, -4.700500
  0.485000, -4.665500
  0.487000, -4.626100
  0.489000, -4.581700
  0.491000, -4.530600
  0.493000, -4.473500
  0.495000, -4.412700
  0.497000, -4.348100
  0.499000, -4.280300
  0.501000, -4.211300
  0.503000, -4.140200
  0.505000, -4.067300
  0.507000, -3.993200
  0.509000, -3.917400
  0.511000, -3.839500
  0.513000, -3.761200
  0.515000, -3.683700
  0.517000, -3.607100
  0.519000, -3.530800
  0.521000, -3.454600
  0.523000, -3.378700
  0.525000, -3.303100
  0.527000, -3.228600
  0.529000, -3.155100
  0.531000, -3.082500
  0.533000, -3.010400
  0.535000, -2.939500
  0.537000, -2.869300
  0.539000, -2.799300
  0.541000, -2.731000
  0.543000, -2.663800
  0.545000, -2.597200
  0.547000, -2.530800
  0.549000, -2.464700
  0.551000, -2.399400
  0.553000, -2.335300
  0.555000, -2.271500
  0.557000, -2.207900
  0.559000, -2.145000
  0.561000, -2.082600
  0.563000, -2.020200
  0.565000, -1.958500
  0.567000, -1.897100
  0.569000, -1.835900
  0.571000, -1.774900
  0.573000, -1.714400
  0.575000, -1.654200
  0.577000, -1.594200
  0.579000, -1.534600
  0.581000, -1.475700
  0.583000, -1.417100
  0.585000, -1.358900
  0.587000, -1.301800
  0.589000, -1.245600
  0.591000, -1.189700
  0.593000, -1.134100
  0.595000, -1.078900
  0.597000, -1.025100
  0.599000, -0.973700
  0.601000, -0.923300
  0.603000, -0.874000
  0.605000, -0.826800
  0.607000, -0.780500
  0.609000, -0.735700
  0.611000, -0.692900
  0.613000, -0.652300
  0.615000, -0.613900
  0.617000, -0.577400
  0.619000, -0.543000
  0.621000, -0.511400
  0.623000, -0.482500
  0.625000, -0.455700
  0.627000, -0.431300
  0.629000, -0.409000
  0.631000, -0.389200
  0.633000, -0.372000
  0.635000, -0.357300
  0.637000, -0.345400
  0.639000, -0.336200
  0.641000, -0.329300
  0.643000, -0.325300
  0.645000, -0.323800
  0.647000, -0.324800
  0.649000, -0.328300
  0.651000, -0.334300
  0.653000, -0.342900
  0.655000, -0.354100
  0.657000, -0.367300
  0.659000, -0.382500
  0.661000, -0.399900
  0.663000, -0.419000
  0.665000, -0.440200
  0.667000, -0.463500
  0.669000, -0.488400
  0.671000, -0.514700
  0.673000, -0.542400
  0.675000, -0.571200
  0.677000, -0.601500
  0.679000, -0.633400
  0.681000, -0.666100
  0.683000, -0.699600
  0.685000, -0.733800
  0.687000, -0.768600
  0.689000, -0.804000
  0.691000, -0.839700
  0.693000, -0.875900
  0.695000, -0.913000
  0.697000, -0.950200
  0.699000, -0.987500
  0.701000, -1.024500
  0.703000, -1.061300
  0.705000, -1.097900
  0.707000, -1.134300
  0.709000, -1.170200
  0.711000, -1.205400
  0.713000, -1.240200
  0.715000, -1.274400
  0.717000, -1.308100
  0.719000, -1.341000
  0.721000, -1.373000
  0.723000, -1.404300
  0.725000, -1.434800
  0.727000, -1.464500
  0.729000, -1.493500
  0.731000, -1.521700
  0.733000, -1.548800
  0.735000, -1.574700
  0.737000, -1.599600
  0.739000, -1.623400
  0.741000, -1.645900
  0.743000, -1.667300
  0.745000, -1.687600
  0.747000, -1.706800
  0.749000, -1.724700
  0.751000, -1.741500
  0.753000, -1.757200
  0.755000, -1.771700
  0.757000, -1.785100
  0.759000, -1.797200
  0.761000, -1.808100
  0.763000, -1.817800
  0.765000, -1.826100
  0.767000, -1.833200
  0.769000, -1.839100
  0.771000, -1.843800
  0.773000, -1.847200
  0.775000, -1.849200
  0.777000, -1.850100
  0.779000, -1.849800
  0.781000, -1.848100
  0.783000, -1.845200
  0.785000, -1.841000
  0.787000, -1.835400
  0.789000, -1.828600
  0.791000, -1.820700
  0.793000, -1.811600
  0.795000, -1.801400
  0.797000, -1.789800
  0.799000, -1.777200
  0.801000, -1.763600
  0.803000, -1.748600
  0.805000, -1.732500
  0.807000, -1.715400
  0.809000, -1.697300
  0.811000, -1.678200
  0.813000, -1.658100
  0.815000, -1.637200
  0.817000, -1.615200
  0.819000, -1.592400
  0.821000, -1.568900
  0.823000, -1.544600
  0.825000, -1.519500
  0.827000, -1.493600
  0.829000, -1.467000
  0.831000, -1.439800
  0.833000, -1.412000
  0.835000, -1.383700
  0.837000, -1.355000
  0.839000, -1.325700
  0.841000, -1.296300
  0.843000, -1.266600
  0.845000, -1.236500
  0.847000, -1.206300
  0.849000, -1.175900
  0.851000, -1.145400
  0.853000, -1.114800
  0.855000, -1.084200
  0.857000, -1.053800
  0.859000, -1.023600
  0.861000, -0.993400
  0.863000, -0.963400
  0.865000, -0.933500
  0.867000, -0.904000
  0.869000, -0.875000
  0.871000, -0.846300
  0.873000, -0.818000
  0.875000, -0.790100
  0.877000, -0.762900
  0.879000, -0.736200
  0.881000, -0.710100
  0.883000, -0.684400
  0.885000, -0.659400
  0.887000, -0.635100
  0.889000, -0.611400
  0.891000, -0.588500
  0.893000, -0.566300
  0.895000, -0.544700
  0.897000, -0.523800
  0.899000, -0.503800
  0.901000, -0.484600
  0.903000, -0.466200
  0.905000, -0.448600
  0.907000, -0.431600
  0.909000, -0.415500
  0.911000, -0.400400
  0.913000, -0.386000
  0.915000, -0.372300
  0.917000, -0.359600
  0.919000, -0.347500
  0.921000, -0.336200
  0.923000, -0.325700
  0.925000, -0.315900
  0.927000, -0.306900
  0.929000, -0.298600
  0.931000, -0.291000
  0.933000, -0.284100
  0.935000, -0.278000
  0.937000, -0.272500
  0.939000, -0.267700
  0.941000, -0.263500
  0.943000, -0.259900
  0.945000, -0.257000
  0.947000, -0.254800
  0.949000, -0.253100
  0.951000, -0.252000
  0.953000, -0.251300
  0.955000, -0.251200
  0.957000, -0.251600
  0.959000, -0.252500
  0.961000, -0.253900
  0.963000, -0.255900
  0.965000, -0.258300
  0.967000, -0.261100
  0.969000, -0.264300
  0.971000, -0.267900
  0.973000, -0.271700
  0.975000, -0.276000
  0.977000, -0.280600
  0.979000, -0.285500
  0.981000, -0.290700
  0.983000, -0.296100
  0.985000, -0.301700
  0.987000, -0.307600
  0.989000, -0.313700
  0.991000, -0.320000
  0.993000, -0.326700
  0.995000, -0.333400
  0.997000, -0.340200
  0.999000, -0.347200
  1.001000, -0.354300
  1.003000, -0.361200
  1.005000, -0.368300
  1.007000, -0.375200
  1.009000, -0.382200
  1.011000, -0.389300
  1.013000, -0.396100
  1.015000, -0.403000
  1.017000, -0.409800
  1.019000, -0.416500
  1.021000, -0.423000
  1.023000, -0.429400
  1.025000, -0.435700
  1.027000, -0.441800
  1.029000, -0.447700
  1.031000, -0.453300
  1.033000, -0.458700
  1.035000, -0.463900
  1.037000, -0.468700
  1.039000, -0.473300
  1.041000, -0.477600
  1.043000, -0.481700
  1.045000, -0.485400
  1.047000, -0.488900
  1.049000, -0.492000
  1.051000, -0.494900
  1.053000, -0.497300
  1.055000, -0.499400
  1.057000, -0.501100
  1.059000, -0.502600
  1.061000, -0.503800
  1.063000, -0.504600
  1.065000, -0.505100
  1.067000, -0.505300
  1.069000, -0.505100
  1.071000, -0.504600
  1.073000, -0.503900
  1.075000, -0.502900
  1.077000, -0.501500
  1.079000, -0.499700
  1.081000, -0.497800
  1.083000, -0.495400
  1.085000, -0.492700
  1.087000, -0.489800
  1.089000, -0.486800
  1.091000, -0.483600
  1.093000, -0.480100
  1.095000, -0.476400
  1.097000, -0.472400
  1.099000, -0.468000
  1.101000, -0.463600
  1.103000, -0.459000
  1.105000, -0.454100
  1.107000, -0.449100
  1.109000, -0.443800
  1.111000, -0.438400
  1.113000, -0.432800
  1.115000, -0.426900
  1.117000, -0.420900
  1.119000, -0.414600
  1.121000, -0.408200
  1.123000, -0.401800
  1.125000, -0.395100
  1.127000, -0.388300
  1.129000, -0.381500
  1.131000, -0.374400
  1.133000, -0.367200
  1.135000, -0.360000
  1.137000, -0.352600
  1.139000, -0.345100
  1.141000, -0.337600
  1.143000, -0.329900
  1.145000, -0.322200
  1.147000, -0.314400
  1.149000, -0.306600
  1.151000, -0.298700
  1.153000, -0.290800
  1.155000, -0.282800
  1.157000, -0.274700
  1.159000, -0.266500
  1.161000, -0.258300
  1.163000, -0.250100
  1.165000, -0.241900
  1.167000, -0.233700
  1.169000, -0.225500
  1.171000, -0.217300
  1.173000, -0.209200
  1.175000, -0.201200
  1.177000, -0.193300
  1.179000, -0.185200
  1.181000, -0.177200
  1.183000, -0.169400
  1.185000, -0.161600
  1.187000, -0.153900
  1.189000, -0.146400
  1.191000, -0.138900
  1.193000, -0.131700
  1.195000, -0.124600
  1.197000, -0.117500
  1.199000, -0.110600
  1.201000, -0.104000
  1.203000, -0.097500
  1.205000, -0.091200
  1.207000, -0.085000
  1.209000, -0.079000
  1.211000, -0.073200
  1.213000, -0.067600
  1.215000, -0.062200
  1.217000, -0.057000
  1.219000, -0.052100
  1.221000, -0.047400
  1.223000, -0.042800
  1.225000, -0.038600
  1.227000, -0.034600
  1.229000, -0.030900
  1.231000, -0.027300
  1.233000, -0.024000
  1.235000, -0.020900
  1.237000, -0.018000
  1.239000, -0.015400
  1.241000, -0.013000
  1.243000, -0.010800
  1.245000, -0.008800
  1.247000, -0.006900
  1.249000, -0.005000
  1.251000, -0.003300
  1.253000, -0.001700
  1.255000, -0.000400
  1.257000,  0.000800
  1.259000,  0.001800
  1.261000,  0.002700
  1.263000,  0.003500
  1.265000,  0.004200
  1.267000,  0.004700
  1.269000,  0.005100
  1.271000,  0.005500
  1.273000,  0.005800
  1.275000,  0.006000
  1.277000,  0.006200
  1.279000,  0.006300
  1.281000,  0.006400
  1.283000,  0.006500
  1.285000,  0.006500
  1.287000,  0.006400
  1.289000,  0.006300
  1.291000,  0.006400
  1.293000,  0.006500
  1.295000,  0.006600
  1.297000,  0.006500
  1.299000,  0.006600
  1.301000,  0.006600
  1.303000,  0.006500
  1.305000,  0.006600
  1.307000,  0.006700
  1.309000,  0.006700
  1.311000,  0.006700
  1.313000,  0.006900
  1.315000,  0.007000
  1.317000,  0.007100
  1.319000,  0.007300
  1.321000,  0.007600
  1.323000,  0.007800
  1.325000,  0.008100
  1.327000,  0.008400
  1.329000,  0.008700
  1.331000,  0.009000
  1.333000,  0.009500
  1.335000,  0.010000
  1.337000,  0.010400
  1.339000,  0.011000
  1.341000,  0.011700
  1.343000,  0.012500
  1.345000,  0.013400
  1.347000,  0.014400
  1.349000,  0.015200
  1.351000,  0.016100
  1.353000,  0.017200
  1.355000,  0.018300
  1.357000,  0.019400
  1.359000,  0.020700
  1.361000,  0.021800
  1.363000,  0.023000
  1.365000,  0.024500
  1.367000,  0.026000
  1.369000,  0.027800
  1.371000,  0.029600
  1.373000,  0.031300
  1.375000,  0.033000
  1.377000,  0.034800
  1.379000,  0.036800
  1.381000,  0.038800
  1.383000,  0.041000
  1.385000,  0.043200
  1.387000,  0.045300
  1.389000,  0.047100
  1.391000,  0.049100
  1.393000,  0.051000
  1.395000,  0.052300
  1.397000,  0.053600
  1.399000,  0.054600
