# z (nm)   (kJ/mol)
  0.4030   13.65170
  0.4070   12.63800
  0.4090   12.19160
  0.4110   11.79830
  0.4130   11.37330
  0.4150   10.92560
  0.4170   10.49080
  0.4190   10.05200
  0.4210    9.60160
  0.4230    9.15160
  0.4250    8.71100
  0.4270    8.28390
  0.4290    7.86600
  0.4310    7.45360
  0.4330    7.04980
  0.4350    6.65520
  0.4370    6.26870
  0.4390    5.89020
  0.4410    5.52190
  0.4430    5.16640
  0.4450    4.82520
  0.4470    4.49380
  0.4490    4.17020
  0.4510    3.85720
  0.4530    3.55600
  0.4550    3.26880
  0.4570    2.99450
  0.4590    2.72790
  0.4610    2.47230
  0.4630    2.22870
  0.4650    1.99110
  0.4670    1.76260
  0.4690    1.54540
  0.4710    1.33500
  0.4730    1.13420
  0.4750    0.94480
  0.4770    0.76530
  0.4790    0.59480
  0.4810    0.43310
  0.4830    0.28150
  0.4850    0.14060
  0.4870    0.00740
  0.4890   -0.11840
  0.4910   -0.23400
  0.4930   -0.34120
  0.4950   -0.44020
  0.4970   -0.52980
  0.4990   -0.61120
  0.5010   -0.68470
  0.5030   -0.75020
  0.5050   -0.80800
  0.5070   -0.85800
  0.5090   -0.90050
  0.5110   -0.93570
  0.5130   -0.96360
  0.5150   -0.98430
  0.5170   -0.99780
  0.5190   -1.00390
  0.5210   -1.00440
  0.5230   -0.99920
  0.5250   -0.98680
  0.5270   -0.96820
  0.5290   -0.94400
  0.5310   -0.91410
  0.5330   -0.87900
  0.5350   -0.83860
  0.5370   -0.79230
  0.5390   -0.74250
  0.5410   -0.68920
  0.5430   -0.63230
  0.5450   -0.57240
  0.5470   -0.50920
  0.5490   -0.44290
  0.5510   -0.37230
  0.5530   -0.29840
  0.5550   -0.22290
  0.5570   -0.14470
  0.5590   -0.06440
  0.5610    0.01640
  0.5630    0.09840
  0.5650    0.18120
  0.5670    0.26420
  0.5690    0.34810
  0.5710    0.43240
  0.5730    0.51730
  0.5750    0.60200
  0.5770    0.68580
  0.5790    0.76850
  0.5810    0.84960
  0.5830    0.92930
  0.5850    1.00790
  0.5870    1.08470
  0.5890    1.15880
  0.5910    1.23080
  0.5930    1.30010
  0.5950    1.36700
  0.5970    1.43120
  0.5990    1.49250
  0.6010    1.55140
  0.6030    1.60670
  0.6050    1.65830
  0.6070    1.70690
  0.6090    1.75220
  0.6110    1.79320
  0.6130    1.83020
  0.6150    1.86360
  0.6170    1.89310
  0.6190    1.91870
  0.6210    1.94040
  0.6230    1.95840
  0.6250    1.97210
  0.6270    1.98170
  0.6290    1.98730
  0.6310    1.98900
  0.6330    1.98720
  0.6350    1.98160
  0.6370    1.97190
  0.6390    1.95810
  0.6410    1.94090
  0.6430    1.92030
  0.6450    1.89620
  0.6470    1.86850
  0.6490    1.83760
  0.6510    1.80370
  0.6530    1.76650
  0.6550    1.72650
  0.6570    1.68390
  0.6590    1.63860
  0.6610    1.59090
  0.6630    1.54100
  0.6650    1.48930
  0.6670    1.43510
  0.6690    1.37790
  0.6710    1.31920
  0.6730    1.25940
  0.6750    1.19800
  0.6770    1.13550
  0.6790    1.07200
  0.6810    1.00750
  0.6830    0.94200
  0.6850    0.87570
  0.6870    0.80850
  0.6890    0.74070
  0.6910    0.67220
  0.6930    0.60320
  0.6950    0.53400
  0.6970    0.46500
  0.6990    0.39640
  0.7010    0.32850
  0.7030    0.26100
  0.7050    0.19380
  0.7070    0.12740
  0.7090    0.06160
  0.7110   -0.00320
  0.7130   -0.06690
  0.7150   -0.12980
  0.7170   -0.19180
  0.7190   -0.25240
  0.7210   -0.31160
  0.7230   -0.36960
  0.7250   -0.42640
  0.7270   -0.48170
  0.7290   -0.53580
  0.7310   -0.58820
  0.7330   -0.63880
  0.7350   -0.68780
  0.7370   -0.73510
  0.7390   -0.78070
  0.7410   -0.82460
  0.7430   -0.86670
  0.7450   -0.90680
  0.7470   -0.94500
  0.7490   -0.98140
  0.7510   -1.01620
  0.7530   -1.04920
  0.7550   -1.08030
  0.7570   -1.10940
  0.7590   -1.13670
  0.7610   -1.16220
  0.7630   -1.18590
  0.7650   -1.20780
  0.7670   -1.22800
  0.7690   -1.24650
  0.7710   -1.26340
  0.7730   -1.27860
  0.7750   -1.29230
  0.7770   -1.30430
  0.7790   -1.31440
  0.7810   -1.32310
  0.7830   -1.33060
  0.7850   -1.33660
  0.7870   -1.34140
  0.7890   -1.34470
  0.7910   -1.34660
  0.7930   -1.34730
  0.7950   -1.34690
  0.7970   -1.34520
  0.7990   -1.34240
  0.8010   -1.33860
  0.8030   -1.33380
  0.8050   -1.32810
  0.8070   -1.32110
  0.8090   -1.31340
  0.8110   -1.30500
  0.8130   -1.29580
  0.8150   -1.28590
  0.8170   -1.27520
  0.8190   -1.26360
  0.8210   -1.25130
  0.8230   -1.23860
  0.8250   -1.22520
  0.8270   -1.21130
  0.8290   -1.19720
  0.8310   -1.18240
  0.8330   -1.16700
  0.8350   -1.15130
  0.8370   -1.13540
  0.8390   -1.11910
  0.8410   -1.10220
  0.8430   -1.08510
  0.8450   -1.06780
  0.8470   -1.05030
  0.8490   -1.03230
  0.8510   -1.01410
  0.8530   -0.99560
  0.8550   -0.97690
  0.8570   -0.95810
  0.8590   -0.93910
  0.8610   -0.92000
  0.8630   -0.90070
  0.8650   -0.88150
  0.8670   -0.86220
  0.8690   -0.84280
  0.8710   -0.82320
  0.8730   -0.80350
  0.8750   -0.78370
  0.8770   -0.76390
  0.8790   -0.74410
  0.8810   -0.72430
  0.8830   -0.70450
  0.8850   -0.68470
  0.8870   -0.66490
  0.8890   -0.64510
  0.8910   -0.62530
  0.8930   -0.60550
  0.8950   -0.58570
  0.8970   -0.56610
  0.8990   -0.54670
  0.9010   -0.52750
  0.9030   -0.50820
  0.9050   -0.48900
  0.9070   -0.47010
  0.9090   -0.45130
  0.9110   -0.43270
  0.9130   -0.41420
  0.9150   -0.39600
  0.9170   -0.37800
  0.9190   -0.36030
  0.9210   -0.34280
  0.9230   -0.32560
  0.9250   -0.30870
  0.9270   -0.29210
  0.9290   -0.27580
  0.9310   -0.25990
  0.9330   -0.24440
  0.9350   -0.22930
  0.9370   -0.21460
  0.9390   -0.20020
  0.9410   -0.18640
  0.9430   -0.17310
  0.9450   -0.16030
  0.9470   -0.14800
  0.9490   -0.13610
  0.9510   -0.12480
  0.9530   -0.11400
  0.9550   -0.10360
  0.9570   -0.09380
  0.9590   -0.08450
  0.9610   -0.07590
  0.9630   -0.06780
  0.9650   -0.06020
  0.9670   -0.05320
  0.9690   -0.04690
  0.9710   -0.04120
  0.9730   -0.03600
  0.9750   -0.03130
  0.9770   -0.02730
  0.9790   -0.02390
  0.9810   -0.02100
  0.9830   -0.01860
  0.9850   -0.01690
  0.9870   -0.01560
  0.9890   -0.01490
  0.9910   -0.01470
  0.9930   -0.01500
  0.9950   -0.01590
  0.9970   -0.01730
  0.9990   -0.01900
  1.0010   -0.02120
  1.0030   -0.02370
  1.0050   -0.02670
  1.0070   -0.03010
  1.0090   -0.03380
  1.0110   -0.03800
  1.0130   -0.04250
  1.0150   -0.04730
  1.0170   -0.05240
  1.0190   -0.05770
  1.0210   -0.06320
  1.0230   -0.06890
  1.0250   -0.07480
  1.0270   -0.08080
  1.0290   -0.08700
  1.0310   -0.09340
  1.0330   -0.09980
  1.0350   -0.10630
  1.0370   -0.11290
  1.0390   -0.11940
  1.0410   -0.12580
  1.0430   -0.13220
  1.0450   -0.13850
  1.0470   -0.14480
  1.0490   -0.15100
  1.0510   -0.15690
  1.0530   -0.16260
  1.0550   -0.16830
  1.0570   -0.17380
  1.0590   -0.17920
  1.0610   -0.18430
  1.0630   -0.18910
  1.0650   -0.19380
  1.0670   -0.19830
  1.0690   -0.20260
  1.0710   -0.20660
  1.0730   -0.21050
  1.0750   -0.21410
  1.0770   -0.21740
  1.0790   -0.22050
  1.0810   -0.22330
  1.0830   -0.22580
  1.0850   -0.22800
  1.0870   -0.23000
  1.0890   -0.23170
  1.0910   -0.23330
  1.0930   -0.23450
  1.0950   -0.23550
  1.0970   -0.23620
  1.0990   -0.23670
  1.1010   -0.23700
  1.1030   -0.23710
  1.1050   -0.23710
  1.1070   -0.23680
  1.1090   -0.23650
  1.1110   -0.23600
  1.1130   -0.23530
  1.1150   -0.23430
  1.1170   -0.23330
  1.1190   -0.23200
  1.1210   -0.23050
  1.1230   -0.22890
  1.1250   -0.22710
  1.1270   -0.22540
  1.1290   -0.22350
  1.1310   -0.22130
  1.1330   -0.21910
  1.1350   -0.21670
  1.1370   -0.21420
  1.1390   -0.21170
  1.1410   -0.20920
  1.1430   -0.20650
  1.1450   -0.20370
  1.1470   -0.20080
  1.1490   -0.19790
  1.1510   -0.19500
  1.1530   -0.19200
  1.1550   -0.18890
  1.1570   -0.18590
  1.1590   -0.18280
  1.1610   -0.17970
  1.1630   -0.17650
  1.1650   -0.17330
  1.1670   -0.17000
  1.1690   -0.16660
  1.1710   -0.16320
  1.1730   -0.15990
  1.1750   -0.15660
  1.1770   -0.15320
  1.1790   -0.14980
  1.1810   -0.14650
  1.1830   -0.14320
  1.1850   -0.13980
  1.1870   -0.13640
  1.1890   -0.13310
  1.1910   -0.12970
  1.1930   -0.12630
  1.1950   -0.12290
  1.1970   -0.11950
  1.1990   -0.11600
  1.2010   -0.11250
  1.2030   -0.10910
  1.2050   -0.10590
  1.2070   -0.10260
  1.2090   -0.09930
  1.2110   -0.09600
  1.2130   -0.09270
  1.2150   -0.08930
  1.2170   -0.08580
  1.2190   -0.08220
  1.2210   -0.07860
  1.2230   -0.07510
  1.2250   -0.07160
  1.2270   -0.06810
  1.2290   -0.06470
  1.2310   -0.06120
  1.2330   -0.05780
  1.2350   -0.05450
  1.2370   -0.05100
  1.2390   -0.04740
  1.2410   -0.04390
  1.2430   -0.04050
  1.2450   -0.03700
  1.2470   -0.03350
  1.2490   -0.03000
  1.2510   -0.02670
  1.2530   -0.02350
  1.2550   -0.02030
  1.2570   -0.01710
  1.2590   -0.01400
  1.2610   -0.01090
  1.2630   -0.00780
  1.2650   -0.00490
  1.2670   -0.00220
  1.2690    0.00060
  1.2710    0.00310
  1.2730    0.00560
  1.2750    0.00800
  1.2770    0.01030
  1.2790    0.01230
  1.2810    0.01420
  1.2830    0.01590
  1.2850    0.01750
  1.2870    0.01900
  1.2890    0.02030
  1.2910    0.02150
  1.2930    0.02270
  1.2950    0.02360
  1.2970    0.02440
  1.2990    0.02500
  1.3010    0.02550
  1.3030    0.02580
  1.3050    0.02580
  1.3070    0.02580
  1.3090    0.02570
  1.3110    0.02550
  1.3130    0.02510
  1.3150    0.02470
  1.3170    0.02430
  1.3190    0.02370
  1.3210    0.02310
  1.3230    0.02240
  1.3250    0.02170
  1.3270    0.02100
  1.3290    0.02020
  1.3310    0.01960
  1.3330    0.01900
  1.3350    0.01850
  1.3370    0.01810
  1.3390    0.01790
  1.3410    0.01780
  1.3430    0.01790
  1.3450    0.01800
  1.3470    0.01830
  1.3490    0.01880
  1.3510    0.01950
  1.3530    0.02050
  1.3550    0.02150
  1.3570    0.02270
  1.3590    0.02420
  1.3610    0.02590
  1.3630    0.02790
  1.3650    0.03010
  1.3670    0.03250
  1.3690    0.03520
  1.3710    0.03810
  1.3730    0.04120
  1.3750    0.04460
  1.3770    0.04820
  1.3790    0.05210
  1.3810    0.05620
  1.3830    0.06030
  1.3850    0.06430
  1.3870    0.06840
  1.3890    0.07280
  1.3910    0.07730
  1.3930    0.08160
  1.3950    0.08590
  1.3970    0.09000
  1.3990    0.09400
