# z (nm)   (kJ/mol)
  0.4310   19.56300
  0.4330   19.20820
  0.4350   18.82810
  0.4370   18.47040
  0.4390   18.11610
  0.4410   17.71970
  0.4430   17.32330
  0.4450   16.92380
  0.4470   16.52890
  0.4490   16.14510
  0.4510   15.76520
  0.4530   15.37390
  0.4550   14.98520
  0.4570   14.59560
  0.4590   14.20910
  0.4610   13.83220
  0.4630   13.45960
  0.4650   13.09210
  0.4670   12.72250
  0.4690   12.35800
  0.4710   12.00620
  0.4730   11.66250
  0.4750   11.32470
  0.4770   10.99840
  0.4790   10.68660
  0.4810   10.38340
  0.4830   10.08740
  0.4850    9.79910
  0.4870    9.52060
  0.4890    9.25430
  0.4910    8.99510
  0.4930    8.74410
  0.4950    8.50510
  0.4970    8.27550
  0.4990    8.05210
  0.5010    7.83590
  0.5030    7.63270
  0.5050    7.44340
  0.5070    7.26120
  0.5090    7.08620
  0.5110    6.92070
  0.5130    6.76410
  0.5150    6.61450
  0.5170    6.47110
  0.5190    6.33620
  0.5210    6.21000
  0.5230    6.09120
  0.5250    5.98210
  0.5270    5.87980
  0.5290    5.78240
  0.5310    5.69350
  0.5330    5.61170
  0.5350    5.53540
  0.5370    5.46510
  0.5390    5.40080
  0.5410    5.34190
  0.5430    5.28790
  0.5450    5.23850
  0.5470    5.19370
  0.5490    5.15360
  0.5510    5.11850
  0.5530    5.08810
  0.5550    5.06140
  0.5570    5.03760
  0.5590    5.01740
  0.5610    5.00110
  0.5630    4.98810
  0.5650    4.97800
  0.5670    4.97000
  0.5690    4.96350
  0.5710    4.95850
  0.5730    4.95440
  0.5750    4.95130
  0.5770    4.94960
  0.5790    4.94940
  0.5810    4.94920
  0.5830    4.94960
  0.5850    4.95050
  0.5870    4.95220
  0.5890    4.95360
  0.5910    4.95440
  0.5930    4.95510
  0.5950    4.95380
  0.5970    4.95170
  0.5990    4.94800
  0.6010    4.94270
  0.6030    4.93720
  0.6050    4.93030
  0.6070    4.92150
  0.6090    4.91150
  0.6110    4.90020
  0.6130    4.88680
  0.6150    4.87190
  0.6170    4.85520
  0.6190    4.83610
  0.6210    4.81510
  0.6230    4.79210
  0.6250    4.76710
  0.6270    4.74000
  0.6290    4.71040
  0.6310    4.67850
  0.6330    4.64450
  0.6350    4.60850
  0.6370    4.57030
  0.6390    4.52990
  0.6410    4.48730
  0.6430    4.44260
  0.6450    4.39560
  0.6470    4.34650
  0.6490    4.29480
  0.6510    4.24030
  0.6530    4.18380
  0.6550    4.12550
  0.6570    4.06460
  0.6590    4.00200
  0.6610    3.93740
  0.6630    3.87030
  0.6650    3.80090
  0.6670    3.72950
  0.6690    3.65660
  0.6710    3.58160
  0.6730    3.50460
  0.6750    3.42570
  0.6770    3.34480
  0.6790    3.26270
  0.6810    3.17890
  0.6830    3.09310
  0.6850    3.00620
  0.6870    2.91820
  0.6890    2.82890
  0.6910    2.73830
  0.6930    2.64670
  0.6950    2.55380
  0.6970    2.45980
  0.6990    2.36520
  0.7010    2.26980
  0.7030    2.17400
  0.7050    2.07810
  0.7070    1.98200
  0.7090    1.88550
  0.7110    1.78850
  0.7130    1.69200
  0.7150    1.59580
  0.7170    1.49970
  0.7190    1.40400
  0.7210    1.30900
  0.7230    1.21440
  0.7250    1.12050
  0.7270    1.02810
  0.7290    0.93700
  0.7310    0.84680
  0.7330    0.75750
  0.7350    0.66970
  0.7370    0.58380
  0.7390    0.49930
  0.7410    0.41650
  0.7430    0.33590
  0.7450    0.25700
  0.7470    0.17990
  0.7490    0.10510
  0.7510    0.03270
  0.7530   -0.03750
  0.7550   -0.10530
  0.7570   -0.17080
  0.7590   -0.23400
  0.7610   -0.29470
  0.7630   -0.35310
  0.7650   -0.40900
  0.7670   -0.46200
  0.7690   -0.51260
  0.7710   -0.56080
  0.7730   -0.60640
  0.7750   -0.64930
  0.7770   -0.68960
  0.7790   -0.72740
  0.7810   -0.76280
  0.7830   -0.79550
  0.7850   -0.82550
  0.7870   -0.85330
  0.7890   -0.87910
  0.7910   -0.90240
  0.7930   -0.92320
  0.7950   -0.94170
  0.7970   -0.95820
  0.7990   -0.97250
  0.8010   -0.98510
  0.8030   -0.99570
  0.8050   -1.00420
  0.8070   -1.01080
  0.8090   -1.01560
  0.8110   -1.01870
  0.8130   -1.02010
  0.8150   -1.01980
  0.8170   -1.01790
  0.8190   -1.01460
  0.8210   -1.00990
  0.8230   -1.00380
  0.8250   -0.99650
  0.8270   -0.98800
  0.8290   -0.97800
  0.8310   -0.96710
  0.8330   -0.95530
  0.8350   -0.94270
  0.8370   -0.92920
  0.8390   -0.91480
  0.8410   -0.89960
  0.8430   -0.88380
  0.8450   -0.86720
  0.8470   -0.85000
  0.8490   -0.83190
  0.8510   -0.81330
  0.8530   -0.79420
  0.8550   -0.77450
  0.8570   -0.75430
  0.8590   -0.73370
  0.8610   -0.71270
  0.8630   -0.69110
  0.8650   -0.66920
  0.8670   -0.64690
  0.8690   -0.62410
  0.8710   -0.60110
  0.8730   -0.57800
  0.8750   -0.55460
  0.8770   -0.53090
  0.8790   -0.50690
  0.8810   -0.48270
  0.8830   -0.45830
  0.8850   -0.43370
  0.8870   -0.40900
  0.8890   -0.38440
  0.8910   -0.35970
  0.8930   -0.33480
  0.8950   -0.30990
  0.8970   -0.28470
  0.8990   -0.25960
  0.9010   -0.23470
  0.9030   -0.20970
  0.9050   -0.18490
  0.9070   -0.16010
  0.9090   -0.13550
  0.9110   -0.11090
  0.9130   -0.08640
  0.9150   -0.06220
  0.9170   -0.03850
  0.9190   -0.01500
  0.9210    0.00830
  0.9230    0.03100
  0.9250    0.05340
  0.9270    0.07550
  0.9290    0.09700
  0.9310    0.11780
  0.9330    0.13820
  0.9350    0.15810
  0.9370    0.17740
  0.9390    0.19590
  0.9410    0.21370
  0.9430    0.23100
  0.9450    0.24750
  0.9470    0.26320
  0.9490    0.27800
  0.9510    0.29210
  0.9530    0.30540
  0.9550    0.31780
  0.9570    0.32900
  0.9590    0.33920
  0.9610    0.34870
  0.9630    0.35720
  0.9650    0.36460
  0.9670    0.37100
  0.9690    0.37650
  0.9710    0.38080
  0.9730    0.38410
  0.9750    0.38650
  0.9770    0.38780
  0.9790    0.38810
  0.9810    0.38760
  0.9830    0.38610
  0.9850    0.38350
  0.9870    0.38010
  0.9890    0.37580
  0.9910    0.37060
  0.9930    0.36430
  0.9950    0.35730
  0.9970    0.34950
  0.9990    0.34110
  1.0010    0.33180
  1.0030    0.32180
  1.0050    0.31110
  1.0070    0.29980
  1.0090    0.28810
  1.0110    0.27580
  1.0130    0.26290
  1.0150    0.24960
  1.0170    0.23600
  1.0190    0.22210
  1.0210    0.20780
  1.0230    0.19320
  1.0250    0.17840
  1.0270    0.16350
  1.0290    0.14840
  1.0310    0.13310
  1.0330    0.11790
  1.0350    0.10280
  1.0370    0.08750
  1.0390    0.07220
  1.0410    0.05730
  1.0430    0.04240
  1.0450    0.02750
  1.0470    0.01280
  1.0490   -0.00140
  1.0510   -0.01530
  1.0530   -0.02920
  1.0550   -0.04280
  1.0570   -0.05600
  1.0590   -0.06890
  1.0610   -0.08140
  1.0630   -0.09360
  1.0650   -0.10530
  1.0670   -0.11680
  1.0690   -0.12790
  1.0710   -0.13850
  1.0730   -0.14880
  1.0750   -0.15860
  1.0770   -0.16790
  1.0790   -0.17680
  1.0810   -0.18510
  1.0830   -0.19300
  1.0850   -0.20040
  1.0870   -0.20740
  1.0890   -0.21390
  1.0910   -0.22000
  1.0930   -0.22560
  1.0950   -0.23080
  1.0970   -0.23550
  1.0990   -0.23970
  1.1010   -0.24350
  1.1030   -0.24690
  1.1050   -0.24990
  1.1070   -0.25250
  1.1090   -0.25470
  1.1110   -0.25630
  1.1130   -0.25750
  1.1150   -0.25840
  1.1170   -0.25870
  1.1190   -0.25870
  1.1210   -0.25850
  1.1230   -0.25790
  1.1250   -0.25690
  1.1270   -0.25560
  1.1290   -0.25380
  1.1310   -0.25170
  1.1330   -0.24930
  1.1350   -0.24660
  1.1370   -0.24360
  1.1390   -0.24030
  1.1410   -0.23680
  1.1430   -0.23300
  1.1450   -0.22890
  1.1470   -0.22450
  1.1490   -0.21990
  1.1510   -0.21520
  1.1530   -0.21020
  1.1550   -0.20490
  1.1570   -0.19960
  1.1590   -0.19400
  1.1610   -0.18830
  1.1630   -0.18240
  1.1650   -0.17650
  1.1670   -0.17050
  1.1690   -0.16430
  1.1710   -0.15800
  1.1730   -0.15180
  1.1750   -0.14550
  1.1770   -0.13910
  1.1790   -0.13270
  1.1810   -0.12640
  1.1830   -0.12000
  1.1850   -0.11370
  1.1870   -0.10740
  1.1890   -0.10130
  1.1910   -0.09540
  1.1930   -0.08940
  1.1950   -0.08340
  1.1970   -0.07740
  1.1990   -0.07170
  1.2010   -0.06610
  1.2030   -0.06050
  1.2050   -0.05510
  1.2070   -0.04980
  1.2090   -0.04460
  1.2110   -0.03970
  1.2130   -0.03490
  1.2150   -0.03040
  1.2170   -0.02590
  1.2190   -0.02170
  1.2210   -0.01760
  1.2230   -0.01370
  1.2250   -0.00990
  1.2270   -0.00620
  1.2290   -0.00260
  1.2310    0.00060
  1.2330    0.00380
  1.2350    0.00680
  1.2370    0.00960
  1.2390    0.01230
  1.2410    0.01480
  1.2430    0.01710
  1.2450    0.01920
  1.2470    0.02110
  1.2490    0.02290
  1.2510    0.02450
  1.2530    0.02600
  1.2550    0.02730
  1.2570    0.02860
  1.2590    0.02970
  1.2610    0.03080
  1.2630    0.03160
  1.2650    0.03230
  1.2670    0.03290
  1.2690    0.03330
  1.2710    0.03360
  1.2730    0.03370
  1.2750    0.03360
  1.2770    0.03340
  1.2790    0.03300
  1.2810    0.03260
  1.2830    0.03200
  1.2850    0.03110
  1.2870    0.03020
  1.2890    0.02920
  1.2910    0.02790
  1.2930    0.02650
  1.2950    0.02510
  1.2970    0.02350
  1.2990    0.02180
  1.3010    0.01990
  1.3030    0.01810
  1.3050    0.01600
  1.3070    0.01390
  1.3090    0.01150
  1.3110    0.00920
  1.3130    0.00690
  1.3150    0.00440
  1.3170    0.00200
  1.3190   -0.00050
  1.3210   -0.00320
  1.3230   -0.00570
  1.3250   -0.00820
  1.3270   -0.01070
  1.3290   -0.01300
  1.3310   -0.01520
  1.3330   -0.01730
  1.3350   -0.01940
  1.3370   -0.02130
  1.3390   -0.02310
  1.3410   -0.02470
  1.3430   -0.02620
  1.3450   -0.02740
  1.3470   -0.02830
  1.3490   -0.02910
  1.3510   -0.02960
  1.3530   -0.03000
  1.3550   -0.03000
  1.3570   -0.02960
  1.3590   -0.02900
  1.3610   -0.02810
  1.3630   -0.02680
  1.3650   -0.02530
  1.3670   -0.02350
  1.3690   -0.02130
  1.3710   -0.01900
  1.3730   -0.01640
  1.3750   -0.01340
  1.3770   -0.00990
  1.3790   -0.00610
  1.3810   -0.00210
  1.3830    0.00210
  1.3850    0.00630
  1.3870    0.01030
  1.3890    0.01450
  1.3910    0.01900
  1.3930    0.02320
  1.3950    0.02760
  1.3970    0.03220
  1.3990    0.03650
