# z (nm)   (kJ/mol)
  0.443000, 19.197100
  0.445000, 18.818800
  0.447000, 18.441700
  0.449000, 18.069600
  0.451000, 17.675500
  0.453000, 17.294600
  0.455000, 16.922400
  0.457000, 16.547900
  0.459000, 16.165400
  0.461000, 15.786600
  0.463000, 15.414800
  0.465000, 15.051300
  0.467000, 14.687000
  0.469000, 14.319400
  0.471000, 13.946800
  0.473000, 13.577000
  0.475000, 13.222500
  0.477000, 12.874100
  0.479000, 12.524900
  0.481000, 12.185200
  0.483000, 11.856600
  0.485000, 11.533200
  0.487000, 11.217700
  0.489000, 10.908700
  0.491000, 10.608200
  0.493000, 10.319600
  0.495000, 10.041100
  0.497000,  9.770100
  0.499000,  9.510200
  0.501000,  9.259300
  0.503000,  9.018800
  0.505000,  8.790500
  0.507000,  8.565600
  0.509000,  8.349900
  0.511000,  8.146400
  0.513000,  7.953900
  0.515000,  7.770800
  0.517000,  7.595000
  0.519000,  7.426000
  0.521000,  7.263800
  0.523000,  7.110400
  0.525000,  6.967300
  0.527000,  6.832500
  0.529000,  6.704600
  0.531000,  6.584400
  0.533000,  6.471200
  0.535000,  6.365400
  0.537000,  6.266400
  0.539000,  6.174600
  0.541000,  6.090900
  0.543000,  6.014300
  0.545000,  5.943000
  0.547000,  5.877200
  0.549000,  5.817700
  0.551000,  5.764300
  0.553000,  5.717100
  0.555000,  5.674800
  0.557000,  5.636800
  0.559000,  5.604000
  0.561000,  5.576400
  0.563000,  5.552900
  0.565000,  5.532800
  0.567000,  5.516900
  0.569000,  5.504800
  0.571000,  5.496100
  0.573000,  5.490900
  0.575000,  5.488700
  0.577000,  5.487800
  0.579000,  5.489000
  0.581000,  5.492800
  0.583000,  5.498100
  0.585000,  5.504900
  0.587000,  5.513300
  0.589000,  5.522500
  0.591000,  5.530300
  0.593000,  5.539000
  0.595000,  5.548500
  0.597000,  5.556800
  0.599000,  5.564800
  0.601000,  5.572400
  0.603000,  5.579300
  0.605000,  5.585300
  0.607000,  5.589300
  0.609000,  5.591800
  0.611000,  5.593100
  0.613000,  5.592600
  0.615000,  5.590000
  0.617000,  5.585300
  0.619000,  5.578100
  0.621000,  5.568300
  0.623000,  5.555900
  0.625000,  5.541200
  0.627000,  5.524300
  0.629000,  5.504800
  0.631000,  5.482200
  0.633000,  5.456800
  0.635000,  5.429100
  0.637000,  5.398600
  0.639000,  5.365100
  0.641000,  5.328600
  0.643000,  5.289700
  0.645000,  5.248000
  0.647000,  5.203200
  0.649000,  5.155700
  0.651000,  5.105800
  0.653000,  5.053100
  0.655000,  4.997600
  0.657000,  4.939700
  0.659000,  4.879200
  0.661000,  4.816300
  0.663000,  4.751300
  0.665000,  4.684100
  0.667000,  4.614200
  0.669000,  4.541700
  0.671000,  4.467300
  0.673000,  4.390400
  0.675000,  4.311800
  0.677000,  4.231600
  0.679000,  4.148400
  0.681000,  4.063100
  0.683000,  3.976600
  0.685000,  3.888300
  0.687000,  3.798000
  0.689000,  3.705700
  0.691000,  3.612200
  0.693000,  3.517600
  0.695000,  3.421900
  0.697000,  3.325000
  0.699000,  3.227300
  0.701000,  3.128500
  0.703000,  3.028300
  0.705000,  2.927600
  0.707000,  2.826900
  0.709000,  2.725200
  0.711000,  2.622600
  0.713000,  2.520000
  0.715000,  2.417100
  0.717000,  2.314300
  0.719000,  2.211400
  0.721000,  2.108300
  0.723000,  2.005100
  0.725000,  1.901900
  0.727000,  1.799500
  0.729000,  1.697000
  0.731000,  1.594500
  0.733000,  1.492900
  0.735000,  1.392500
  0.737000,  1.293300
  0.739000,  1.195300
  0.741000,  1.098100
  0.743000,  1.001700
  0.745000,  0.906100
  0.747000,  0.811700
  0.749000,  0.719000
  0.751000,  0.628400
  0.753000,  0.539400
  0.755000,  0.451500
  0.757000,  0.365100
  0.759000,  0.280500
  0.761000,  0.197900
  0.763000,  0.117600
  0.765000,  0.039600
  0.767000, -0.036700
  0.769000, -0.111000
  0.771000, -0.182700
  0.773000, -0.252300
  0.775000, -0.319700
  0.777000, -0.384700
  0.779000, -0.447200
  0.781000, -0.507400
  0.783000, -0.565000
  0.785000, -0.619800
  0.787000, -0.671800
  0.789000, -0.721500
  0.791000, -0.768700
  0.793000, -0.812900
  0.795000, -0.854700
  0.797000, -0.894000
  0.799000, -0.930500
  0.801000, -0.964300
  0.803000, -0.995300
  0.805000, -1.023800
  0.807000, -1.049700
  0.809000, -1.073000
  0.811000, -1.093800
  0.813000, -1.112000
  0.815000, -1.127700
  0.817000, -1.140900
  0.819000, -1.151700
  0.821000, -1.160100
  0.823000, -1.165900
  0.825000, -1.169400
  0.827000, -1.170500
  0.829000, -1.169300
  0.831000, -1.166000
  0.833000, -1.160400
  0.835000, -1.152600
  0.837000, -1.143000
  0.839000, -1.131400
  0.841000, -1.117700
  0.843000, -1.102300
  0.845000, -1.085000
  0.847000, -1.065700
  0.849000, -1.044900
  0.851000, -1.022300
  0.853000, -0.998100
  0.855000, -0.972700
  0.857000, -0.945900
  0.859000, -0.917700
  0.861000, -0.888300
  0.863000, -0.857700
  0.865000, -0.825700
  0.867000, -0.792800
  0.869000, -0.758900
  0.871000, -0.723800
  0.873000, -0.688100
  0.875000, -0.651600
  0.877000, -0.614300
  0.879000, -0.576500
  0.881000, -0.538200
  0.883000, -0.499400
  0.885000, -0.460400
  0.887000, -0.420900
  0.889000, -0.381000
  0.891000, -0.340900
  0.893000, -0.300900
  0.895000, -0.260700
  0.897000, -0.220400
  0.899000, -0.180100
  0.901000, -0.140100
  0.903000, -0.100200
  0.905000, -0.060600
  0.907000, -0.021500
  0.909000,  0.017100
  0.911000,  0.055500
  0.913000,  0.093100
  0.915000,  0.129900
  0.917000,  0.166200
  0.919000,  0.201700
  0.921000,  0.236200
  0.923000,  0.270000
  0.925000,  0.303000
  0.927000,  0.335000
  0.929000,  0.365800
  0.931000,  0.395600
  0.933000,  0.424100
  0.935000,  0.451400
  0.937000,  0.477700
  0.939000,  0.502600
  0.941000,  0.526200
  0.943000,  0.548600
  0.945000,  0.569700
  0.947000,  0.589600
  0.949000,  0.608100
  0.951000,  0.625200
  0.953000,  0.640800
  0.955000,  0.654800
  0.957000,  0.667400
  0.959000,  0.678700
  0.961000,  0.688300
  0.963000,  0.696600
  0.965000,  0.703200
  0.967000,  0.708400
  0.969000,  0.712100
  0.971000,  0.714600
  0.973000,  0.715700
  0.975000,  0.715400
  0.977000,  0.713700
  0.979000,  0.710400
  0.981000,  0.705900
  0.983000,  0.700100
  0.985000,  0.692900
  0.987000,  0.684500
  0.989000,  0.674800
  0.991000,  0.664000
  0.993000,  0.652000
  0.995000,  0.639100
  0.997000,  0.625200
  0.999000,  0.610300
  1.001000,  0.594300
  1.003000,  0.577500
  1.005000,  0.560000
  1.007000,  0.541700
  1.009000,  0.522700
  1.011000,  0.503200
  1.013000,  0.483000
  1.015000,  0.462200
  1.017000,  0.440900
  1.019000,  0.419300
  1.021000,  0.397400
  1.023000,  0.375200
  1.025000,  0.352800
  1.027000,  0.330300
  1.029000,  0.307600
  1.031000,  0.284900
  1.033000,  0.262200
  1.035000,  0.239400
  1.037000,  0.216700
  1.039000,  0.194200
  1.041000,  0.171700
  1.043000,  0.149700
  1.045000,  0.128100
  1.047000,  0.106800
  1.049000,  0.085900
  1.051000,  0.065300
  1.053000,  0.045000
  1.055000,  0.025200
  1.057000,  0.005900
  1.059000, -0.012800
  1.061000, -0.030900
  1.063000, -0.048300
  1.065000, -0.065400
  1.067000, -0.081700
  1.069000, -0.097500
  1.071000, -0.112600
  1.073000, -0.126900
  1.075000, -0.140500
  1.077000, -0.153600
  1.079000, -0.165900
  1.081000, -0.177500
  1.083000, -0.188400
  1.085000, -0.198500
  1.087000, -0.207900
  1.089000, -0.216600
  1.091000, -0.224800
  1.093000, -0.232200
  1.095000, -0.238900
  1.097000, -0.244800
  1.099000, -0.250000
  1.101000, -0.254500
  1.103000, -0.258500
  1.105000, -0.262000
  1.107000, -0.264800
  1.109000, -0.267100
  1.111000, -0.268800
  1.113000, -0.269800
  1.115000, -0.270300
  1.117000, -0.270300
  1.119000, -0.270000
  1.121000, -0.269000
  1.123000, -0.267700
  1.125000, -0.265800
  1.127000, -0.263500
  1.129000, -0.260800
  1.131000, -0.257800
  1.133000, -0.254600
  1.135000, -0.251000
  1.137000, -0.247200
  1.139000, -0.243200
  1.141000, -0.239000
  1.143000, -0.234400
  1.145000, -0.229600
  1.147000, -0.224600
  1.149000, -0.219400
  1.151000, -0.214000
  1.153000, -0.208700
  1.155000, -0.203200
  1.157000, -0.197600
  1.159000, -0.191800
  1.161000, -0.186100
  1.163000, -0.180300
  1.165000, -0.174500
  1.167000, -0.168800
  1.169000, -0.163000
  1.171000, -0.157300
  1.173000, -0.151700
  1.175000, -0.146000
  1.177000, -0.140500
  1.179000, -0.135100
  1.181000, -0.129700
  1.183000, -0.124200
  1.185000, -0.118700
  1.187000, -0.113500
  1.189000, -0.108400
  1.191000, -0.103300
  1.193000, -0.098300
  1.195000, -0.093500
  1.197000, -0.088700
  1.199000, -0.083900
  1.201000, -0.079300
  1.203000, -0.074800
  1.205000, -0.070400
  1.207000, -0.066000
  1.209000, -0.061500
  1.211000, -0.057200
  1.213000, -0.052900
  1.215000, -0.048800
  1.217000, -0.044800
  1.219000, -0.040800
  1.221000, -0.036800
  1.223000, -0.032900
  1.225000, -0.029200
  1.227000, -0.025500
  1.229000, -0.021900
  1.231000, -0.018300
  1.233000, -0.014800
  1.235000, -0.011200
  1.237000, -0.007600
  1.239000, -0.004300
  1.241000, -0.001000
  1.243000,  0.002200
  1.245000,  0.005500
  1.247000,  0.008600
  1.249000,  0.011700
  1.251000,  0.014700
  1.253000,  0.017600
  1.255000,  0.020500
  1.257000,  0.023200
  1.259000,  0.025700
  1.261000,  0.028100
  1.263000,  0.030500
  1.265000,  0.032700
  1.267000,  0.034700
  1.269000,  0.036500
  1.271000,  0.038200
  1.273000,  0.039700
  1.275000,  0.041200
  1.277000,  0.042500
  1.279000,  0.043600
  1.281000,  0.044700
  1.283000,  0.045600
  1.285000,  0.046000
  1.287000,  0.046400
  1.289000,  0.046800
  1.291000,  0.046800
  1.293000,  0.046500
  1.295000,  0.045900
  1.297000,  0.045100
  1.299000,  0.044100
  1.301000,  0.043000
  1.303000,  0.041800
  1.305000,  0.040200
  1.307000,  0.038500
  1.309000,  0.036500
  1.311000,  0.034400
  1.313000,  0.032100
  1.315000,  0.029800
  1.317000,  0.027200
  1.319000,  0.024400
  1.321000,  0.021500
  1.323000,  0.018700
  1.325000,  0.015900
  1.327000,  0.012900
  1.329000,  0.009900
  1.331000,  0.007000
  1.333000,  0.004200
  1.335000,  0.001300
  1.337000, -0.001600
  1.339000, -0.004300
  1.341000, -0.007000
  1.343000, -0.009500
  1.345000, -0.011900
  1.347000, -0.014300
  1.349000, -0.016500
  1.351000, -0.018600
  1.353000, -0.020400
  1.355000, -0.022000
  1.357000, -0.023500
  1.359000, -0.024800
  1.361000, -0.025700
  1.363000, -0.026300
  1.365000, -0.026700
  1.367000, -0.026800
  1.369000, -0.026800
  1.371000, -0.026700
  1.373000, -0.026000
  1.375000, -0.025200
  1.377000, -0.024100
  1.379000, -0.022900
  1.381000, -0.021500
  1.383000, -0.019700
  1.385000, -0.017600
  1.387000, -0.015600
  1.389000, -0.013600
  1.391000, -0.011400
  1.393000, -0.009200
  1.395000, -0.006700
  1.397000, -0.004700
  1.399000, -0.003300
