# z (nm)   (kJ/mol)
  0.409000, 11.793000
  0.413000, 10.826300
  0.415000, 10.283900
  0.417000,  9.748900
  0.419000,  9.229300
  0.421000,  8.710700
  0.423000,  8.193200
  0.425000,  7.683400
  0.427000,  7.178900
  0.429000,  6.681800
  0.431000,  6.189900
  0.433000,  5.699600
  0.435000,  5.212900
  0.437000,  4.740000
  0.439000,  4.275600
  0.441000,  3.822400
  0.443000,  3.383600
  0.445000,  2.950900
  0.447000,  2.529200
  0.449000,  2.120900
  0.451000,  1.723600
  0.453000,  1.339700
  0.455000,  0.970500
  0.457000,  0.613100
  0.459000,  0.264900
  0.461000, -0.070400
  0.463000, -0.393800
  0.465000, -0.706700
  0.467000, -1.009700
  0.469000, -1.301200
  0.471000, -1.582800
  0.473000, -1.855800
  0.475000, -2.119100
  0.477000, -2.373400
  0.479000, -2.620300
  0.481000, -2.858500
  0.483000, -3.087500
  0.485000, -3.308200
  0.487000, -3.520100
  0.489000, -3.725300
  0.491000, -3.922400
  0.493000, -4.110600
  0.495000, -4.291100
  0.497000, -4.464300
  0.499000, -4.630100
  0.501000, -4.788300
  0.503000, -4.939400
  0.505000, -5.083300
  0.507000, -5.219800
  0.509000, -5.350700
  0.511000, -5.475900
  0.513000, -5.593000
  0.515000, -5.702200
  0.517000, -5.804700
  0.519000, -5.902900
  0.521000, -5.996600
  0.523000, -6.083700
  0.525000, -6.165500
  0.527000, -6.242400
  0.529000, -6.314100
  0.531000, -6.381600
  0.533000, -6.444100
  0.535000, -6.499800
  0.537000, -6.549100
  0.539000, -6.594700
  0.541000, -6.635600
  0.543000, -6.670100
  0.545000, -6.699200
  0.547000, -6.723300
  0.549000, -6.742300
  0.551000, -6.756900
  0.553000, -6.766600
  0.555000, -6.770900
  0.557000, -6.770200
  0.559000, -6.764400
  0.561000, -6.753600
  0.563000, -6.737200
  0.565000, -6.715200
  0.567000, -6.687600
  0.569000, -6.654700
  0.571000, -6.616400
  0.573000, -6.573000
  0.575000, -6.524200
  0.577000, -6.469800
  0.579000, -6.410000
  0.581000, -6.344700
  0.583000, -6.274300
  0.585000, -6.199000
  0.587000, -6.118400
  0.589000, -6.032500
  0.591000, -5.941800
  0.593000, -5.846700
  0.595000, -5.747400
  0.597000, -5.645000
  0.599000, -5.538900
  0.601000, -5.428900
  0.603000, -5.315900
  0.605000, -5.200000
  0.607000, -5.081400
  0.609000, -4.960200
  0.611000, -4.837100
  0.613000, -4.712900
  0.615000, -4.587700
  0.617000, -4.461700
  0.619000, -4.334900
  0.621000, -4.208300
  0.623000, -4.082100
  0.625000, -3.956300
  0.627000, -3.831900
  0.629000, -3.709700
  0.631000, -3.590100
  0.633000, -3.472800
  0.635000, -3.356900
  0.637000, -3.243900
  0.639000, -3.134700
  0.641000, -3.028700
  0.643000, -2.926100
  0.645000, -2.827700
  0.647000, -2.734200
  0.649000, -2.645500
  0.651000, -2.561100
  0.653000, -2.481100
  0.655000, -2.406100
  0.657000, -2.336300
  0.659000, -2.271800
  0.661000, -2.212600
  0.663000, -2.158600
  0.665000, -2.110200
  0.667000, -2.067000
  0.669000, -2.028500
  0.671000, -1.994800
  0.673000, -1.966500
  0.675000, -1.943400
  0.677000, -1.924800
  0.679000, -1.910600
  0.681000, -1.900600
  0.683000, -1.894800
  0.685000, -1.892900
  0.687000, -1.894500
  0.689000, -1.899500
  0.691000, -1.907900
  0.693000, -1.919300
  0.695000, -1.933900
  0.697000, -1.951200
  0.699000, -1.970700
  0.701000, -1.992400
  0.703000, -2.015700
  0.705000, -2.040500
  0.707000, -2.066100
  0.709000, -2.092900
  0.711000, -2.120900
  0.713000, -2.149200
  0.715000, -2.177600
  0.717000, -2.205700
  0.719000, -2.234100
  0.721000, -2.262500
  0.723000, -2.290400
  0.725000, -2.318000
  0.727000, -2.344400
  0.729000, -2.369600
  0.731000, -2.393900
  0.733000, -2.417300
  0.735000, -2.439300
  0.737000, -2.459500
  0.739000, -2.478200
  0.741000, -2.495900
  0.743000, -2.512100
  0.745000, -2.526400
  0.747000, -2.538800
  0.749000, -2.550100
  0.751000, -2.559600
  0.753000, -2.567200
  0.755000, -2.572900
  0.757000, -2.577000
  0.759000, -2.579600
  0.761000, -2.580100
  0.763000, -2.579000
  0.765000, -2.576300
  0.767000, -2.572000
  0.769000, -2.566500
  0.771000, -2.559500
  0.773000, -2.550500
  0.775000, -2.540200
  0.777000, -2.528600
  0.779000, -2.515900
  0.781000, -2.501800
  0.783000, -2.485900
  0.785000, -2.469000
  0.787000, -2.451400
  0.789000, -2.433000
  0.791000, -2.413400
  0.793000, -2.393000
  0.795000, -2.371800
  0.797000, -2.349400
  0.799000, -2.326000
  0.801000, -2.301800
  0.803000, -2.276900
  0.805000, -2.251300
  0.807000, -2.225300
  0.809000, -2.198700
  0.811000, -2.171600
  0.813000, -2.144000
  0.815000, -2.115900
  0.817000, -2.087300
  0.819000, -2.058100
  0.821000, -2.028600
  0.823000, -1.998700
  0.825000, -1.968400
  0.827000, -1.937900
  0.829000, -1.907000
  0.831000, -1.875900
  0.833000, -1.844400
  0.835000, -1.812800
  0.837000, -1.781300
  0.839000, -1.749500
  0.841000, -1.717400
  0.843000, -1.685300
  0.845000, -1.653100
  0.847000, -1.620700
  0.849000, -1.588200
  0.851000, -1.555600
  0.853000, -1.523100
  0.855000, -1.490800
  0.857000, -1.458800
  0.859000, -1.427000
  0.861000, -1.395300
  0.863000, -1.363700
  0.865000, -1.332800
  0.867000, -1.302200
  0.869000, -1.271500
  0.871000, -1.241000
  0.873000, -1.211200
  0.875000, -1.182000
  0.877000, -1.153300
  0.879000, -1.125000
  0.881000, -1.097300
  0.883000, -1.070200
  0.885000, -1.043800
  0.887000, -1.018100
  0.889000, -0.993000
  0.891000, -0.968800
  0.893000, -0.945200
  0.895000, -0.922400
  0.897000, -0.900200
  0.899000, -0.879000
  0.901000, -0.858600
  0.903000, -0.838800
  0.905000, -0.820000
  0.907000, -0.802300
  0.909000, -0.785500
  0.911000, -0.769300
  0.913000, -0.753800
  0.915000, -0.739200
  0.917000, -0.725700
  0.919000, -0.712900
  0.921000, -0.701100
  0.923000, -0.690000
  0.925000, -0.679700
  0.927000, -0.670300
  0.929000, -0.661600
  0.931000, -0.653700
  0.933000, -0.646400
  0.935000, -0.639900
  0.937000, -0.634300
  0.939000, -0.629200
  0.941000, -0.624800
  0.943000, -0.621100
  0.945000, -0.617700
  0.947000, -0.614700
  0.949000, -0.612200
  0.951000, -0.610100
  0.953000, -0.608400
  0.955000, -0.607000
  0.957000, -0.606200
  0.959000, -0.605800
  0.961000, -0.605400
  0.963000, -0.605300
  0.965000, -0.605400
  0.967000, -0.605900
  0.969000, -0.606500
  0.971000, -0.607300
  0.973000, -0.608100
  0.975000, -0.609000
  0.977000, -0.609900
  0.979000, -0.610700
  0.981000, -0.611500
  0.983000, -0.612700
  0.985000, -0.613800
  0.987000, -0.614700
  0.989000, -0.615500
  0.991000, -0.616200
  0.993000, -0.616900
  0.995000, -0.617500
  0.997000, -0.618000
  0.999000, -0.618200
  1.001000, -0.618400
  1.003000, -0.618400
  1.005000, -0.618300
  1.007000, -0.618200
  1.009000, -0.617800
  1.011000, -0.617200
  1.013000, -0.616600
  1.015000, -0.615700
  1.017000, -0.614500
  1.019000, -0.613300
  1.021000, -0.612000
  1.023000, -0.610500
  1.025000, -0.608800
  1.027000, -0.607000
  1.029000, -0.604900
  1.031000, -0.602800
  1.033000, -0.600500
  1.035000, -0.598000
  1.037000, -0.595400
  1.039000, -0.592700
  1.041000, -0.590000
  1.043000, -0.587200
  1.045000, -0.584300
  1.047000, -0.581200
  1.049000, -0.578000
  1.051000, -0.574800
  1.053000, -0.571500
  1.055000, -0.568000
  1.057000, -0.564500
  1.059000, -0.560800
  1.061000, -0.557100
  1.063000, -0.553300
  1.065000, -0.549500
  1.067000, -0.545700
  1.069000, -0.541900
  1.071000, -0.537900
  1.073000, -0.533800
  1.075000, -0.529800
  1.077000, -0.525600
  1.079000, -0.521500
  1.081000, -0.517200
  1.083000, -0.512900
  1.085000, -0.508500
  1.087000, -0.504200
  1.089000, -0.499800
  1.091000, -0.495300
  1.093000, -0.490700
  1.095000, -0.486200
  1.097000, -0.481600
  1.099000, -0.476900
  1.101000, -0.472200
  1.103000, -0.467400
  1.105000, -0.462600
  1.107000, -0.457700
  1.109000, -0.452700
  1.111000, -0.447600
  1.113000, -0.442600
  1.115000, -0.437400
  1.117000, -0.432200
  1.119000, -0.426800
  1.121000, -0.421400
  1.123000, -0.415900
  1.125000, -0.410400
  1.127000, -0.404900
  1.129000, -0.399300
  1.131000, -0.393600
  1.133000, -0.387800
  1.135000, -0.382000
  1.137000, -0.376200
  1.139000, -0.370200
  1.141000, -0.364300
  1.143000, -0.358300
  1.145000, -0.352300
  1.147000, -0.346300
  1.149000, -0.340300
  1.151000, -0.334100
  1.153000, -0.328000
  1.155000, -0.321800
  1.157000, -0.315800
  1.159000, -0.309600
  1.161000, -0.303400
  1.163000, -0.297300
  1.165000, -0.291000
  1.167000, -0.284800
  1.169000, -0.278700
  1.171000, -0.272600
  1.173000, -0.266600
  1.175000, -0.260500
  1.177000, -0.254500
  1.179000, -0.248600
  1.181000, -0.242600
  1.183000, -0.236700
  1.185000, -0.230800
  1.187000, -0.225000
  1.189000, -0.219200
  1.191000, -0.213400
  1.193000, -0.207700
  1.195000, -0.202100
  1.197000, -0.196500
  1.199000, -0.191000
  1.201000, -0.185600
  1.203000, -0.180300
  1.205000, -0.175100
  1.207000, -0.169800
  1.209000, -0.164500
  1.211000, -0.159400
  1.213000, -0.154400
  1.215000, -0.149300
  1.217000, -0.144300
  1.219000, -0.139300
  1.221000, -0.134400
  1.223000, -0.129600
  1.225000, -0.124700
  1.227000, -0.120000
  1.229000, -0.115500
  1.231000, -0.110900
  1.233000, -0.106400
  1.235000, -0.101900
  1.237000, -0.097400
  1.239000, -0.092900
  1.241000, -0.088500
  1.243000, -0.084100
  1.245000, -0.079700
  1.247000, -0.075300
  1.249000, -0.071000
  1.251000, -0.066700
  1.253000, -0.062400
  1.255000, -0.058200
  1.257000, -0.054100
  1.259000, -0.049900
  1.261000, -0.045700
  1.263000, -0.041600
  1.265000, -0.037600
  1.267000, -0.033600
  1.269000, -0.029700
  1.271000, -0.025800
  1.273000, -0.021900
  1.275000, -0.018000
  1.277000, -0.014300
  1.279000, -0.010700
  1.281000, -0.007100
  1.283000, -0.003600
  1.285000, -0.000200
  1.287000,  0.003200
  1.289000,  0.006400
  1.291000,  0.009600
  1.293000,  0.012600
  1.295000,  0.015600
  1.297000,  0.018600
  1.299000,  0.021300
  1.301000,  0.023900
  1.303000,  0.026500
  1.305000,  0.028800
  1.307000,  0.031000
  1.309000,  0.033200
  1.311000,  0.035300
  1.313000,  0.037200
  1.315000,  0.039100
  1.317000,  0.041000
  1.319000,  0.042800
  1.321000,  0.044500
  1.323000,  0.046000
  1.325000,  0.047400
  1.327000,  0.048900
  1.329000,  0.050400
  1.331000,  0.051700
  1.333000,  0.053100
  1.335000,  0.054700
  1.337000,  0.056200
  1.339000,  0.057600
  1.341000,  0.059000
  1.343000,  0.060500
  1.345000,  0.062000
  1.347000,  0.063700
  1.349000,  0.065400
  1.351000,  0.067300
  1.353000,  0.069400
  1.355000,  0.071500
  1.357000,  0.073800
  1.359000,  0.076300
  1.361000,  0.079000
  1.363000,  0.081700
  1.365000,  0.084600
  1.367000,  0.087700
  1.369000,  0.091000
  1.371000,  0.094600
  1.373000,  0.098200
  1.375000,  0.102000
  1.377000,  0.106100
  1.379000,  0.110500
  1.381000,  0.115100
  1.383000,  0.119800
  1.385000,  0.124500
  1.387000,  0.129300
  1.389000,  0.134400
  1.391000,  0.139300
  1.393000,  0.144200
  1.395000,  0.149300
  1.397000,  0.154200
  1.399000,  0.158900
