# z (nm)   (kJ/mol)
  0.413000, 19.250900
  0.415000, 18.909700
  0.417000, 18.506500
  0.419000, 18.109500
  0.421000, 17.720800
  0.423000, 17.326400
  0.425000, 16.932200
  0.427000, 16.539900
  0.429000, 16.145100
  0.431000, 15.753100
  0.433000, 15.375800
  0.435000, 14.986200
  0.437000, 14.586900
  0.439000, 14.187900
  0.441000, 13.793300
  0.443000, 13.404500
  0.445000, 13.020000
  0.447000, 12.645200
  0.449000, 12.272600
  0.451000, 11.905200
  0.453000, 11.549500
  0.455000, 11.202000
  0.457000, 10.859300
  0.459000, 10.525500
  0.461000, 10.203100
  0.463000,  9.886600
  0.465000,  9.576700
  0.467000,  9.279100
  0.469000,  8.991300
  0.471000,  8.707900
  0.473000,  8.436900
  0.475000,  8.179200
  0.477000,  7.928500
  0.479000,  7.686700
  0.481000,  7.454000
  0.483000,  7.233100
  0.485000,  7.025100
  0.487000,  6.826100
  0.489000,  6.633700
  0.491000,  6.450200
  0.493000,  6.276300
  0.495000,  6.112600
  0.497000,  5.958100
  0.499000,  5.812800
  0.501000,  5.677100
  0.503000,  5.548500
  0.505000,  5.428300
  0.507000,  5.316800
  0.509000,  5.213200
  0.511000,  5.117000
  0.513000,  5.027400
  0.515000,  4.944700
  0.517000,  4.868500
  0.519000,  4.799000
  0.521000,  4.736200
  0.523000,  4.679200
  0.525000,  4.627700
  0.527000,  4.583100
  0.529000,  4.543900
  0.531000,  4.509100
  0.533000,  4.479600
  0.535000,  4.455000
  0.537000,  4.435800
  0.539000,  4.421900
  0.541000,  4.411400
  0.543000,  4.403900
  0.545000,  4.400300
  0.547000,  4.400100
  0.549000,  4.402500
  0.551000,  4.406700
  0.553000,  4.414200
  0.555000,  4.424200
  0.557000,  4.434400
  0.559000,  4.445400
  0.561000,  4.458800
  0.563000,  4.473800
  0.565000,  4.490100
  0.567000,  4.507000
  0.569000,  4.523500
  0.571000,  4.540000
  0.573000,  4.556100
  0.575000,  4.571800
  0.577000,  4.586800
  0.579000,  4.601200
  0.581000,  4.614700
  0.583000,  4.626700
  0.585000,  4.637500
  0.587000,  4.647200
  0.589000,  4.655000
  0.591000,  4.660500
  0.593000,  4.664100
  0.595000,  4.665800
  0.597000,  4.665800
  0.599000,  4.664100
  0.601000,  4.660100
  0.603000,  4.653600
  0.605000,  4.644800
  0.607000,  4.633600
  0.609000,  4.620300
  0.611000,  4.605000
  0.613000,  4.586700
  0.615000,  4.565600
  0.617000,  4.541900
  0.619000,  4.515900
  0.621000,  4.487500
  0.623000,  4.456600
  0.625000,  4.422900
  0.627000,  4.387100
  0.629000,  4.349200
  0.631000,  4.308300
  0.633000,  4.264600
  0.635000,  4.219300
  0.637000,  4.172300
  0.639000,  4.123200
  0.641000,  4.071600
  0.643000,  4.017300
  0.645000,  3.960600
  0.647000,  3.901700
  0.649000,  3.840700
  0.651000,  3.777500
  0.653000,  3.712400
  0.655000,  3.646000
  0.657000,  3.577700
  0.659000,  3.507200
  0.661000,  3.435200
  0.663000,  3.361600
  0.665000,  3.285900
  0.667000,  3.208500
  0.669000,  3.129700
  0.671000,  3.050100
  0.673000,  2.969300
  0.675000,  2.887700
  0.677000,  2.805300
  0.679000,  2.721400
  0.681000,  2.636300
  0.683000,  2.550300
  0.685000,  2.464300
  0.687000,  2.378000
  0.689000,  2.291000
  0.691000,  2.203700
  0.693000,  2.116200
  0.695000,  2.028100
  0.697000,  1.939800
  0.699000,  1.851800
  0.701000,  1.764400
  0.703000,  1.677100
  0.705000,  1.590200
  0.707000,  1.504300
  0.709000,  1.419400
  0.711000,  1.335500
  0.713000,  1.252300
  0.715000,  1.170000
  0.717000,  1.088500
  0.719000,  1.008300
  0.721000,  0.929700
  0.723000,  0.852200
  0.725000,  0.775800
  0.727000,  0.701100
  0.729000,  0.628000
  0.731000,  0.556500
  0.733000,  0.486900
  0.735000,  0.418900
  0.737000,  0.352600
  0.739000,  0.288100
  0.741000,  0.225800
  0.743000,  0.165400
  0.745000,  0.107300
  0.747000,  0.051300
  0.749000, -0.002800
  0.751000, -0.054800
  0.753000, -0.104800
  0.755000, -0.152600
  0.757000, -0.198300
  0.759000, -0.241800
  0.761000, -0.283200
  0.763000, -0.322500
  0.765000, -0.359700
  0.767000, -0.394900
  0.769000, -0.428000
  0.771000, -0.459100
  0.773000, -0.488200
  0.775000, -0.515300
  0.777000, -0.540500
  0.779000, -0.563800
  0.781000, -0.585300
  0.783000, -0.605100
  0.785000, -0.623200
  0.787000, -0.639500
  0.789000, -0.654400
  0.791000, -0.667700
  0.793000, -0.679500
  0.795000, -0.689800
  0.797000, -0.698600
  0.799000, -0.706100
  0.801000, -0.712400
  0.803000, -0.717500
  0.805000, -0.721400
  0.807000, -0.724300
  0.809000, -0.726000
  0.811000, -0.726700
  0.813000, -0.726400
  0.815000, -0.725200
  0.817000, -0.723000
  0.819000, -0.720000
  0.821000, -0.716500
  0.823000, -0.712300
  0.825000, -0.707300
  0.827000, -0.701600
  0.829000, -0.695400
  0.831000, -0.688600
  0.833000, -0.681300
  0.835000, -0.673600
  0.837000, -0.665300
  0.839000, -0.656700
  0.841000, -0.647600
  0.843000, -0.638000
  0.845000, -0.628100
  0.847000, -0.617800
  0.849000, -0.607200
  0.851000, -0.596400
  0.853000, -0.585200
  0.855000, -0.573800
  0.857000, -0.562000
  0.859000, -0.550000
  0.861000, -0.537700
  0.863000, -0.525100
  0.865000, -0.512400
  0.867000, -0.499600
  0.869000, -0.486300
  0.871000, -0.472900
  0.873000, -0.459200
  0.875000, -0.445100
  0.877000, -0.430800
  0.879000, -0.416400
  0.881000, -0.401800
  0.883000, -0.387000
  0.885000, -0.372000
  0.887000, -0.356800
  0.889000, -0.341500
  0.891000, -0.326000
  0.893000, -0.310200
  0.895000, -0.294200
  0.897000, -0.278100
  0.899000, -0.261900
  0.901000, -0.245400
  0.903000, -0.228900
  0.905000, -0.212200
  0.907000, -0.195500
  0.909000, -0.178600
  0.911000, -0.161800
  0.913000, -0.145000
  0.915000, -0.128000
  0.917000, -0.111000
  0.919000, -0.093800
  0.921000, -0.076900
  0.923000, -0.060000
  0.925000, -0.043200
  0.927000, -0.026400
  0.929000, -0.009700
  0.931000,  0.006700
  0.933000,  0.022800
  0.935000,  0.038900
  0.937000,  0.054900
  0.939000,  0.070500
  0.941000,  0.085500
  0.943000,  0.100200
  0.945000,  0.114800
  0.947000,  0.129000
  0.949000,  0.142700
  0.951000,  0.155700
  0.953000,  0.168400
  0.955000,  0.180500
  0.957000,  0.192000
  0.959000,  0.202800
  0.961000,  0.213100
  0.963000,  0.222900
  0.965000,  0.232200
  0.967000,  0.240800
  0.969000,  0.248800
  0.971000,  0.256100
  0.973000,  0.262700
  0.975000,  0.268500
  0.977000,  0.273700
  0.979000,  0.278100
  0.981000,  0.281800
  0.983000,  0.284800
  0.985000,  0.286900
  0.987000,  0.288300
  0.989000,  0.289000
  0.991000,  0.288900
  0.993000,  0.288100
  0.995000,  0.286600
  0.997000,  0.284600
  0.999000,  0.281900
  1.001000,  0.278500
  1.003000,  0.274400
  1.005000,  0.269900
  1.007000,  0.264700
  1.009000,  0.258900
  1.011000,  0.252700
  1.013000,  0.245900
  1.015000,  0.238600
  1.017000,  0.230900
  1.019000,  0.222800
  1.021000,  0.214400
  1.023000,  0.205500
  1.025000,  0.196300
  1.027000,  0.187000
  1.029000,  0.177400
  1.031000,  0.167600
  1.033000,  0.157600
  1.035000,  0.147300
  1.037000,  0.137000
  1.039000,  0.126700
  1.041000,  0.116400
  1.043000,  0.106000
  1.045000,  0.095600
  1.047000,  0.085200
  1.049000,  0.074900
  1.051000,  0.064700
  1.053000,  0.054600
  1.055000,  0.044500
  1.057000,  0.034500
  1.059000,  0.024800
  1.061000,  0.015300
  1.063000,  0.005800
  1.065000, -0.003300
  1.067000, -0.012300
  1.069000, -0.021100
  1.071000, -0.029600
  1.073000, -0.037900
  1.075000, -0.045800
  1.077000, -0.053600
  1.079000, -0.061100
  1.081000, -0.068300
  1.083000, -0.075300
  1.085000, -0.082100
  1.087000, -0.088500
  1.089000, -0.094700
  1.091000, -0.100600
  1.093000, -0.106300
  1.095000, -0.111500
  1.097000, -0.116500
  1.099000, -0.121400
  1.101000, -0.126100
  1.103000, -0.130500
  1.105000, -0.134500
  1.107000, -0.138300
  1.109000, -0.141900
  1.111000, -0.145000
  1.113000, -0.147900
  1.115000, -0.150600
  1.117000, -0.153200
  1.119000, -0.155500
  1.121000, -0.157500
  1.123000, -0.159200
  1.125000, -0.160800
  1.127000, -0.162100
  1.129000, -0.163100
  1.131000, -0.163900
  1.133000, -0.164400
  1.135000, -0.164800
  1.137000, -0.165000
  1.139000, -0.164900
  1.141000, -0.164600
  1.143000, -0.164200
  1.145000, -0.163500
  1.147000, -0.162500
  1.149000, -0.161300
  1.151000, -0.160000
  1.153000, -0.158400
  1.155000, -0.156600
  1.157000, -0.154600
  1.159000, -0.152300
  1.161000, -0.149900
  1.163000, -0.147400
  1.165000, -0.144700
  1.167000, -0.141900
  1.169000, -0.138700
  1.171000, -0.135500
  1.173000, -0.132200
  1.175000, -0.128600
  1.177000, -0.124700
  1.179000, -0.120900
  1.181000, -0.117100
  1.183000, -0.113000
  1.185000, -0.108900
  1.187000, -0.104700
  1.189000, -0.100400
  1.191000, -0.096000
  1.193000, -0.091500
  1.195000, -0.086900
  1.197000, -0.082200
  1.199000, -0.077600
  1.201000, -0.073100
  1.203000, -0.068400
  1.205000, -0.063700
  1.207000, -0.059000
  1.209000, -0.054500
  1.211000, -0.049900
  1.213000, -0.045200
  1.215000, -0.040700
  1.217000, -0.036300
  1.219000, -0.032000
  1.221000, -0.027700
  1.223000, -0.023400
  1.225000, -0.019200
  1.227000, -0.015000
  1.229000, -0.011000
  1.231000, -0.007100
  1.233000, -0.003400
  1.235000,  0.000200
  1.237000,  0.003600
  1.239000,  0.007100
  1.241000,  0.010400
  1.243000,  0.013400
  1.245000,  0.016300
  1.247000,  0.019100
  1.249000,  0.021500
  1.251000,  0.023800
  1.253000,  0.026000
  1.255000,  0.028000
  1.257000,  0.029800
  1.259000,  0.031300
  1.261000,  0.032700
  1.263000,  0.033900
  1.265000,  0.034900
  1.267000,  0.035800
  1.269000,  0.036400
  1.271000,  0.036900
  1.273000,  0.037100
  1.275000,  0.037100
  1.277000,  0.036900
  1.279000,  0.036500
  1.281000,  0.036000
  1.283000,  0.035300
  1.285000,  0.034500
  1.287000,  0.033400
  1.289000,  0.032200
  1.291000,  0.030900
  1.293000,  0.029500
  1.295000,  0.028000
  1.297000,  0.026300
  1.299000,  0.024500
  1.301000,  0.022600
  1.303000,  0.020800
  1.305000,  0.019000
  1.307000,  0.016800
  1.309000,  0.014700
  1.311000,  0.012500
  1.313000,  0.010300
  1.315000,  0.008100
  1.317000,  0.005900
  1.319000,  0.003800
  1.321000,  0.001800
  1.323000, -0.000300
  1.325000, -0.002300
  1.327000, -0.004200
  1.329000, -0.006100
  1.331000, -0.007900
  1.333000, -0.009500
  1.335000, -0.011000
  1.337000, -0.012500
  1.339000, -0.014000
  1.341000, -0.015300
  1.343000, -0.016300
  1.345000, -0.017200
  1.347000, -0.018000
  1.349000, -0.018600
  1.351000, -0.019000
  1.353000, -0.019200
  1.355000, -0.019100
  1.357000, -0.018900
  1.359000, -0.018500
  1.361000, -0.018000
  1.363000, -0.017300
  1.365000, -0.016500
  1.367000, -0.015600
  1.369000, -0.014600
  1.371000, -0.013400
  1.373000, -0.012100
  1.375000, -0.010500
  1.377000, -0.008900
  1.379000, -0.007400
  1.381000, -0.005700
  1.383000, -0.003900
  1.385000, -0.002100
  1.387000, -0.000000
  1.389000,  0.001900
  1.391000,  0.003300
  1.393000,  0.004800
  1.395000,  0.005700
  1.397000,  0.006500
  1.399000,  0.007400
