# z (nm)   (kJ/mol)
  0.4130   19.25090
  0.4150   18.90970
  0.4170   18.50650
  0.4190   18.10950
  0.4210   17.72080
  0.4230   17.32640
  0.4250   16.93220
  0.4270   16.53990
  0.4290   16.14510
  0.4310   15.75310
  0.4330   15.37580
  0.4350   14.98620
  0.4370   14.58690
  0.4390   14.18790
  0.4410   13.79330
  0.4430   13.40450
  0.4450   13.02000
  0.4470   12.64520
  0.4490   12.27260
  0.4510   11.90520
  0.4530   11.54950
  0.4550   11.20200
  0.4570   10.85930
  0.4590   10.52550
  0.4610   10.20310
  0.4630    9.88660
  0.4650    9.57670
  0.4670    9.27910
  0.4690    8.99130
  0.4710    8.70790
  0.4730    8.43690
  0.4750    8.17920
  0.4770    7.92850
  0.4790    7.68670
  0.4810    7.45400
  0.4830    7.23310
  0.4850    7.02510
  0.4870    6.82610
  0.4890    6.63370
  0.4910    6.45020
  0.4930    6.27630
  0.4950    6.11260
  0.4970    5.95810
  0.4990    5.81280
  0.5010    5.67710
  0.5030    5.54850
  0.5050    5.42830
  0.5070    5.31680
  0.5090    5.21320
  0.5110    5.11700
  0.5130    5.02740
  0.5150    4.94470
  0.5170    4.86850
  0.5190    4.79900
  0.5210    4.73620
  0.5230    4.67920
  0.5250    4.62770
  0.5270    4.58310
  0.5290    4.54390
  0.5310    4.50910
  0.5330    4.47960
  0.5350    4.45500
  0.5370    4.43580
  0.5390    4.42190
  0.5410    4.41140
  0.5430    4.40390
  0.5450    4.40030
  0.5470    4.40010
  0.5490    4.40250
  0.5510    4.40670
  0.5530    4.41420
  0.5550    4.42420
  0.5570    4.43440
  0.5590    4.44540
  0.5610    4.45880
  0.5630    4.47380
  0.5650    4.49010
  0.5670    4.50700
  0.5690    4.52350
  0.5710    4.54000
  0.5730    4.55610
  0.5750    4.57180
  0.5770    4.58680
  0.5790    4.60120
  0.5810    4.61470
  0.5830    4.62670
  0.5850    4.63750
  0.5870    4.64720
  0.5890    4.65500
  0.5910    4.66050
  0.5930    4.66410
  0.5950    4.66580
  0.5970    4.66580
  0.5990    4.66410
  0.6010    4.66010
  0.6030    4.65360
  0.6050    4.64480
  0.6070    4.63360
  0.6090    4.62030
  0.6110    4.60500
  0.6130    4.58670
  0.6150    4.56560
  0.6170    4.54190
  0.6190    4.51590
  0.6210    4.48750
  0.6230    4.45660
  0.6250    4.42290
  0.6270    4.38710
  0.6290    4.34920
  0.6310    4.30830
  0.6330    4.26460
  0.6350    4.21930
  0.6370    4.17230
  0.6390    4.12320
  0.6410    4.07160
  0.6430    4.01730
  0.6450    3.96060
  0.6470    3.90170
  0.6490    3.84070
  0.6510    3.77750
  0.6530    3.71240
  0.6550    3.64600
  0.6570    3.57770
  0.6590    3.50720
  0.6610    3.43520
  0.6630    3.36160
  0.6650    3.28590
  0.6670    3.20850
  0.6690    3.12970
  0.6710    3.05010
  0.6730    2.96930
  0.6750    2.88770
  0.6770    2.80530
  0.6790    2.72140
  0.6810    2.63630
  0.6830    2.55030
  0.6850    2.46430
  0.6870    2.37800
  0.6890    2.29100
  0.6910    2.20370
  0.6930    2.11620
  0.6950    2.02810
  0.6970    1.93980
  0.6990    1.85180
  0.7010    1.76440
  0.7030    1.67710
  0.7050    1.59020
  0.7070    1.50430
  0.7090    1.41940
  0.7110    1.33550
  0.7130    1.25230
  0.7150    1.17000
  0.7170    1.08850
  0.7190    1.00830
  0.7210    0.92970
  0.7230    0.85220
  0.7250    0.77580
  0.7270    0.70110
  0.7290    0.62800
  0.7310    0.55650
  0.7330    0.48690
  0.7350    0.41890
  0.7370    0.35260
  0.7390    0.28810
  0.7410    0.22580
  0.7430    0.16540
  0.7450    0.10730
  0.7470    0.05130
  0.7490   -0.00280
  0.7510   -0.05480
  0.7530   -0.10480
  0.7550   -0.15260
  0.7570   -0.19830
  0.7590   -0.24180
  0.7610   -0.28320
  0.7630   -0.32250
  0.7650   -0.35970
  0.7670   -0.39490
  0.7690   -0.42800
  0.7710   -0.45910
  0.7730   -0.48820
  0.7750   -0.51530
  0.7770   -0.54050
  0.7790   -0.56380
  0.7810   -0.58530
  0.7830   -0.60510
  0.7850   -0.62320
  0.7870   -0.63950
  0.7890   -0.65440
  0.7910   -0.66770
  0.7930   -0.67950
  0.7950   -0.68980
  0.7970   -0.69860
  0.7990   -0.70610
  0.8010   -0.71240
  0.8030   -0.71750
  0.8050   -0.72140
  0.8070   -0.72430
  0.8090   -0.72600
  0.8110   -0.72670
  0.8130   -0.72640
  0.8150   -0.72520
  0.8170   -0.72300
  0.8190   -0.72000
  0.8210   -0.71650
  0.8230   -0.71230
  0.8250   -0.70730
  0.8270   -0.70160
  0.8290   -0.69540
  0.8310   -0.68860
  0.8330   -0.68130
  0.8350   -0.67360
  0.8370   -0.66530
  0.8390   -0.65670
  0.8410   -0.64760
  0.8430   -0.63800
  0.8450   -0.62810
  0.8470   -0.61780
  0.8490   -0.60720
  0.8510   -0.59640
  0.8530   -0.58520
  0.8550   -0.57380
  0.8570   -0.56200
  0.8590   -0.55000
  0.8610   -0.53770
  0.8630   -0.52510
  0.8650   -0.51240
  0.8670   -0.49960
  0.8690   -0.48630
  0.8710   -0.47290
  0.8730   -0.45920
  0.8750   -0.44510
  0.8770   -0.43080
  0.8790   -0.41640
  0.8810   -0.40180
  0.8830   -0.38700
  0.8850   -0.37200
  0.8870   -0.35680
  0.8890   -0.34150
  0.8910   -0.32600
  0.8930   -0.31020
  0.8950   -0.29420
  0.8970   -0.27810
  0.8990   -0.26190
  0.9010   -0.24540
  0.9030   -0.22890
  0.9050   -0.21220
  0.9070   -0.19550
  0.9090   -0.17860
  0.9110   -0.16180
  0.9130   -0.14500
  0.9150   -0.12800
  0.9170   -0.11100
  0.9190   -0.09380
  0.9210   -0.07690
  0.9230   -0.06000
  0.9250   -0.04320
  0.9270   -0.02640
  0.9290   -0.00970
  0.9310    0.00670
  0.9330    0.02280
  0.9350    0.03890
  0.9370    0.05490
  0.9390    0.07050
  0.9410    0.08550
  0.9430    0.10020
  0.9450    0.11480
  0.9470    0.12900
  0.9490    0.14270
  0.9510    0.15570
  0.9530    0.16840
  0.9550    0.18050
  0.9570    0.19200
  0.9590    0.20280
  0.9610    0.21310
  0.9630    0.22290
  0.9650    0.23220
  0.9670    0.24080
  0.9690    0.24880
  0.9710    0.25610
  0.9730    0.26270
  0.9750    0.26850
  0.9770    0.27370
  0.9790    0.27810
  0.9810    0.28180
  0.9830    0.28480
  0.9850    0.28690
  0.9870    0.28830
  0.9890    0.28900
  0.9910    0.28890
  0.9930    0.28810
  0.9950    0.28660
  0.9970    0.28460
  0.9990    0.28190
  1.0010    0.27850
  1.0030    0.27440
  1.0050    0.26990
  1.0070    0.26470
  1.0090    0.25890
  1.0110    0.25270
  1.0130    0.24590
  1.0150    0.23860
  1.0170    0.23090
  1.0190    0.22280
  1.0210    0.21440
  1.0230    0.20550
  1.0250    0.19630
  1.0270    0.18700
  1.0290    0.17740
  1.0310    0.16760
  1.0330    0.15760
  1.0350    0.14730
  1.0370    0.13700
  1.0390    0.12670
  1.0410    0.11640
  1.0430    0.10600
  1.0450    0.09560
  1.0470    0.08520
  1.0490    0.07490
  1.0510    0.06470
  1.0530    0.05460
  1.0550    0.04450
  1.0570    0.03450
  1.0590    0.02480
  1.0610    0.01530
  1.0630    0.00580
  1.0650   -0.00330
  1.0670   -0.01230
  1.0690   -0.02110
  1.0710   -0.02960
  1.0730   -0.03790
  1.0750   -0.04580
  1.0770   -0.05360
  1.0790   -0.06110
  1.0810   -0.06830
  1.0830   -0.07530
  1.0850   -0.08210
  1.0870   -0.08850
  1.0890   -0.09470
  1.0910   -0.10060
  1.0930   -0.10630
  1.0950   -0.11150
  1.0970   -0.11650
  1.0990   -0.12140
  1.1010   -0.12610
  1.1030   -0.13050
  1.1050   -0.13450
  1.1070   -0.13830
  1.1090   -0.14190
  1.1110   -0.14500
  1.1130   -0.14790
  1.1150   -0.15060
  1.1170   -0.15320
  1.1190   -0.15550
  1.1210   -0.15750
  1.1230   -0.15920
  1.1250   -0.16080
  1.1270   -0.16210
  1.1290   -0.16310
  1.1310   -0.16390
  1.1330   -0.16440
  1.1350   -0.16480
  1.1370   -0.16500
  1.1390   -0.16490
  1.1410   -0.16460
  1.1430   -0.16420
  1.1450   -0.16350
  1.1470   -0.16250
  1.1490   -0.16130
  1.1510   -0.16000
  1.1530   -0.15840
  1.1550   -0.15660
  1.1570   -0.15460
  1.1590   -0.15230
  1.1610   -0.14990
  1.1630   -0.14740
  1.1650   -0.14470
  1.1670   -0.14190
  1.1690   -0.13870
  1.1710   -0.13550
  1.1730   -0.13220
  1.1750   -0.12860
  1.1770   -0.12470
  1.1790   -0.12090
  1.1810   -0.11710
  1.1830   -0.11300
  1.1850   -0.10890
  1.1870   -0.10470
  1.1890   -0.10040
  1.1910   -0.09600
  1.1930   -0.09150
  1.1950   -0.08690
  1.1970   -0.08220
  1.1990   -0.07760
  1.2010   -0.07310
  1.2030   -0.06840
  1.2050   -0.06370
  1.2070   -0.05900
  1.2090   -0.05450
  1.2110   -0.04990
  1.2130   -0.04520
  1.2150   -0.04070
  1.2170   -0.03630
  1.2190   -0.03200
  1.2210   -0.02770
  1.2230   -0.02340
  1.2250   -0.01920
  1.2270   -0.01500
  1.2290   -0.01100
  1.2310   -0.00710
  1.2330   -0.00340
  1.2350    0.00020
  1.2370    0.00360
  1.2390    0.00710
  1.2410    0.01040
  1.2430    0.01340
  1.2450    0.01630
  1.2470    0.01910
  1.2490    0.02150
  1.2510    0.02380
  1.2530    0.02600
  1.2550    0.02800
  1.2570    0.02980
  1.2590    0.03130
  1.2610    0.03270
  1.2630    0.03390
  1.2650    0.03490
  1.2670    0.03580
  1.2690    0.03640
  1.2710    0.03690
  1.2730    0.03710
  1.2750    0.03710
  1.2770    0.03690
  1.2790    0.03650
  1.2810    0.03600
  1.2830    0.03530
  1.2850    0.03450
  1.2870    0.03340
  1.2890    0.03220
  1.2910    0.03090
  1.2930    0.02950
  1.2950    0.02800
  1.2970    0.02630
  1.2990    0.02450
  1.3010    0.02260
  1.3030    0.02080
  1.3050    0.01900
  1.3070    0.01680
  1.3090    0.01470
  1.3110    0.01250
  1.3130    0.01030
  1.3150    0.00810
  1.3170    0.00590
  1.3190    0.00380
  1.3210    0.00180
  1.3230   -0.00030
  1.3250   -0.00230
  1.3270   -0.00420
  1.3290   -0.00610
  1.3310   -0.00790
  1.3330   -0.00950
  1.3350   -0.01100
  1.3370   -0.01250
  1.3390   -0.01400
  1.3410   -0.01530
  1.3430   -0.01630
  1.3450   -0.01720
  1.3470   -0.01800
  1.3490   -0.01860
  1.3510   -0.01900
  1.3530   -0.01920
  1.3550   -0.01910
  1.3570   -0.01890
  1.3590   -0.01850
  1.3610   -0.01800
  1.3630   -0.01730
  1.3650   -0.01650
  1.3670   -0.01560
  1.3690   -0.01460
  1.3710   -0.01340
  1.3730   -0.01210
  1.3750   -0.01050
  1.3770   -0.00890
  1.3790   -0.00740
  1.3810   -0.00570
  1.3830   -0.00390
  1.3850   -0.00210
  1.3870   -0.00000
  1.3890    0.00190
  1.3910    0.00330
  1.3930    0.00480
  1.3950    0.00570
  1.3970    0.00650
  1.3990    0.00740
