# z (nm)   (kJ/mol)
  0.423000, 16.106600
  0.425000, 15.675200
  0.427000, 15.237800
  0.429000, 14.813600
  0.431000, 14.409600
  0.433000, 14.001400
  0.435000, 13.604000
  0.437000, 13.207000
  0.439000, 12.815700
  0.441000, 12.424600
  0.443000, 12.042800
  0.445000, 11.679400
  0.447000, 11.325400
  0.449000, 10.986000
  0.451000, 10.660700
  0.453000, 10.345300
  0.455000, 10.043000
  0.457000,  9.751600
  0.459000,  9.470700
  0.461000,  9.203700
  0.463000,  8.947200
  0.465000,  8.702100
  0.467000,  8.468300
  0.469000,  8.247600
  0.471000,  8.038700
  0.473000,  7.839800
  0.475000,  7.652600
  0.477000,  7.476900
  0.479000,  7.313400
  0.481000,  7.158100
  0.483000,  7.010800
  0.485000,  6.874800
  0.487000,  6.745300
  0.489000,  6.622300
  0.491000,  6.507000
  0.493000,  6.400300
  0.495000,  6.301900
  0.497000,  6.209500
  0.499000,  6.123400
  0.501000,  6.044000
  0.503000,  5.969900
  0.505000,  5.901100
  0.507000,  5.838400
  0.509000,  5.780300
  0.511000,  5.727100
  0.513000,  5.677900
  0.515000,  5.632700
  0.517000,  5.591500
  0.519000,  5.552200
  0.521000,  5.514900
  0.523000,  5.480500
  0.525000,  5.448500
  0.527000,  5.418300
  0.529000,  5.390000
  0.531000,  5.363100
  0.533000,  5.336800
  0.535000,  5.310900
  0.537000,  5.285000
  0.539000,  5.259400
  0.541000,  5.234600
  0.543000,  5.209600
  0.545000,  5.184100
  0.547000,  5.158200
  0.549000,  5.131900
  0.551000,  5.104900
  0.553000,  5.076800
  0.555000,  5.047900
  0.557000,  5.018100
  0.559000,  4.987300
  0.561000,  4.955900
  0.563000,  4.923800
  0.565000,  4.890500
  0.567000,  4.856500
  0.569000,  4.821800
  0.571000,  4.786600
  0.573000,  4.750800
  0.575000,  4.714500
  0.577000,  4.678000
  0.579000,  4.641500
  0.581000,  4.604700
  0.583000,  4.567800
  0.585000,  4.530600
  0.587000,  4.493800
  0.589000,  4.457400
  0.591000,  4.420700
  0.593000,  4.384400
  0.595000,  4.349000
  0.597000,  4.314100
  0.599000,  4.279600
  0.601000,  4.245700
  0.603000,  4.212300
  0.605000,  4.179200
  0.607000,  4.146700
  0.609000,  4.114700
  0.611000,  4.082800
  0.613000,  4.051300
  0.615000,  4.020100
  0.617000,  3.989100
  0.619000,  3.958400
  0.621000,  3.927800
  0.623000,  3.897100
  0.625000,  3.866200
  0.627000,  3.835000
  0.629000,  3.803500
  0.631000,  3.771700
  0.633000,  3.739400
  0.635000,  3.706300
  0.637000,  3.672200
  0.639000,  3.637200
  0.641000,  3.601000
  0.643000,  3.563900
  0.645000,  3.525700
  0.647000,  3.486000
  0.649000,  3.444700
  0.651000,  3.401900
  0.653000,  3.357700
  0.655000,  3.311800
  0.657000,  3.264100
  0.659000,  3.214900
  0.661000,  3.163900
  0.663000,  3.110700
  0.665000,  3.055800
  0.667000,  2.999600
  0.669000,  2.942100
  0.671000,  2.882700
  0.673000,  2.821700
  0.675000,  2.759400
  0.677000,  2.695700
  0.679000,  2.630900
  0.681000,  2.564800
  0.683000,  2.497800
  0.685000,  2.429700
  0.687000,  2.360100
  0.689000,  2.289800
  0.691000,  2.219300
  0.693000,  2.148400
  0.695000,  2.076800
  0.697000,  2.005200
  0.699000,  1.933400
  0.701000,  1.861600
  0.703000,  1.790100
  0.705000,  1.719000
  0.707000,  1.648300
  0.709000,  1.578200
  0.711000,  1.508800
  0.713000,  1.439800
  0.715000,  1.371400
  0.717000,  1.304000
  0.719000,  1.237700
  0.721000,  1.172800
  0.723000,  1.109000
  0.725000,  1.046500
  0.727000,  0.985400
  0.729000,  0.925500
  0.731000,  0.866900
  0.733000,  0.809900
  0.735000,  0.754200
  0.737000,  0.699500
  0.739000,  0.646200
  0.741000,  0.594600
  0.743000,  0.544400
  0.745000,  0.495500
  0.747000,  0.447900
  0.749000,  0.401500
  0.751000,  0.356500
  0.753000,  0.312600
  0.755000,  0.269900
  0.757000,  0.228600
  0.759000,  0.188300
  0.761000,  0.149100
  0.763000,  0.110900
  0.765000,  0.073700
  0.767000,  0.037300
  0.769000,  0.001800
  0.771000, -0.032900
  0.773000, -0.067000
  0.775000, -0.100600
  0.777000, -0.133500
  0.779000, -0.165700
  0.781000, -0.197500
  0.783000, -0.228600
  0.785000, -0.259400
  0.787000, -0.290100
  0.789000, -0.320300
  0.791000, -0.349800
  0.793000, -0.379100
  0.795000, -0.408200
  0.797000, -0.436600
  0.799000, -0.464700
  0.801000, -0.492400
  0.803000, -0.519800
  0.805000, -0.547000
  0.807000, -0.573700
  0.809000, -0.599800
  0.811000, -0.625700
  0.813000, -0.651300
  0.815000, -0.676300
  0.817000, -0.700800
  0.819000, -0.724800
  0.821000, -0.747800
  0.823000, -0.770100
  0.825000, -0.792000
  0.827000, -0.813300
  0.829000, -0.833800
  0.831000, -0.853500
  0.833000, -0.872100
  0.835000, -0.890000
  0.837000, -0.907200
  0.839000, -0.923500
  0.841000, -0.938900
  0.843000, -0.953200
  0.845000, -0.966500
  0.847000, -0.979100
  0.849000, -0.990500
  0.851000, -1.001000
  0.853000, -1.010300
  0.855000, -1.018200
  0.857000, -1.025200
  0.859000, -1.031200
  0.861000, -1.036200
  0.863000, -1.040000
  0.865000, -1.042500
  0.867000, -1.043900
  0.869000, -1.044200
  0.871000, -1.043500
  0.873000, -1.041700
  0.875000, -1.038800
  0.877000, -1.034700
  0.879000, -1.029500
  0.881000, -1.023200
  0.883000, -1.015900
  0.885000, -1.007700
  0.887000, -0.998500
  0.889000, -0.988200
  0.891000, -0.977000
  0.893000, -0.964800
  0.895000, -0.951700
  0.897000, -0.937800
  0.899000, -0.923000
  0.901000, -0.907400
  0.903000, -0.891000
  0.905000, -0.873800
  0.907000, -0.855800
  0.909000, -0.837100
  0.911000, -0.817800
  0.913000, -0.798100
  0.915000, -0.777600
  0.917000, -0.756600
  0.919000, -0.735200
  0.921000, -0.713200
  0.923000, -0.690900
  0.925000, -0.668200
  0.927000, -0.645200
  0.929000, -0.621900
  0.931000, -0.598400
  0.933000, -0.574700
  0.935000, -0.550900
  0.937000, -0.527000
  0.939000, -0.503000
  0.941000, -0.479000
  0.943000, -0.454900
  0.945000, -0.431000
  0.947000, -0.407100
  0.949000, -0.383300
  0.951000, -0.359800
  0.953000, -0.336400
  0.955000, -0.313200
  0.957000, -0.290300
  0.959000, -0.267800
  0.961000, -0.245800
  0.963000, -0.224100
  0.965000, -0.202900
  0.967000, -0.182200
  0.969000, -0.161900
  0.971000, -0.142100
  0.973000, -0.122900
  0.975000, -0.104100
  0.977000, -0.085900
  0.979000, -0.068400
  0.981000, -0.051600
  0.983000, -0.035400
  0.985000, -0.019900
  0.987000, -0.005100
  0.989000,  0.008900
  0.991000,  0.022100
  0.993000,  0.034700
  0.995000,  0.046600
  0.997000,  0.057700
  0.999000,  0.068100
  1.001000,  0.077700
  1.003000,  0.086600
  1.005000,  0.095000
  1.007000,  0.102500
  1.009000,  0.109300
  1.011000,  0.115300
  1.013000,  0.120600
  1.015000,  0.125200
  1.017000,  0.129300
  1.019000,  0.132600
  1.021000,  0.135200
  1.023000,  0.136900
  1.025000,  0.138100
  1.027000,  0.138700
  1.029000,  0.138700
  1.031000,  0.138000
  1.033000,  0.136700
  1.035000,  0.135000
  1.037000,  0.132800
  1.039000,  0.130200
  1.041000,  0.127000
  1.043000,  0.123300
  1.045000,  0.119000
  1.047000,  0.114300
  1.049000,  0.109200
  1.051000,  0.103700
  1.053000,  0.098000
  1.055000,  0.091900
  1.057000,  0.085400
  1.059000,  0.078700
  1.061000,  0.071800
  1.063000,  0.064500
  1.065000,  0.056900
  1.067000,  0.049300
  1.069000,  0.041500
  1.071000,  0.033500
  1.073000,  0.025200
  1.075000,  0.016900
  1.077000,  0.008300
  1.079000, -0.000300
  1.081000, -0.009000
  1.083000, -0.017700
  1.085000, -0.026400
  1.087000, -0.035200
  1.089000, -0.044000
  1.091000, -0.052800
  1.093000, -0.061600
  1.095000, -0.070400
  1.097000, -0.079100
  1.099000, -0.087800
  1.101000, -0.096300
  1.103000, -0.104700
  1.105000, -0.113000
  1.107000, -0.121100
  1.109000, -0.129200
  1.111000, -0.137100
  1.113000, -0.144900
  1.115000, -0.152500
  1.117000, -0.159900
  1.119000, -0.167200
  1.121000, -0.174400
  1.123000, -0.181400
  1.125000, -0.188000
  1.127000, -0.194300
  1.129000, -0.200400
  1.131000, -0.206400
  1.133000, -0.212000
  1.135000, -0.217300
  1.137000, -0.222300
  1.139000, -0.227100
  1.141000, -0.231600
  1.143000, -0.235800
  1.145000, -0.239700
  1.147000, -0.243400
  1.149000, -0.246700
  1.151000, -0.249700
  1.153000, -0.252500
  1.155000, -0.254900
  1.157000, -0.257000
  1.159000, -0.258900
  1.161000, -0.260500
  1.163000, -0.261700
  1.165000, -0.262600
  1.167000, -0.263200
  1.169000, -0.263500
  1.171000, -0.263500
  1.173000, -0.263300
  1.175000, -0.262900
  1.177000, -0.262100
  1.179000, -0.261100
  1.181000, -0.259800
  1.183000, -0.258200
  1.185000, -0.256400
  1.187000, -0.254300
  1.189000, -0.251900
  1.191000, -0.249300
  1.193000, -0.246600
  1.195000, -0.243600
  1.197000, -0.240400
  1.199000, -0.237000
  1.201000, -0.233600
  1.203000, -0.230000
  1.205000, -0.226200
  1.207000, -0.222300
  1.209000, -0.218200
  1.211000, -0.213900
  1.213000, -0.209400
  1.215000, -0.204800
  1.217000, -0.200200
  1.219000, -0.195500
  1.221000, -0.190600
  1.223000, -0.185600
  1.225000, -0.180500
  1.227000, -0.175300
  1.229000, -0.170000
  1.231000, -0.164700
  1.233000, -0.159200
  1.235000, -0.153700
  1.237000, -0.148200
  1.239000, -0.142500
  1.241000, -0.136800
  1.243000, -0.131100
  1.245000, -0.125300
  1.247000, -0.119500
  1.249000, -0.113600
  1.251000, -0.107800
  1.253000, -0.102000
  1.255000, -0.096200
  1.257000, -0.090400
  1.259000, -0.084500
  1.261000, -0.078700
  1.263000, -0.072800
  1.265000, -0.067000
  1.267000, -0.061200
  1.269000, -0.055500
  1.271000, -0.049800
  1.273000, -0.044200
  1.275000, -0.038500
  1.277000, -0.032900
  1.279000, -0.027400
  1.281000, -0.022000
  1.283000, -0.016600
  1.285000, -0.011200
  1.287000, -0.006000
  1.289000, -0.000900
  1.291000,  0.004000
  1.293000,  0.008900
  1.295000,  0.013600
  1.297000,  0.018400
  1.299000,  0.023000
  1.301000,  0.027500
  1.303000,  0.031900
  1.305000,  0.036100
  1.307000,  0.040100
  1.309000,  0.044000
  1.311000,  0.048000
  1.313000,  0.052000
  1.315000,  0.055800
  1.317000,  0.059600
  1.319000,  0.063400
  1.321000,  0.066900
  1.323000,  0.070300
  1.325000,  0.073700
  1.327000,  0.076900
  1.329000,  0.080100
  1.331000,  0.083400
  1.333000,  0.086600
  1.335000,  0.089800
  1.337000,  0.092900
  1.339000,  0.095900
  1.341000,  0.099100
  1.343000,  0.102200
  1.345000,  0.105200
  1.347000,  0.108300
  1.349000,  0.111500
  1.351000,  0.114800
  1.353000,  0.118100
  1.355000,  0.121300
  1.357000,  0.124600
  1.359000,  0.127900
  1.361000,  0.131300
  1.363000,  0.134800
  1.365000,  0.138100
  1.367000,  0.141500
  1.369000,  0.144900
  1.371000,  0.148400
  1.373000,  0.151900
  1.375000,  0.155400
  1.377000,  0.158900
  1.379000,  0.162200
  1.381000,  0.165600
  1.383000,  0.169000
  1.385000,  0.172100
  1.387000,  0.175200
  1.389000,  0.178100
  1.391000,  0.180700
  1.393000,  0.183200
  1.395000,  0.185400
  1.397000,  0.187400
  1.399000,  0.188900
