# z (nm)   (kJ/mol)
  0.427000, 15.049100
  0.429000, 14.589000
  0.431000, 14.105300
  0.433000, 13.605400
  0.435000, 13.110800
  0.437000, 12.623300
  0.439000, 12.128500
  0.441000, 11.648800
  0.443000, 11.176400
  0.445000, 10.685200
  0.447000, 10.190800
  0.449000,  9.702500
  0.451000,  9.201100
  0.453000,  8.689300
  0.455000,  8.184300
  0.457000,  7.678800
  0.459000,  7.168900
  0.461000,  6.666000
  0.463000,  6.168000
  0.465000,  5.677900
  0.467000,  5.199500
  0.469000,  4.724700
  0.471000,  4.257300
  0.473000,  3.804500
  0.475000,  3.357600
  0.477000,  2.918900
  0.479000,  2.490700
  0.481000,  2.069100
  0.483000,  1.656000
  0.485000,  1.252600
  0.487000,  0.860500
  0.489000,  0.481200
  0.491000,  0.113300
  0.493000, -0.244300
  0.495000, -0.593200
  0.497000, -0.930700
  0.499000, -1.254600
  0.501000, -1.567200
  0.503000, -1.866800
  0.505000, -2.155600
  0.507000, -2.433100
  0.509000, -2.695600
  0.511000, -2.943000
  0.513000, -3.178200
  0.515000, -3.400100
  0.517000, -3.609000
  0.519000, -3.804400
  0.521000, -3.985400
  0.523000, -4.151800
  0.525000, -4.303700
  0.527000, -4.441800
  0.529000, -4.566100
  0.531000, -4.676000
  0.533000, -4.770700
  0.535000, -4.850500
  0.537000, -4.914400
  0.539000, -4.965500
  0.541000, -5.006700
  0.543000, -5.034700
  0.545000, -5.050800
  0.547000, -5.054200
  0.549000, -5.045000
  0.551000, -5.025800
  0.553000, -4.994300
  0.555000, -4.953400
  0.557000, -4.901600
  0.559000, -4.838000
  0.561000, -4.765400
  0.563000, -4.684700
  0.565000, -4.597200
  0.567000, -4.505600
  0.569000, -4.405300
  0.571000, -4.296000
  0.573000, -4.181600
  0.575000, -4.060600
  0.577000, -3.936400
  0.579000, -3.811400
  0.581000, -3.686300
  0.583000, -3.556900
  0.585000, -3.422700
  0.587000, -3.289700
  0.589000, -3.158000
  0.591000, -3.024900
  0.593000, -2.890300
  0.595000, -2.758300
  0.597000, -2.629100
  0.599000, -2.500600
  0.601000, -2.373000
  0.603000, -2.246100
  0.605000, -2.123800
  0.607000, -2.006000
  0.609000, -1.890700
  0.611000, -1.779000
  0.613000, -1.671700
  0.615000, -1.567100
  0.617000, -1.466600
  0.619000, -1.370400
  0.621000, -1.278900
  0.623000, -1.191400
  0.625000, -1.106900
  0.627000, -1.026900
  0.629000, -0.949700
  0.631000, -0.877400
  0.633000, -0.808800
  0.635000, -0.743300
  0.637000, -0.683900
  0.639000, -0.630000
  0.641000, -0.579900
  0.643000, -0.534500
  0.645000, -0.494300
  0.647000, -0.458700
  0.649000, -0.426700
  0.651000, -0.398300
  0.653000, -0.374900
  0.655000, -0.355400
  0.657000, -0.339500
  0.659000, -0.328200
  0.661000, -0.320600
  0.663000, -0.316800
  0.665000, -0.317700
  0.667000, -0.322900
  0.669000, -0.331100
  0.671000, -0.342000
  0.673000, -0.356700
  0.675000, -0.376700
  0.677000, -0.400800
  0.679000, -0.426700
  0.681000, -0.454900
  0.683000, -0.486100
  0.685000, -0.521200
  0.687000, -0.559100
  0.689000, -0.598000
  0.691000, -0.640400
  0.693000, -0.686200
  0.695000, -0.733400
  0.697000, -0.781800
  0.699000, -0.831800
  0.701000, -0.883900
  0.703000, -0.938100
  0.705000, -0.994300
  0.707000, -1.050800
  0.709000, -1.107800
  0.711000, -1.165200
  0.713000, -1.223100
  0.715000, -1.282400
  0.717000, -1.342200
  0.719000, -1.402200
  0.721000, -1.462200
  0.723000, -1.521400
  0.725000, -1.579900
  0.727000, -1.637300
  0.729000, -1.694000
  0.731000, -1.749900
  0.733000, -1.804200
  0.735000, -1.857500
  0.737000, -1.909600
  0.739000, -1.959300
  0.741000, -2.006700
  0.743000, -2.052800
  0.745000, -2.097100
  0.747000, -2.139200
  0.749000, -2.178800
  0.751000, -2.215700
  0.753000, -2.250200
  0.755000, -2.282200
  0.757000, -2.311300
  0.759000, -2.337000
  0.761000, -2.359500
  0.763000, -2.379500
  0.765000, -2.396900
  0.767000, -2.411300
  0.769000, -2.422900
  0.771000, -2.431300
  0.773000, -2.435900
  0.775000, -2.437200
  0.777000, -2.436000
  0.779000, -2.432600
  0.781000, -2.426600
  0.783000, -2.417600
  0.785000, -2.405600
  0.787000, -2.390600
  0.789000, -2.373500
  0.791000, -2.354900
  0.793000, -2.333900
  0.795000, -2.311100
  0.797000, -2.287100
  0.799000, -2.260900
  0.801000, -2.232600
  0.803000, -2.202100
  0.805000, -2.170000
  0.807000, -2.136900
  0.809000, -2.102600
  0.811000, -2.067700
  0.813000, -2.032300
  0.815000, -1.996000
  0.817000, -1.959600
  0.819000, -1.923500
  0.821000, -1.887000
  0.823000, -1.850100
  0.825000, -1.813000
  0.827000, -1.776300
  0.829000, -1.740000
  0.831000, -1.704200
  0.833000, -1.668900
  0.835000, -1.634600
  0.837000, -1.601200
  0.839000, -1.568300
  0.841000, -1.536400
  0.843000, -1.505900
  0.845000, -1.476500
  0.847000, -1.447900
  0.849000, -1.420800
  0.851000, -1.394700
  0.853000, -1.369300
  0.855000, -1.346000
  0.857000, -1.324000
  0.859000, -1.302800
  0.861000, -1.283400
  0.863000, -1.264900
  0.865000, -1.247300
  0.867000, -1.231000
  0.869000, -1.215800
  0.871000, -1.201600
  0.873000, -1.188800
  0.875000, -1.177100
  0.877000, -1.166400
  0.879000, -1.156400
  0.881000, -1.147100
  0.883000, -1.138700
  0.885000, -1.131200
  0.887000, -1.124200
  0.889000, -1.117700
  0.891000, -1.111800
  0.893000, -1.106400
  0.895000, -1.101700
  0.897000, -1.097500
  0.899000, -1.093400
  0.901000, -1.089600
  0.903000, -1.086000
  0.905000, -1.082300
  0.907000, -1.078600
  0.909000, -1.074700
  0.911000, -1.070900
  0.913000, -1.067100
  0.915000, -1.062900
  0.917000, -1.058300
  0.919000, -1.053500
  0.921000, -1.048500
  0.923000, -1.043200
  0.925000, -1.037300
  0.927000, -1.030800
  0.929000, -1.024000
  0.931000, -1.016900
  0.933000, -1.009300
  0.935000, -1.001100
  0.937000, -0.992200
  0.939000, -0.982900
  0.941000, -0.973200
  0.943000, -0.963000
  0.945000, -0.952200
  0.947000, -0.940800
  0.949000, -0.929000
  0.951000, -0.916600
  0.953000, -0.903800
  0.955000, -0.890600
  0.957000, -0.877000
  0.959000, -0.862900
  0.961000, -0.848600
  0.963000, -0.834000
  0.965000, -0.819100
  0.967000, -0.804000
  0.969000, -0.788800
  0.971000, -0.773100
  0.973000, -0.757200
  0.975000, -0.741300
  0.977000, -0.725200
  0.979000, -0.709000
  0.981000, -0.692900
  0.983000, -0.676600
  0.985000, -0.660400
  0.987000, -0.644400
  0.989000, -0.628400
  0.991000, -0.612700
  0.993000, -0.597100
  0.995000, -0.581900
  0.997000, -0.567100
  0.999000, -0.552500
  1.001000, -0.538100
  1.003000, -0.524200
  1.005000, -0.510700
  1.007000, -0.497600
  1.009000, -0.484800
  1.011000, -0.472200
  1.013000, -0.460100
  1.015000, -0.448500
  1.017000, -0.437300
  1.019000, -0.426400
  1.021000, -0.416200
  1.023000, -0.406600
  1.025000, -0.397200
  1.027000, -0.388100
  1.029000, -0.379600
  1.031000, -0.371500
  1.033000, -0.363800
  1.035000, -0.356500
  1.037000, -0.349900
  1.039000, -0.343800
  1.041000, -0.337900
  1.043000, -0.332500
  1.045000, -0.327000
  1.047000, -0.321800
  1.049000, -0.317000
  1.051000, -0.312500
  1.053000, -0.308400
  1.055000, -0.304600
  1.057000, -0.301000
  1.059000, -0.297600
  1.061000, -0.294500
  1.063000, -0.291700
  1.065000, -0.288900
  1.067000, -0.286400
  1.069000, -0.283900
  1.071000, -0.281500
  1.073000, -0.279300
  1.075000, -0.277000
  1.077000, -0.274800
  1.079000, -0.272600
  1.081000, -0.270500
  1.083000, -0.268500
  1.085000, -0.266400
  1.087000, -0.264300
  1.089000, -0.262400
  1.091000, -0.260400
  1.093000, -0.258400
  1.095000, -0.256300
  1.097000, -0.254300
  1.099000, -0.252300
  1.101000, -0.250200
  1.103000, -0.248300
  1.105000, -0.246200
  1.107000, -0.243900
  1.109000, -0.241600
  1.111000, -0.239100
  1.113000, -0.236700
  1.115000, -0.234500
  1.117000, -0.232400
  1.119000, -0.230000
  1.121000, -0.227700
  1.123000, -0.225400
  1.125000, -0.223000
  1.127000, -0.220900
  1.129000, -0.218700
  1.131000, -0.216700
  1.133000, -0.214700
  1.135000, -0.212700
  1.137000, -0.210900
  1.139000, -0.209100
  1.141000, -0.207200
  1.143000, -0.205600
  1.145000, -0.204100
  1.147000, -0.202700
  1.149000, -0.201200
  1.151000, -0.200100
  1.153000, -0.199100
  1.155000, -0.198100
  1.157000, -0.197200
  1.159000, -0.196600
  1.161000, -0.196100
  1.163000, -0.195900
  1.165000, -0.195500
  1.167000, -0.195000
  1.169000, -0.194700
  1.171000, -0.194400
  1.173000, -0.194300
  1.175000, -0.194100
  1.177000, -0.194000
  1.179000, -0.193900
  1.181000, -0.193800
  1.183000, -0.193800
  1.185000, -0.193700
  1.187000, -0.193600
  1.189000, -0.193500
  1.191000, -0.193500
  1.193000, -0.193200
  1.195000, -0.192700
  1.197000, -0.192200
  1.199000, -0.191700
  1.201000, -0.191000
  1.203000, -0.190200
  1.205000, -0.189200
  1.207000, -0.188100
  1.209000, -0.186700
  1.211000, -0.185100
  1.213000, -0.183300
  1.215000, -0.181500
  1.217000, -0.179400
  1.219000, -0.176900
  1.221000, -0.174300
  1.223000, -0.171600
  1.225000, -0.168700
  1.227000, -0.165600
  1.229000, -0.162300
  1.231000, -0.158800
  1.233000, -0.155000
  1.235000, -0.151100
  1.237000, -0.147000
  1.239000, -0.142600
  1.241000, -0.137900
  1.243000, -0.133100
  1.245000, -0.128000
  1.247000, -0.122900
  1.249000, -0.117600
  1.251000, -0.112000
  1.253000, -0.106400
  1.255000, -0.100600
  1.257000, -0.094800
  1.259000, -0.089000
  1.261000, -0.083000
  1.263000, -0.077000
  1.265000, -0.071000
  1.267000, -0.065000
  1.269000, -0.058900
  1.271000, -0.052700
  1.273000, -0.046600
  1.275000, -0.040400
  1.277000, -0.034300
  1.279000, -0.028400
  1.281000, -0.022500
  1.283000, -0.016600
  1.285000, -0.010700
  1.287000, -0.005000
  1.289000,  0.000600
  1.291000,  0.006100
  1.293000,  0.011500
  1.295000,  0.016800
  1.297000,  0.022000
  1.299000,  0.027000
  1.301000,  0.031800
  1.303000,  0.036500
  1.305000,  0.041100
  1.307000,  0.045300
  1.309000,  0.049400
  1.311000,  0.053300
  1.313000,  0.057300
  1.315000,  0.061000
  1.317000,  0.064400
  1.319000,  0.067800
  1.321000,  0.071100
  1.323000,  0.074100
  1.325000,  0.076900
  1.327000,  0.079700
  1.329000,  0.082300
  1.331000,  0.084900
  1.333000,  0.087400
  1.335000,  0.089900
  1.337000,  0.092500
  1.339000,  0.094800
  1.341000,  0.097100
  1.343000,  0.099400
  1.345000,  0.101500
  1.347000,  0.103500
  1.349000,  0.105400
  1.351000,  0.107400
  1.353000,  0.109600
  1.355000,  0.111800
  1.357000,  0.114100
  1.359000,  0.116300
  1.361000,  0.118600
  1.363000,  0.120900
  1.365000,  0.123300
  1.367000,  0.125800
  1.369000,  0.128300
  1.371000,  0.130800
  1.373000,  0.133600
  1.375000,  0.136700
  1.377000,  0.139800
  1.379000,  0.142900
  1.381000,  0.146000
  1.383000,  0.148900
  1.385000,  0.151800
  1.387000,  0.154900
  1.389000,  0.158100
  1.391000,  0.161100
  1.393000,  0.164000
  1.395000,  0.166700
  1.397000,  0.169400
  1.399000,  0.171900
