# z (nm)   (kJ/mol)
  0.427000, 13.079500
  0.429000, 12.637200
  0.431000, 12.160900
  0.433000, 11.683000
  0.435000, 11.224500
  0.437000, 10.776800
  0.439000, 10.341100
  0.441000,  9.898000
  0.443000,  9.451700
  0.445000,  9.024200
  0.447000,  8.607200
  0.449000,  8.199600
  0.451000,  7.808000
  0.453000,  7.432700
  0.455000,  7.068000
  0.457000,  6.711000
  0.459000,  6.373400
  0.461000,  6.054900
  0.463000,  5.740700
  0.465000,  5.436700
  0.467000,  5.147300
  0.469000,  4.867600
  0.471000,  4.598400
  0.473000,  4.343400
  0.475000,  4.098400
  0.477000,  3.858800
  0.479000,  3.633100
  0.481000,  3.421900
  0.483000,  3.221500
  0.485000,  3.031300
  0.487000,  2.849700
  0.489000,  2.677600
  0.491000,  2.515300
  0.493000,  2.361800
  0.495000,  2.215700
  0.497000,  2.077600
  0.499000,  1.947600
  0.501000,  1.826300
  0.503000,  1.713600
  0.505000,  1.607900
  0.507000,  1.509400
  0.509000,  1.418300
  0.511000,  1.333700
  0.513000,  1.256100
  0.515000,  1.185500
  0.517000,  1.120400
  0.519000,  1.060800
  0.521000,  1.006600
  0.523000,  0.958000
  0.525000,  0.914900
  0.527000,  0.876300
  0.529000,  0.842500
  0.531000,  0.813200
  0.533000,  0.786900
  0.535000,  0.764600
  0.537000,  0.745700
  0.539000,  0.729900
  0.541000,  0.717700
  0.543000,  0.707900
  0.545000,  0.701100
  0.547000,  0.697100
  0.549000,  0.694900
  0.551000,  0.694900
  0.553000,  0.697900
  0.555000,  0.704300
  0.557000,  0.713000
  0.559000,  0.723000
  0.561000,  0.735700
  0.563000,  0.751000
  0.565000,  0.768500
  0.567000,  0.789100
  0.569000,  0.812000
  0.571000,  0.836700
  0.573000,  0.863900
  0.575000,  0.893400
  0.577000,  0.924800
  0.579000,  0.958300
  0.581000,  0.994500
  0.583000,  1.034000
  0.585000,  1.075600
  0.587000,  1.118500
  0.589000,  1.162800
  0.591000,  1.209600
  0.593000,  1.257800
  0.595000,  1.307000
  0.597000,  1.358100
  0.599000,  1.410700
  0.601000,  1.464600
  0.603000,  1.518800
  0.605000,  1.573600
  0.607000,  1.629300
  0.609000,  1.684800
  0.611000,  1.740400
  0.613000,  1.795800
  0.615000,  1.850800
  0.617000,  1.904900
  0.619000,  1.957500
  0.621000,  2.008900
  0.623000,  2.059300
  0.625000,  2.107900
  0.627000,  2.154700
  0.629000,  2.200100
  0.631000,  2.242800
  0.633000,  2.282300
  0.635000,  2.319500
  0.637000,  2.354400
  0.639000,  2.386300
  0.641000,  2.414800
  0.643000,  2.440100
  0.645000,  2.462000
  0.647000,  2.480100
  0.649000,  2.495000
  0.651000,  2.506200
  0.653000,  2.513500
  0.655000,  2.516800
  0.657000,  2.516000
  0.659000,  2.511100
  0.661000,  2.502400
  0.663000,  2.490000
  0.665000,  2.473400
  0.667000,  2.452600
  0.669000,  2.428700
  0.671000,  2.401300
  0.673000,  2.370400
  0.675000,  2.336500
  0.677000,  2.299400
  0.679000,  2.259300
  0.681000,  2.217100
  0.683000,  2.172300
  0.685000,  2.124800
  0.687000,  2.075100
  0.689000,  2.023400
  0.691000,  1.970600
  0.693000,  1.916100
  0.695000,  1.858500
  0.697000,  1.799100
  0.699000,  1.739800
  0.701000,  1.680000
  0.703000,  1.619900
  0.705000,  1.558800
  0.707000,  1.497000
  0.709000,  1.435200
  0.711000,  1.373100
  0.713000,  1.311000
  0.715000,  1.249500
  0.717000,  1.188800
  0.719000,  1.128300
  0.721000,  1.068500
  0.723000,  1.009800
  0.725000,  0.951800
  0.727000,  0.894800
  0.729000,  0.839100
  0.731000,  0.784500
  0.733000,  0.731300
  0.735000,  0.679600
  0.737000,  0.629100
  0.739000,  0.579900
  0.741000,  0.532100
  0.743000,  0.485600
  0.745000,  0.440800
  0.747000,  0.397400
  0.749000,  0.355200
  0.751000,  0.314300
  0.753000,  0.275200
  0.755000,  0.237000
  0.757000,  0.200000
  0.759000,  0.164500
  0.761000,  0.130000
  0.763000,  0.096800
  0.765000,  0.064700
  0.767000,  0.033400
  0.769000,  0.003200
  0.771000, -0.025800
  0.773000, -0.054100
  0.775000, -0.081500
  0.777000, -0.108600
  0.779000, -0.135000
  0.781000, -0.160700
  0.783000, -0.185600
  0.785000, -0.210000
  0.787000, -0.234200
  0.789000, -0.258200
  0.791000, -0.281600
  0.793000, -0.304700
  0.795000, -0.327600
  0.797000, -0.349800
  0.799000, -0.371700
  0.801000, -0.393400
  0.803000, -0.415000
  0.805000, -0.436700
  0.807000, -0.458200
  0.809000, -0.479500
  0.811000, -0.500500
  0.813000, -0.521200
  0.815000, -0.541900
  0.817000, -0.562400
  0.819000, -0.582400
  0.821000, -0.602300
  0.823000, -0.622100
  0.825000, -0.641500
  0.827000, -0.660600
  0.829000, -0.679500
  0.831000, -0.698000
  0.833000, -0.716100
  0.835000, -0.733800
  0.837000, -0.751000
  0.839000, -0.767900
  0.841000, -0.784300
  0.843000, -0.800300
  0.845000, -0.815700
  0.847000, -0.830400
  0.849000, -0.844600
  0.851000, -0.858300
  0.853000, -0.871400
  0.855000, -0.883900
  0.857000, -0.895700
  0.859000, -0.906900
  0.861000, -0.917500
  0.863000, -0.927300
  0.865000, -0.936400
  0.867000, -0.945000
  0.869000, -0.952900
  0.871000, -0.960000
  0.873000, -0.966400
  0.875000, -0.972300
  0.877000, -0.977400
  0.879000, -0.981700
  0.881000, -0.985500
  0.883000, -0.988600
  0.885000, -0.990900
  0.887000, -0.992500
  0.889000, -0.993400
  0.891000, -0.993700
  0.893000, -0.993500
  0.895000, -0.992700
  0.897000, -0.991400
  0.899000, -0.989600
  0.901000, -0.987200
  0.903000, -0.984100
  0.905000, -0.980400
  0.907000, -0.976100
  0.909000, -0.971300
  0.911000, -0.966200
  0.913000, -0.960700
  0.915000, -0.954600
  0.917000, -0.948000
  0.919000, -0.941000
  0.921000, -0.933600
  0.923000, -0.925800
  0.925000, -0.917500
  0.927000, -0.908700
  0.929000, -0.899700
  0.931000, -0.890400
  0.933000, -0.880700
  0.935000, -0.870800
  0.937000, -0.860300
  0.939000, -0.849400
  0.941000, -0.838100
  0.943000, -0.826600
  0.945000, -0.814900
  0.947000, -0.803000
  0.949000, -0.790800
  0.951000, -0.778300
  0.953000, -0.765200
  0.955000, -0.751700
  0.957000, -0.738200
  0.959000, -0.724600
  0.961000, -0.710700
  0.963000, -0.696500
  0.965000, -0.682300
  0.967000, -0.667800
  0.969000, -0.653100
  0.971000, -0.638200
  0.973000, -0.623100
  0.975000, -0.608100
  0.977000, -0.592700
  0.979000, -0.577000
  0.981000, -0.561100
  0.983000, -0.545400
  0.985000, -0.529500
  0.987000, -0.513600
  0.989000, -0.497800
  0.991000, -0.481900
  0.993000, -0.466100
  0.995000, -0.450200
  0.997000, -0.434300
  0.999000, -0.418300
  1.001000, -0.402300
  1.003000, -0.386400
  1.005000, -0.370600
  1.007000, -0.355100
  1.009000, -0.339500
  1.011000, -0.324000
  1.013000, -0.308700
  1.015000, -0.293600
  1.017000, -0.278800
  1.019000, -0.264400
  1.021000, -0.250000
  1.023000, -0.236000
  1.025000, -0.222000
  1.027000, -0.208400
  1.029000, -0.195200
  1.031000, -0.182400
  1.033000, -0.169700
  1.035000, -0.157200
  1.037000, -0.145100
  1.039000, -0.133500
  1.041000, -0.122200
  1.043000, -0.111300
  1.045000, -0.100800
  1.047000, -0.090700
  1.049000, -0.081000
  1.051000, -0.071600
  1.053000, -0.062800
  1.055000, -0.054700
  1.057000, -0.046900
  1.059000, -0.039600
  1.061000, -0.032900
  1.063000, -0.026500
  1.065000, -0.020400
  1.067000, -0.015100
  1.069000, -0.010400
  1.071000, -0.006100
  1.073000, -0.002100
  1.075000,  0.001600
  1.077000,  0.005000
  1.079000,  0.007800
  1.081000,  0.010200
  1.083000,  0.012300
  1.085000,  0.013900
  1.087000,  0.015100
  1.089000,  0.016100
  1.091000,  0.016500
  1.093000,  0.016300
  1.095000,  0.015800
  1.097000,  0.015100
  1.099000,  0.014200
  1.101000,  0.013000
  1.103000,  0.011500
  1.105000,  0.009600
  1.107000,  0.007300
  1.109000,  0.004900
  1.111000,  0.002300
  1.113000, -0.000500
  1.115000, -0.003600
  1.117000, -0.007100
  1.119000, -0.010600
  1.121000, -0.014100
  1.123000, -0.017800
  1.125000, -0.021900
  1.127000, -0.026100
  1.129000, -0.030200
  1.131000, -0.034200
  1.133000, -0.038400
  1.135000, -0.042800
  1.137000, -0.047200
  1.139000, -0.051600
  1.141000, -0.056100
  1.143000, -0.060600
  1.145000, -0.065000
  1.147000, -0.069300
  1.149000, -0.073500
  1.151000, -0.077600
  1.153000, -0.081700
  1.155000, -0.085900
  1.157000, -0.089900
  1.159000, -0.093800
  1.161000, -0.097700
  1.163000, -0.101500
  1.165000, -0.105100
  1.167000, -0.108500
  1.169000, -0.111800
  1.171000, -0.115000
  1.173000, -0.118000
  1.175000, -0.120700
  1.177000, -0.123300
  1.179000, -0.125800
  1.181000, -0.128300
  1.183000, -0.130600
  1.185000, -0.132600
  1.187000, -0.134400
  1.189000, -0.135900
  1.191000, -0.137200
  1.193000, -0.138300
  1.195000, -0.139400
  1.197000, -0.140300
  1.199000, -0.140900
  1.201000, -0.141300
  1.203000, -0.141700
  1.205000, -0.142000
  1.207000, -0.142200
  1.209000, -0.142200
  1.211000, -0.141700
  1.213000, -0.141100
  1.215000, -0.140400
  1.217000, -0.139500
  1.219000, -0.138500
  1.221000, -0.137200
  1.223000, -0.135800
  1.225000, -0.134300
  1.227000, -0.132600
  1.229000, -0.130800
  1.231000, -0.128700
  1.233000, -0.126700
  1.235000, -0.124400
  1.237000, -0.122000
  1.239000, -0.119500
  1.241000, -0.117000
  1.243000, -0.114600
  1.245000, -0.112100
  1.247000, -0.109300
  1.249000, -0.106100
  1.251000, -0.103100
  1.253000, -0.100000
  1.255000, -0.096800
  1.257000, -0.093400
  1.259000, -0.090100
  1.261000, -0.086700
  1.263000, -0.083100
  1.265000, -0.079600
  1.267000, -0.076200
  1.269000, -0.072700
  1.271000, -0.069200
  1.273000, -0.065600
  1.275000, -0.062100
  1.277000, -0.058500
  1.279000, -0.054800
  1.281000, -0.051100
  1.283000, -0.047300
  1.285000, -0.043500
  1.287000, -0.039800
  1.289000, -0.036200
  1.291000, -0.032500
  1.293000, -0.028700
  1.295000, -0.025000
  1.297000, -0.021200
  1.299000, -0.017500
  1.301000, -0.013800
  1.303000, -0.010000
  1.305000, -0.006100
  1.307000, -0.002300
  1.309000,  0.001500
  1.311000,  0.005300
  1.313000,  0.009200
  1.315000,  0.013200
  1.317000,  0.017200
  1.319000,  0.021400
  1.321000,  0.025700
  1.323000,  0.029800
  1.325000,  0.033900
  1.327000,  0.038100
  1.329000,  0.042400
  1.331000,  0.046900
  1.333000,  0.051400
  1.335000,  0.055900
  1.337000,  0.060500
  1.339000,  0.065100
  1.341000,  0.069900
  1.343000,  0.074600
  1.345000,  0.079500
  1.347000,  0.084500
  1.349000,  0.089600
  1.351000,  0.094800
  1.353000,  0.100100
  1.355000,  0.105400
  1.357000,  0.110800
  1.359000,  0.116400
  1.361000,  0.122000
  1.363000,  0.127600
  1.365000,  0.133300
  1.367000,  0.139200
  1.369000,  0.145200
  1.371000,  0.151400
  1.373000,  0.157500
  1.375000,  0.163600
  1.377000,  0.169800
  1.379000,  0.176200
  1.381000,  0.182400
  1.383000,  0.188400
  1.385000,  0.194500
  1.387000,  0.200600
  1.389000,  0.206700
  1.391000,  0.212600
  1.393000,  0.218100
  1.395000,  0.223300
  1.397000,  0.228200
  1.399000,  0.232600
