# z (nm)   (kJ/mol)
  0.415000, 15.357400
  0.419000, 14.303300
  0.421000, 13.766100
  0.423000, 13.254900
  0.425000, 12.763300
  0.427000, 12.267900
  0.429000, 11.787800
  0.431000, 11.327700
  0.433000, 10.879200
  0.435000, 10.441900
  0.437000, 10.010000
  0.439000,  9.586200
  0.441000,  9.181400
  0.443000,  8.788000
  0.445000,  8.404400
  0.447000,  8.037000
  0.449000,  7.681300
  0.451000,  7.341200
  0.453000,  7.017400
  0.455000,  6.704200
  0.457000,  6.403700
  0.459000,  6.117400
  0.461000,  5.842300
  0.463000,  5.580500
  0.465000,  5.332400
  0.467000,  5.096000
  0.469000,  4.869000
  0.471000,  4.654300
  0.473000,  4.455000
  0.475000,  4.267900
  0.477000,  4.091200
  0.479000,  3.925700
  0.481000,  3.772100
  0.483000,  3.628400
  0.485000,  3.493900
  0.487000,  3.369000
  0.489000,  3.251100
  0.491000,  3.139500
  0.493000,  3.035900
  0.495000,  2.942200
  0.497000,  2.856600
  0.499000,  2.776500
  0.501000,  2.701800
  0.503000,  2.632400
  0.505000,  2.569000
  0.507000,  2.511000
  0.509000,  2.457000
  0.511000,  2.407200
  0.513000,  2.362100
  0.515000,  2.321200
  0.517000,  2.283000
  0.519000,  2.247700
  0.521000,  2.216700
  0.523000,  2.187800
  0.525000,  2.159200
  0.527000,  2.133400
  0.529000,  2.110600
  0.531000,  2.088000
  0.533000,  2.066200
  0.535000,  2.046300
  0.537000,  2.025700
  0.539000,  2.004400
  0.541000,  1.984000
  0.543000,  1.963100
  0.545000,  1.942800
  0.547000,  1.923100
  0.549000,  1.902800
  0.551000,  1.882600
  0.553000,  1.861600
  0.555000,  1.840300
  0.557000,  1.818800
  0.559000,  1.797600
  0.561000,  1.776400
  0.563000,  1.755000
  0.565000,  1.733800
  0.567000,  1.713200
  0.569000,  1.693100
  0.571000,  1.673600
  0.573000,  1.654900
  0.575000,  1.637100
  0.577000,  1.620400
  0.579000,  1.604800
  0.581000,  1.590700
  0.583000,  1.577800
  0.585000,  1.566500
  0.587000,  1.556900
  0.589000,  1.549000
  0.591000,  1.542700
  0.593000,  1.538100
  0.595000,  1.535500
  0.597000,  1.534600
  0.599000,  1.535100
  0.601000,  1.537200
  0.603000,  1.541000
  0.605000,  1.546600
  0.607000,  1.554100
  0.609000,  1.562800
  0.611000,  1.572900
  0.613000,  1.584300
  0.615000,  1.596600
  0.617000,  1.609900
  0.619000,  1.624300
  0.621000,  1.639300
  0.623000,  1.655000
  0.625000,  1.671100
  0.627000,  1.687800
  0.629000,  1.705100
  0.631000,  1.721800
  0.633000,  1.737700
  0.635000,  1.753200
  0.637000,  1.768300
  0.639000,  1.782400
  0.641000,  1.795200
  0.643000,  1.806400
  0.645000,  1.815400
  0.647000,  1.822000
  0.649000,  1.827300
  0.651000,  1.830700
  0.653000,  1.831700
  0.655000,  1.830800
  0.657000,  1.827000
  0.659000,  1.820300
  0.661000,  1.811100
  0.663000,  1.799400
  0.665000,  1.784800
  0.667000,  1.766700
  0.669000,  1.745600
  0.671000,  1.722000
  0.673000,  1.695400
  0.675000,  1.665600
  0.677000,  1.633200
  0.679000,  1.598000
  0.681000,  1.559700
  0.683000,  1.519100
  0.685000,  1.476200
  0.687000,  1.430900
  0.689000,  1.383200
  0.691000,  1.333400
  0.693000,  1.281900
  0.695000,  1.228700
  0.697000,  1.173900
  0.699000,  1.117800
  0.701000,  1.060100
  0.703000,  1.001100
  0.705000,  0.941600
  0.707000,  0.881100
  0.709000,  0.819600
  0.711000,  0.757700
  0.713000,  0.695400
  0.715000,  0.633200
  0.717000,  0.570800
  0.719000,  0.508100
  0.721000,  0.446200
  0.723000,  0.385500
  0.725000,  0.325100
  0.727000,  0.264900
  0.729000,  0.205900
  0.731000,  0.148300
  0.733000,  0.091600
  0.735000,  0.036100
  0.737000, -0.017800
  0.739000, -0.070400
  0.741000, -0.121900
  0.743000, -0.171800
  0.745000, -0.220100
  0.747000, -0.266900
  0.749000, -0.312000
  0.751000, -0.355400
  0.753000, -0.397400
  0.755000, -0.437600
  0.757000, -0.475900
  0.759000, -0.512500
  0.761000, -0.547300
  0.763000, -0.580500
  0.765000, -0.612300
  0.767000, -0.642300
  0.769000, -0.670900
  0.771000, -0.698100
  0.773000, -0.723600
  0.775000, -0.747700
  0.777000, -0.770600
  0.779000, -0.792100
  0.781000, -0.812100
  0.783000, -0.830700
  0.785000, -0.848500
  0.787000, -0.865200
  0.789000, -0.880600
  0.791000, -0.895000
  0.793000, -0.908600
  0.795000, -0.921400
  0.797000, -0.933100
  0.799000, -0.943900
  0.801000, -0.954000
  0.803000, -0.963400
  0.805000, -0.972000
  0.807000, -0.980000
  0.809000, -0.987400
  0.811000, -0.994100
  0.813000, -0.999900
  0.815000, -1.005400
  0.817000, -1.010200
  0.819000, -1.014100
  0.821000, -1.017600
  0.823000, -1.020500
  0.825000, -1.022800
  0.827000, -1.024500
  0.829000, -1.025500
  0.831000, -1.026100
  0.833000, -1.026200
  0.835000, -1.025700
  0.837000, -1.024700
  0.839000, -1.023200
  0.841000, -1.021200
  0.843000, -1.018500
  0.845000, -1.015300
  0.847000, -1.011300
  0.849000, -1.006700
  0.851000, -1.001500
  0.853000, -0.995800
  0.855000, -0.989600
  0.857000, -0.982900
  0.859000, -0.975700
  0.861000, -0.967900
  0.863000, -0.959500
  0.865000, -0.950500
  0.867000, -0.940800
  0.869000, -0.930700
  0.871000, -0.920100
  0.873000, -0.908900
  0.875000, -0.897300
  0.877000, -0.885100
  0.879000, -0.872500
  0.881000, -0.859500
  0.883000, -0.846000
  0.885000, -0.832100
  0.887000, -0.818000
  0.889000, -0.803600
  0.891000, -0.788900
  0.893000, -0.773800
  0.895000, -0.758500
  0.897000, -0.743100
  0.899000, -0.727300
  0.901000, -0.711300
  0.903000, -0.695200
  0.905000, -0.679000
  0.907000, -0.662700
  0.909000, -0.646500
  0.911000, -0.630300
  0.913000, -0.614100
  0.915000, -0.597900
  0.917000, -0.581900
  0.919000, -0.566000
  0.921000, -0.550200
  0.923000, -0.534700
  0.925000, -0.519600
  0.927000, -0.504500
  0.929000, -0.489600
  0.931000, -0.475100
  0.933000, -0.460700
  0.935000, -0.446700
  0.937000, -0.433100
  0.939000, -0.419800
  0.941000, -0.406900
  0.943000, -0.394400
  0.945000, -0.382400
  0.947000, -0.370800
  0.949000, -0.359600
  0.951000, -0.348800
  0.953000, -0.338300
  0.955000, -0.328300
  0.957000, -0.318600
  0.959000, -0.309300
  0.961000, -0.300400
  0.963000, -0.291800
  0.965000, -0.283800
  0.967000, -0.276100
  0.969000, -0.268600
  0.971000, -0.261500
  0.973000, -0.254700
  0.975000, -0.248400
  0.977000, -0.242300
  0.979000, -0.236500
  0.981000, -0.231000
  0.983000, -0.225800
  0.985000, -0.221100
  0.987000, -0.216500
  0.989000, -0.212000
  0.991000, -0.207700
  0.993000, -0.203700
  0.995000, -0.199700
  0.997000, -0.196000
  0.999000, -0.192600
  1.001000, -0.189200
  1.003000, -0.186000
  1.005000, -0.182900
  1.007000, -0.179800
  1.009000, -0.176600
  1.011000, -0.173700
  1.013000, -0.171000
  1.015000, -0.168100
  1.017000, -0.165300
  1.019000, -0.162800
  1.021000, -0.160300
  1.023000, -0.157700
  1.025000, -0.155000
  1.027000, -0.152600
  1.029000, -0.150300
  1.031000, -0.147900
  1.033000, -0.145400
  1.035000, -0.143000
  1.037000, -0.140900
  1.039000, -0.138800
  1.041000, -0.136600
  1.043000, -0.134400
  1.045000, -0.132400
  1.047000, -0.130500
  1.049000, -0.128700
  1.051000, -0.127000
  1.053000, -0.125200
  1.055000, -0.123500
  1.057000, -0.121900
  1.059000, -0.120600
  1.061000, -0.119100
  1.063000, -0.117700
  1.065000, -0.116700
  1.067000, -0.115800
  1.069000, -0.114900
  1.071000, -0.114200
  1.073000, -0.113500
  1.075000, -0.112800
  1.077000, -0.112400
  1.079000, -0.112200
  1.081000, -0.111800
  1.083000, -0.111600
  1.085000, -0.111600
  1.087000, -0.111900
  1.089000, -0.112300
  1.091000, -0.112600
  1.093000, -0.113100
  1.095000, -0.113800
  1.097000, -0.114600
  1.099000, -0.115500
  1.101000, -0.116500
  1.103000, -0.117600
  1.105000, -0.118800
  1.107000, -0.120100
  1.109000, -0.121300
  1.111000, -0.122800
  1.113000, -0.124400
  1.115000, -0.126000
  1.117000, -0.127500
  1.119000, -0.129300
  1.121000, -0.131200
  1.123000, -0.133100
  1.125000, -0.135000
  1.127000, -0.137000
  1.129000, -0.139000
  1.131000, -0.141000
  1.133000, -0.143100
  1.135000, -0.144900
  1.137000, -0.146800
  1.139000, -0.148800
  1.141000, -0.150700
  1.143000, -0.152400
  1.145000, -0.153900
  1.147000, -0.155300
  1.149000, -0.156700
  1.151000, -0.158300
  1.153000, -0.159700
  1.155000, -0.161000
  1.157000, -0.162300
  1.159000, -0.163300
  1.161000, -0.164100
  1.163000, -0.164900
  1.165000, -0.165600
  1.167000, -0.166100
  1.169000, -0.166500
  1.171000, -0.166700
  1.173000, -0.166800
  1.175000, -0.166800
  1.177000, -0.166500
  1.179000, -0.166200
  1.181000, -0.165700
  1.183000, -0.164900
  1.185000, -0.163900
  1.187000, -0.162900
  1.189000, -0.161800
  1.191000, -0.160400
  1.193000, -0.159100
  1.195000, -0.157600
  1.197000, -0.156000
  1.199000, -0.154200
  1.201000, -0.152400
  1.203000, -0.150500
  1.205000, -0.148700
  1.207000, -0.146800
  1.209000, -0.144700
  1.211000, -0.142500
  1.213000, -0.140300
  1.215000, -0.138000
  1.217000, -0.135700
  1.219000, -0.133300
  1.221000, -0.130900
  1.223000, -0.128600
  1.225000, -0.126200
  1.227000, -0.123900
  1.229000, -0.121400
  1.231000, -0.118900
  1.233000, -0.116500
  1.235000, -0.114000
  1.237000, -0.111500
  1.239000, -0.108900
  1.241000, -0.106500
  1.243000, -0.104100
  1.245000, -0.101500
  1.247000, -0.098900
  1.249000, -0.096400
  1.251000, -0.093900
  1.253000, -0.091400
  1.255000, -0.088900
  1.257000, -0.086300
  1.259000, -0.083600
  1.261000, -0.080900
  1.263000, -0.078300
  1.265000, -0.075600
  1.267000, -0.072700
  1.269000, -0.069800
  1.271000, -0.066800
  1.273000, -0.063700
  1.275000, -0.060500
  1.277000, -0.057200
  1.279000, -0.053900
  1.281000, -0.050500
  1.283000, -0.047100
  1.285000, -0.043500
  1.287000, -0.039900
  1.289000, -0.036300
  1.291000, -0.032500
  1.293000, -0.028700
  1.295000, -0.024800
  1.297000, -0.020800
  1.299000, -0.016600
  1.301000, -0.012500
  1.303000, -0.008300
  1.305000, -0.004000
  1.307000,  0.000400
  1.309000,  0.004900
  1.311000,  0.009400
  1.313000,  0.013900
  1.315000,  0.018500
  1.317000,  0.023100
  1.319000,  0.027800
  1.321000,  0.032500
  1.323000,  0.037200
  1.325000,  0.041800
  1.327000,  0.046500
  1.329000,  0.051200
  1.331000,  0.055900
  1.333000,  0.060600
  1.335000,  0.065300
  1.337000,  0.069900
  1.339000,  0.074600
  1.341000,  0.079200
  1.343000,  0.083700
  1.345000,  0.088200
  1.347000,  0.092600
  1.349000,  0.097000
  1.351000,  0.101500
  1.353000,  0.106000
  1.355000,  0.110300
  1.357000,  0.114500
  1.359000,  0.118700
  1.361000,  0.122900
  1.363000,  0.127000
  1.365000,  0.131000
  1.367000,  0.135100
  1.369000,  0.139100
  1.371000,  0.143100
  1.373000,  0.147100
  1.375000,  0.150900
  1.377000,  0.154500
  1.379000,  0.158100
  1.381000,  0.161900
  1.383000,  0.165500
  1.385000,  0.169200
  1.387000,  0.172600
  1.389000,  0.175800
  1.391000,  0.179100
  1.393000,  0.182200
  1.395000,  0.184900
  1.397000,  0.187300
  1.399000,  0.189500
