# z (nm)   (kJ/mol)
  0.425000, 18.427200
  0.427000, 18.099300
  0.429000, 17.702800
  0.431000, 17.326400
  0.433000, 16.927600
  0.435000, 16.522300
  0.437000, 16.134400
  0.439000, 15.732600
  0.441000, 15.311400
  0.443000, 14.894600
  0.445000, 14.486400
  0.447000, 14.080500
  0.449000, 13.676400
  0.451000, 13.276900
  0.453000, 12.889400
  0.455000, 12.508800
  0.457000, 12.132300
  0.459000, 11.765700
  0.461000, 11.411000
  0.463000, 11.062900
  0.465000, 10.719500
  0.467000, 10.385600
  0.469000, 10.065200
  0.471000,  9.756700
  0.473000,  9.456700
  0.475000,  9.164700
  0.477000,  8.882500
  0.479000,  8.610900
  0.481000,  8.352400
  0.483000,  8.106300
  0.485000,  7.871200
  0.487000,  7.643900
  0.489000,  7.423600
  0.491000,  7.215400
  0.493000,  7.018100
  0.495000,  6.829200
  0.497000,  6.650700
  0.499000,  6.483100
  0.501000,  6.326300
  0.503000,  6.177500
  0.505000,  6.035100
  0.507000,  5.902200
  0.509000,  5.778100
  0.511000,  5.661000
  0.513000,  5.551100
  0.515000,  5.448500
  0.517000,  5.353800
  0.519000,  5.266400
  0.521000,  5.185500
  0.523000,  5.111900
  0.525000,  5.045400
  0.527000,  4.985000
  0.529000,  4.930900
  0.531000,  4.882600
  0.533000,  4.839300
  0.535000,  4.801000
  0.537000,  4.768100
  0.539000,  4.739600
  0.541000,  4.715500
  0.543000,  4.696000
  0.545000,  4.679600
  0.547000,  4.665900
  0.549000,  4.655300
  0.551000,  4.647000
  0.553000,  4.642300
  0.555000,  4.639900
  0.557000,  4.639700
  0.559000,  4.642200
  0.561000,  4.645400
  0.563000,  4.650400
  0.565000,  4.657100
  0.567000,  4.663600
  0.569000,  4.669600
  0.571000,  4.677200
  0.573000,  4.685100
  0.575000,  4.691300
  0.577000,  4.697500
  0.579000,  4.703100
  0.581000,  4.706500
  0.583000,  4.708200
  0.585000,  4.708800
  0.587000,  4.707900
  0.589000,  4.705500
  0.591000,  4.701600
  0.593000,  4.696000
  0.595000,  4.688000
  0.597000,  4.677800
  0.599000,  4.665900
  0.601000,  4.652000
  0.603000,  4.635600
  0.605000,  4.616400
  0.607000,  4.594600
  0.609000,  4.570500
  0.611000,  4.544300
  0.613000,  4.515700
  0.615000,  4.484600
  0.617000,  4.451300
  0.619000,  4.415200
  0.621000,  4.376800
  0.623000,  4.336500
  0.625000,  4.293600
  0.627000,  4.248200
  0.629000,  4.201000
  0.631000,  4.151600
  0.633000,  4.099600
  0.635000,  4.045300
  0.637000,  3.988900
  0.639000,  3.930700
  0.641000,  3.870400
  0.643000,  3.807800
  0.645000,  3.743400
  0.647000,  3.677200
  0.649000,  3.609300
  0.651000,  3.540200
  0.653000,  3.469500
  0.655000,  3.397200
  0.657000,  3.323200
  0.659000,  3.247600
  0.661000,  3.171100
  0.663000,  3.093700
  0.665000,  3.014700
  0.667000,  2.934300
  0.669000,  2.853100
  0.671000,  2.771300
  0.673000,  2.689000
  0.675000,  2.605500
  0.677000,  2.520800
  0.679000,  2.436000
  0.681000,  2.350700
  0.683000,  2.264700
  0.685000,  2.178700
  0.687000,  2.092500
  0.689000,  2.006300
  0.691000,  1.919900
  0.693000,  1.833600
  0.695000,  1.747300
  0.697000,  1.661000
  0.699000,  1.575200
  0.701000,  1.489700
  0.703000,  1.404600
  0.705000,  1.320200
  0.707000,  1.236200
  0.709000,  1.152600
  0.711000,  1.069900
  0.713000,  0.988200
  0.715000,  0.907600
  0.717000,  0.827600
  0.719000,  0.748600
  0.721000,  0.670900
  0.723000,  0.594200
  0.725000,  0.518800
  0.727000,  0.444700
  0.729000,  0.371600
  0.731000,  0.300400
  0.733000,  0.230900
  0.735000,  0.162700
  0.737000,  0.095800
  0.739000,  0.030700
  0.741000, -0.032500
  0.743000, -0.094100
  0.745000, -0.154000
  0.747000, -0.211900
  0.749000, -0.267900
  0.751000, -0.322100
  0.753000, -0.374600
  0.755000, -0.425200
  0.757000, -0.473800
  0.759000, -0.520300
  0.761000, -0.564700
  0.763000, -0.607200
  0.765000, -0.647500
  0.767000, -0.685800
  0.769000, -0.721800
  0.771000, -0.755800
  0.773000, -0.787700
  0.775000, -0.817400
  0.777000, -0.845100
  0.779000, -0.870800
  0.781000, -0.894400
  0.783000, -0.915900
  0.785000, -0.935300
  0.787000, -0.952600
  0.789000, -0.967800
  0.791000, -0.980900
  0.793000, -0.992000
  0.795000, -1.001200
  0.797000, -1.008300
  0.799000, -1.013600
  0.801000, -1.016900
  0.803000, -1.018200
  0.805000, -1.017700
  0.807000, -1.015300
  0.809000, -1.011000
  0.811000, -1.004900
  0.813000, -0.997100
  0.815000, -0.987700
  0.817000, -0.976600
  0.819000, -0.963900
  0.821000, -0.949600
  0.823000, -0.933800
  0.825000, -0.916300
  0.827000, -0.897500
  0.829000, -0.877400
  0.831000, -0.856100
  0.833000, -0.833400
  0.835000, -0.809400
  0.837000, -0.784100
  0.839000, -0.757800
  0.841000, -0.730700
  0.843000, -0.702600
  0.845000, -0.673400
  0.847000, -0.643300
  0.849000, -0.612500
  0.851000, -0.580800
  0.853000, -0.548400
  0.855000, -0.515500
  0.857000, -0.482200
  0.859000, -0.448300
  0.861000, -0.413900
  0.863000, -0.379000
  0.865000, -0.344000
  0.867000, -0.308800
  0.869000, -0.273300
  0.871000, -0.237700
  0.873000, -0.202200
  0.875000, -0.166500
  0.877000, -0.130800
  0.879000, -0.095500
  0.881000, -0.060200
  0.883000, -0.025200
  0.885000,  0.009600
  0.887000,  0.044300
  0.889000,  0.078400
  0.891000,  0.112100
  0.893000,  0.145300
  0.895000,  0.177700
  0.897000,  0.209700
  0.899000,  0.241200
  0.901000,  0.272000
  0.903000,  0.302000
  0.905000,  0.331200
  0.907000,  0.359600
  0.909000,  0.387200
  0.911000,  0.413900
  0.913000,  0.439900
  0.915000,  0.464700
  0.917000,  0.488400
  0.919000,  0.511100
  0.921000,  0.532800
  0.923000,  0.553600
  0.925000,  0.573200
  0.927000,  0.591800
  0.929000,  0.609200
  0.931000,  0.625400
  0.933000,  0.640500
  0.935000,  0.654500
  0.937000,  0.667300
  0.939000,  0.678800
  0.941000,  0.689300
  0.943000,  0.698500
  0.945000,  0.706400
  0.947000,  0.712900
  0.949000,  0.718400
  0.951000,  0.722800
  0.953000,  0.725800
  0.955000,  0.727600
  0.957000,  0.728200
  0.959000,  0.727600
  0.961000,  0.725900
  0.963000,  0.723300
  0.965000,  0.719500
  0.967000,  0.714400
  0.969000,  0.708100
  0.971000,  0.700800
  0.973000,  0.692500
  0.975000,  0.683200
  0.977000,  0.672900
  0.979000,  0.661800
  0.981000,  0.649600
  0.983000,  0.636600
  0.985000,  0.622700
  0.987000,  0.607900
  0.989000,  0.592300
  0.991000,  0.575900
  0.993000,  0.558800
  0.995000,  0.541200
  0.997000,  0.523000
  0.999000,  0.504300
  1.001000,  0.485000
  1.003000,  0.465300
  1.005000,  0.445200
  1.007000,  0.424800
  1.009000,  0.404000
  1.011000,  0.382900
  1.013000,  0.361600
  1.015000,  0.340000
  1.017000,  0.318300
  1.019000,  0.296400
  1.021000,  0.274400
  1.023000,  0.252500
  1.025000,  0.230800
  1.027000,  0.209200
  1.029000,  0.187500
  1.031000,  0.166100
  1.033000,  0.144900
  1.035000,  0.123900
  1.037000,  0.103100
  1.039000,  0.082800
  1.041000,  0.062700
  1.043000,  0.043000
  1.045000,  0.023900
  1.047000,  0.005200
  1.049000, -0.013100
  1.051000, -0.030700
  1.053000, -0.047700
  1.055000, -0.064200
  1.057000, -0.080100
  1.059000, -0.095400
  1.061000, -0.110300
  1.063000, -0.124500
  1.065000, -0.137900
  1.067000, -0.150600
  1.069000, -0.162500
  1.071000, -0.173900
  1.073000, -0.184500
  1.075000, -0.194500
  1.077000, -0.203800
  1.079000, -0.212400
  1.081000, -0.220100
  1.083000, -0.227300
  1.085000, -0.233800
  1.087000, -0.239500
  1.089000, -0.244600
  1.091000, -0.249000
  1.093000, -0.252800
  1.095000, -0.256000
  1.097000, -0.258500
  1.099000, -0.260400
  1.101000, -0.261700
  1.103000, -0.262400
  1.105000, -0.262400
  1.107000, -0.261800
  1.109000, -0.260900
  1.111000, -0.259500
  1.113000, -0.257800
  1.115000, -0.255500
  1.117000, -0.252800
  1.119000, -0.249700
  1.121000, -0.246100
  1.123000, -0.242200
  1.125000, -0.238000
  1.127000, -0.233500
  1.129000, -0.228700
  1.131000, -0.223600
  1.133000, -0.218300
  1.135000, -0.212700
  1.137000, -0.207000
  1.139000, -0.201100
  1.141000, -0.194900
  1.143000, -0.188700
  1.145000, -0.182400
  1.147000, -0.176100
  1.149000, -0.169600
  1.151000, -0.163100
  1.153000, -0.156600
  1.155000, -0.150100
  1.157000, -0.143600
  1.159000, -0.137000
  1.161000, -0.130500
  1.163000, -0.124100
  1.165000, -0.117700
  1.167000, -0.111300
  1.169000, -0.105000
  1.171000, -0.098800
  1.173000, -0.092800
  1.175000, -0.086800
  1.177000, -0.081000
  1.179000, -0.075200
  1.181000, -0.069500
  1.183000, -0.064000
  1.185000, -0.058700
  1.187000, -0.053400
  1.189000, -0.048300
  1.191000, -0.043300
  1.193000, -0.038400
  1.195000, -0.033600
  1.197000, -0.029000
  1.199000, -0.024400
  1.201000, -0.020000
  1.203000, -0.015700
  1.205000, -0.011500
  1.207000, -0.007300
  1.209000, -0.003300
  1.211000,  0.000700
  1.213000,  0.004500
  1.215000,  0.008200
  1.217000,  0.011700
  1.219000,  0.015100
  1.221000,  0.018400
  1.223000,  0.021700
  1.225000,  0.024800
  1.227000,  0.027700
  1.229000,  0.030500
  1.231000,  0.033300
  1.233000,  0.036000
  1.235000,  0.038700
  1.237000,  0.041300
  1.239000,  0.043700
  1.241000,  0.045900
  1.243000,  0.048000
  1.245000,  0.050000
  1.247000,  0.051900
  1.249000,  0.053600
  1.251000,  0.055400
  1.253000,  0.056900
  1.255000,  0.058200
  1.257000,  0.059400
  1.259000,  0.060200
  1.261000,  0.061100
  1.263000,  0.061900
  1.265000,  0.062500
  1.267000,  0.062900
  1.269000,  0.063100
  1.271000,  0.063000
  1.273000,  0.062800
  1.275000,  0.062400
  1.277000,  0.061600
  1.279000,  0.060600
  1.281000,  0.059500
  1.283000,  0.058300
  1.285000,  0.056800
  1.287000,  0.055000
  1.289000,  0.052900
  1.291000,  0.050600
  1.293000,  0.048200
  1.295000,  0.045500
  1.297000,  0.042700
  1.299000,  0.039800
  1.301000,  0.036700
  1.303000,  0.033300
  1.305000,  0.029800
  1.307000,  0.026300
  1.309000,  0.022600
  1.311000,  0.018600
  1.313000,  0.014500
  1.315000,  0.010300
  1.317000,  0.006100
  1.319000,  0.001800
  1.321000, -0.002600
  1.323000, -0.007000
  1.325000, -0.011400
  1.327000, -0.015900
  1.329000, -0.020400
  1.331000, -0.024800
  1.333000, -0.029100
  1.335000, -0.033400
  1.337000, -0.037500
  1.339000, -0.041600
  1.341000, -0.045600
  1.343000, -0.049300
  1.345000, -0.052900
  1.347000, -0.056000
  1.349000, -0.058900
  1.351000, -0.061500
  1.353000, -0.064000
  1.355000, -0.066300
  1.357000, -0.068400
  1.359000, -0.070000
  1.361000, -0.071500
  1.363000, -0.072800
  1.365000, -0.073800
  1.367000, -0.074500
  1.369000, -0.074900
  1.371000, -0.075000
  1.373000, -0.074700
  1.375000, -0.074100
  1.377000, -0.073300
  1.379000, -0.072300
  1.381000, -0.071100
  1.383000, -0.069600
  1.385000, -0.067900
  1.387000, -0.066100
  1.389000, -0.064400
  1.391000, -0.062400
  1.393000, -0.060300
  1.395000, -0.058300
  1.397000, -0.056500
  1.399000, -0.054800
