# z (nm)   (kJ/mol)
  0.303000, 18.662300
  0.305000, 18.569500
  0.307000, 18.483900
  0.309000, 18.397000
  0.311000, 18.294900
  0.313000, 18.207000
  0.315000, 18.116900
  0.317000, 18.009400
  0.319000, 17.902300
  0.321000, 17.799600
  0.323000, 17.688700
  0.325000, 17.572400
  0.327000, 17.456500
  0.329000, 17.336600
  0.331000, 17.208600
  0.333000, 17.082400
  0.335000, 16.959400
  0.337000, 16.828000
  0.339000, 16.693600
  0.341000, 16.556400
  0.343000, 16.411700
  0.345000, 16.263500
  0.347000, 16.116900
  0.349000, 15.971000
  0.351000, 15.819200
  0.353000, 15.663300
  0.355000, 15.506900
  0.357000, 15.350800
  0.359000, 15.193900
  0.361000, 15.034300
  0.363000, 14.874200
  0.365000, 14.714400
  0.367000, 14.557000
  0.369000, 14.399700
  0.371000, 14.237800
  0.373000, 14.076900
  0.375000, 13.917500
  0.377000, 13.755600
  0.379000, 13.596500
  0.381000, 13.440700
  0.383000, 13.284900
  0.385000, 13.129100
  0.387000, 12.971700
  0.389000, 12.815200
  0.391000, 12.661200
  0.393000, 12.506500
  0.395000, 12.353900
  0.397000, 12.201900
  0.399000, 12.052300
  0.401000, 11.903200
  0.403000, 11.752400
  0.405000, 11.603800
  0.407000, 11.460700
  0.409000, 11.322100
  0.411000, 11.180300
  0.413000, 11.036200
  0.415000, 10.896300
  0.417000, 10.758500
  0.419000, 10.621200
  0.421000, 10.487600
  0.423000, 10.354800
  0.425000, 10.224300
  0.427000, 10.093700
  0.429000,  9.961300
  0.431000,  9.829700
  0.433000,  9.698900
  0.435000,  9.570400
  0.437000,  9.442300
  0.439000,  9.311800
  0.441000,  9.180900
  0.443000,  9.050000
  0.445000,  8.919000
  0.447000,  8.788000
  0.449000,  8.657500
  0.451000,  8.527600
  0.453000,  8.395000
  0.455000,  8.260900
  0.457000,  8.125900
  0.459000,  7.990100
  0.461000,  7.853900
  0.463000,  7.717500
  0.465000,  7.579900
  0.467000,  7.440400
  0.469000,  7.299400
  0.471000,  7.156600
  0.473000,  7.013700
  0.475000,  6.870600
  0.477000,  6.726800
  0.479000,  6.581500
  0.481000,  6.435500
  0.483000,  6.289200
  0.485000,  6.140500
  0.487000,  5.991200
  0.489000,  5.841300
  0.491000,  5.689600
  0.493000,  5.537100
  0.495000,  5.382500
  0.497000,  5.227600
  0.499000,  5.073500
  0.501000,  4.920200
  0.503000,  4.766400
  0.505000,  4.611100
  0.507000,  4.455200
  0.509000,  4.298800
  0.511000,  4.143100
  0.513000,  3.987600
  0.515000,  3.832600
  0.517000,  3.678000
  0.519000,  3.523500
  0.521000,  3.370000
  0.523000,  3.216800
  0.525000,  3.065200
  0.527000,  2.915000
  0.529000,  2.766400
  0.531000,  2.619300
  0.533000,  2.473300
  0.535000,  2.329700
  0.537000,  2.189100
  0.539000,  2.050700
  0.541000,  1.913700
  0.543000,  1.778300
  0.545000,  1.645100
  0.547000,  1.514900
  0.549000,  1.387500
  0.551000,  1.263100
  0.553000,  1.141800
  0.555000,  1.023300
  0.557000,  0.907900
  0.559000,  0.796200
  0.561000,  0.687800
  0.563000,  0.582300
  0.565000,  0.480200
  0.567000,  0.381100
  0.569000,  0.285400
  0.571000,  0.193300
  0.573000,  0.104400
  0.575000,  0.018900
  0.577000, -0.063100
  0.579000, -0.141400
  0.581000, -0.216200
  0.583000, -0.287100
  0.585000, -0.354700
  0.587000, -0.419400
  0.589000, -0.480800
  0.591000, -0.539100
  0.593000, -0.594100
  0.595000, -0.645600
  0.597000, -0.693800
  0.599000, -0.738900
  0.601000, -0.781000
  0.603000, -0.820300
  0.605000, -0.856800
  0.607000, -0.890600
  0.609000, -0.921700
  0.611000, -0.950300
  0.613000, -0.976200
  0.615000, -0.999700
  0.617000, -1.021300
  0.619000, -1.040500
  0.621000, -1.057200
  0.623000, -1.071800
  0.625000, -1.084900
  0.627000, -1.096400
  0.629000, -1.105900
  0.631000, -1.113600
  0.633000, -1.120000
  0.635000, -1.125000
  0.637000, -1.128500
  0.639000, -1.130800
  0.641000, -1.132100
  0.643000, -1.132400
  0.645000, -1.131400
  0.647000, -1.129200
  0.649000, -1.126100
  0.651000, -1.122400
  0.653000, -1.118000
  0.655000, -1.112700
  0.657000, -1.106700
  0.659000, -1.100400
  0.661000, -1.093500
  0.663000, -1.085800
  0.665000, -1.077600
  0.667000, -1.069300
  0.669000, -1.060600
  0.671000, -1.051400
  0.673000, -1.041900
  0.675000, -1.032200
  0.677000, -1.022400
  0.679000, -1.012300
  0.681000, -1.001900
  0.683000, -0.991500
  0.685000, -0.980700
  0.687000, -0.969700
  0.689000, -0.958700
  0.691000, -0.947600
  0.693000, -0.936300
  0.695000, -0.924900
  0.697000, -0.913600
  0.699000, -0.902300
  0.701000, -0.890900
  0.703000, -0.879500
  0.705000, -0.868000
  0.707000, -0.856500
  0.709000, -0.845100
  0.711000, -0.833400
  0.713000, -0.821700
  0.715000, -0.810300
  0.717000, -0.798700
  0.719000, -0.787100
  0.721000, -0.775600
  0.723000, -0.764100
  0.725000, -0.752600
  0.727000, -0.741100
  0.729000, -0.729700
  0.731000, -0.718300
  0.733000, -0.706800
  0.735000, -0.695500
  0.737000, -0.684100
  0.739000, -0.672800
  0.741000, -0.661700
  0.743000, -0.650400
  0.745000, -0.639100
  0.747000, -0.627800
  0.749000, -0.616600
  0.751000, -0.605400
  0.753000, -0.594300
  0.755000, -0.583200
  0.757000, -0.572300
  0.759000, -0.561300
  0.761000, -0.550400
  0.763000, -0.539600
  0.765000, -0.528900
  0.767000, -0.518300
  0.769000, -0.507600
  0.771000, -0.496900
  0.773000, -0.486300
  0.775000, -0.475800
  0.777000, -0.465400
  0.779000, -0.455100
  0.781000, -0.444700
  0.783000, -0.434500
  0.785000, -0.424400
  0.787000, -0.414300
  0.789000, -0.404300
  0.791000, -0.394400
  0.793000, -0.384600
  0.795000, -0.374900
  0.797000, -0.365200
  0.799000, -0.355600
  0.801000, -0.346100
  0.803000, -0.336700
  0.805000, -0.327400
  0.807000, -0.318100
  0.809000, -0.308900
  0.811000, -0.299900
  0.813000, -0.291000
  0.815000, -0.282300
  0.817000, -0.273500
  0.819000, -0.264900
  0.821000, -0.256500
  0.823000, -0.248300
  0.825000, -0.240200
  0.827000, -0.232300
  0.829000, -0.224400
  0.831000, -0.216800
  0.833000, -0.209300
  0.835000, -0.201900
  0.837000, -0.194900
  0.839000, -0.188000
  0.841000, -0.181300
  0.843000, -0.174800
  0.845000, -0.168600
  0.847000, -0.162400
  0.849000, -0.156400
  0.851000, -0.150700
  0.853000, -0.145100
  0.855000, -0.139700
  0.857000, -0.134500
  0.859000, -0.129600
  0.861000, -0.124900
  0.863000, -0.120400
  0.865000, -0.116100
  0.867000, -0.112000
  0.869000, -0.108200
  0.871000, -0.104600
  0.873000, -0.101100
  0.875000, -0.097800
  0.877000, -0.094700
  0.879000, -0.091900
  0.881000, -0.089200
  0.883000, -0.086500
  0.885000, -0.084100
  0.887000, -0.081900
  0.889000, -0.079800
  0.891000, -0.077900
  0.893000, -0.076200
  0.895000, -0.074600
  0.897000, -0.073100
  0.899000, -0.071700
  0.901000, -0.070600
  0.903000, -0.069600
  0.905000, -0.068600
  0.907000, -0.067700
  0.909000, -0.067000
  0.911000, -0.066400
  0.913000, -0.066000
  0.915000, -0.065600
  0.917000, -0.065300
  0.919000, -0.065000
  0.921000, -0.064900
  0.923000, -0.064900
  0.925000, -0.065000
  0.927000, -0.065100
  0.929000, -0.065200
  0.931000, -0.065500
  0.933000, -0.065800
  0.935000, -0.066100
  0.937000, -0.066400
  0.939000, -0.066800
  0.941000, -0.067400
  0.943000, -0.067900
  0.945000, -0.068600
  0.947000, -0.069300
  0.949000, -0.070000
  0.951000, -0.070600
  0.953000, -0.071200
  0.955000, -0.071900
  0.957000, -0.072500
  0.959000, -0.073200
  0.961000, -0.073900
  0.963000, -0.074600
  0.965000, -0.075300
  0.967000, -0.075900
  0.969000, -0.076400
  0.971000, -0.077000
  0.973000, -0.077500
  0.975000, -0.077800
  0.977000, -0.078100
  0.979000, -0.078400
  0.981000, -0.078600
  0.983000, -0.078800
  0.985000, -0.078900
  0.987000, -0.078700
  0.989000, -0.078600
  0.991000, -0.078400
  0.993000, -0.078000
  0.995000, -0.077500
  0.997000, -0.076700
  0.999000, -0.076100
  1.001000, -0.075300
  1.003000, -0.074400
  1.005000, -0.073300
  1.007000, -0.072200
  1.009000, -0.071000
  1.011000, -0.069700
  1.013000, -0.068100
  1.015000, -0.066300
  1.017000, -0.064400
  1.019000, -0.062400
  1.021000, -0.060400
  1.023000, -0.058100
  1.025000, -0.055900
  1.027000, -0.053700
  1.029000, -0.051300
  1.031000, -0.048800
  1.033000, -0.046200
  1.035000, -0.043600
  1.037000, -0.040800
  1.039000, -0.038000
  1.041000, -0.035200
  1.043000, -0.032400
  1.045000, -0.029700
  1.047000, -0.026900
  1.049000, -0.023900
  1.051000, -0.021000
  1.053000, -0.018100
  1.055000, -0.015100
  1.057000, -0.012200
  1.059000, -0.009400
  1.061000, -0.006700
  1.063000, -0.004100
  1.065000, -0.001400
  1.067000,  0.001000
  1.069000,  0.003400
  1.071000,  0.005800
  1.073000,  0.008100
  1.075000,  0.010300
  1.077000,  0.012400
  1.079000,  0.014400
  1.081000,  0.016300
  1.083000,  0.018100
  1.085000,  0.019800
  1.087000,  0.021400
  1.089000,  0.022900
  1.091000,  0.024100
  1.093000,  0.025200
  1.095000,  0.026200
  1.097000,  0.027100
  1.099000,  0.027800
  1.101000,  0.028500
  1.103000,  0.029100
  1.105000,  0.029600
  1.107000,  0.030100
  1.109000,  0.030400
  1.111000,  0.030500
  1.113000,  0.030700
  1.115000,  0.030700
  1.117000,  0.030600
  1.119000,  0.030600
  1.121000,  0.030500
  1.123000,  0.030400
  1.125000,  0.030200
  1.127000,  0.030000
  1.129000,  0.029800
  1.131000,  0.029500
  1.133000,  0.029200
  1.135000,  0.029000
  1.137000,  0.028700
  1.139000,  0.028400
  1.141000,  0.028100
  1.143000,  0.027800
  1.145000,  0.027600
  1.147000,  0.027300
  1.149000,  0.027100
  1.151000,  0.026900
  1.153000,  0.026700
  1.155000,  0.026600
  1.157000,  0.026400
  1.159000,  0.026400
  1.161000,  0.026400
  1.163000,  0.026400
  1.165000,  0.026400
  1.167000,  0.026400
  1.169000,  0.026500
  1.171000,  0.026600
  1.173000,  0.026700
  1.175000,  0.026900
  1.177000,  0.027000
  1.179000,  0.027200
  1.181000,  0.027300
  1.183000,  0.027500
  1.185000,  0.027700
  1.187000,  0.027900
  1.189000,  0.028000
  1.191000,  0.028000
  1.193000,  0.028200
  1.195000,  0.028400
  1.197000,  0.028600
  1.199000,  0.028700
  1.201000,  0.028500
  1.203000,  0.028600
  1.205000,  0.028600
  1.207000,  0.028500
  1.209000,  0.028700
  1.211000,  0.028700
  1.213000,  0.028500
  1.215000,  0.028400
  1.217000,  0.028200
  1.219000,  0.027900
  1.221000,  0.027500
  1.223000,  0.027200
  1.225000,  0.027000
  1.227000,  0.026600
  1.229000,  0.026100
  1.231000,  0.025600
  1.233000,  0.024900
  1.235000,  0.024000
  1.237000,  0.023200
  1.239000,  0.022400
  1.241000,  0.021600
  1.243000,  0.020600
  1.245000,  0.019400
  1.247000,  0.018200
  1.249000,  0.017100
  1.251000,  0.015800
  1.253000,  0.014500
  1.255000,  0.013200
  1.257000,  0.011700
  1.259000,  0.010200
  1.261000,  0.008600
  1.263000,  0.006700
  1.265000,  0.004900
  1.267000,  0.003000
  1.269000,  0.001100
  1.271000, -0.000900
  1.273000, -0.002900
  1.275000, -0.004900
  1.277000, -0.007000
  1.279000, -0.009000
  1.281000, -0.011200
  1.283000, -0.013300
  1.285000, -0.015400
  1.287000, -0.017300
  1.289000, -0.019200
  1.291000, -0.021100
  1.293000, -0.023000
  1.295000, -0.024800
  1.297000, -0.026500
  1.299000, -0.028200
  1.301000, -0.030000
  1.303000, -0.031700
  1.305000, -0.033200
  1.307000, -0.034500
  1.309000, -0.035800
  1.311000, -0.037100
  1.313000, -0.038200
  1.315000, -0.039000
  1.317000, -0.039600
  1.319000, -0.040100
  1.321000, -0.040400
  1.323000, -0.040600
  1.325000, -0.040600
  1.327000, -0.040300
  1.329000, -0.039800
  1.331000, -0.039200
  1.333000, -0.038400
  1.335000, -0.037300
  1.337000, -0.036000
  1.339000, -0.034500
  1.341000, -0.032900
  1.343000, -0.031100
  1.345000, -0.029000
  1.347000, -0.026600
  1.349000, -0.024300
  1.351000, -0.021700
  1.353000, -0.018900
  1.355000, -0.016100
  1.357000, -0.013200
  1.359000, -0.010000
  1.361000, -0.006700
  1.363000, -0.003300
  1.365000, -0.000000
  1.367000,  0.003300
  1.369000,  0.006900
  1.371000,  0.010300
  1.373000,  0.013900
  1.375000,  0.017500
  1.377000,  0.021000
  1.379000,  0.024400
  1.381000,  0.027800
  1.383000,  0.031000
  1.385000,  0.034100
  1.387000,  0.036900
  1.389000,  0.039300
  1.391000,  0.041500
  1.393000,  0.043300
  1.395000,  0.044800
  1.397000,  0.045900
  1.399000,  0.046600
