# z (nm)   (kJ/mol)
  0.2670    9.18920
  0.2690    8.86220
  0.2710    8.53800
  0.2730    8.15120
  0.2750    7.77660
  0.2770    7.41470
  0.2790    7.06010
  0.2810    6.70760
  0.2830    6.35020
  0.2850    6.00540
  0.2870    5.66140
  0.2890    5.31750
  0.2910    4.97170
  0.2930    4.64620
  0.2950    4.33690
  0.2970    4.03080
  0.2990    3.73370
  0.3010    3.45020
  0.3030    3.17600
  0.3050    2.91190
  0.3070    2.66050
  0.3090    2.41450
  0.3110    2.18070
  0.3130    1.96320
  0.3150    1.75760
  0.3170    1.56370
  0.3190    1.38250
  0.3210    1.21350
  0.3230    1.05790
  0.3250    0.91540
  0.3270    0.78370
  0.3290    0.66430
  0.3310    0.55790
  0.3330    0.46460
  0.3350    0.38390
  0.3370    0.31440
  0.3390    0.25590
  0.3410    0.20850
  0.3430    0.17210
  0.3450    0.14640
  0.3470    0.13100
  0.3490    0.12520
  0.3510    0.12890
  0.3530    0.14280
  0.3550    0.16540
  0.3570    0.19520
  0.3590    0.23380
  0.3610    0.28080
  0.3630    0.33470
  0.3650    0.39420
  0.3670    0.45920
  0.3690    0.52980
  0.3710    0.60600
  0.3730    0.68670
  0.3750    0.77100
  0.3770    0.85930
  0.3790    0.95070
  0.3810    1.04330
  0.3830    1.13790
  0.3850    1.23600
  0.3870    1.33680
  0.3890    1.43770
  0.3910    1.53790
  0.3930    1.63790
  0.3950    1.73740
  0.3970    1.83500
  0.3990    1.93060
  0.4010    2.02470
  0.4030    2.11560
  0.4050    2.20430
  0.4070    2.29000
  0.4090    2.37110
  0.4110    2.44850
  0.4130    2.52250
  0.4150    2.59210
  0.4170    2.65780
  0.4190    2.71910
  0.4210    2.77560
  0.4230    2.82780
  0.4250    2.87550
  0.4270    2.91800
  0.4290    2.95570
  0.4310    2.98920
  0.4330    3.01760
  0.4350    3.04180
  0.4370    3.06140
  0.4390    3.07610
  0.4410    3.08630
  0.4430    3.09170
  0.4450    3.09290
  0.4470    3.09010
  0.4490    3.08340
  0.4510    3.07270
  0.4530    3.05780
  0.4550    3.03930
  0.4570    3.01770
  0.4590    2.99190
  0.4610    2.96230
  0.4630    2.92890
  0.4650    2.89210
  0.4670    2.85240
  0.4690    2.81000
  0.4710    2.76490
  0.4730    2.71700
  0.4750    2.66610
  0.4770    2.61190
  0.4790    2.55570
  0.4810    2.49690
  0.4830    2.43630
  0.4850    2.37500
  0.4870    2.31080
  0.4890    2.24400
  0.4910    2.17540
  0.4930    2.10460
  0.4950    2.03160
  0.4970    1.95710
  0.4990    1.88130
  0.5010    1.80420
  0.5030    1.72620
  0.5050    1.64620
  0.5070    1.56430
  0.5090    1.48190
  0.5110    1.39930
  0.5130    1.31560
  0.5150    1.23030
  0.5170    1.14420
  0.5190    1.05740
  0.5210    0.97000
  0.5230    0.88240
  0.5250    0.79440
  0.5270    0.70600
  0.5290    0.61780
  0.5310    0.53010
  0.5330    0.44220
  0.5350    0.35410
  0.5370    0.26660
  0.5390    0.18030
  0.5410    0.09470
  0.5430    0.00980
  0.5450   -0.07400
  0.5470   -0.15680
  0.5490   -0.23850
  0.5510   -0.31890
  0.5530   -0.39800
  0.5550   -0.47600
  0.5570   -0.55210
  0.5590   -0.62650
  0.5610   -0.69950
  0.5630   -0.76990
  0.5650   -0.83820
  0.5670   -0.90490
  0.5690   -0.96980
  0.5710   -1.03250
  0.5730   -1.09290
  0.5750   -1.15110
  0.5770   -1.20690
  0.5790   -1.26050
  0.5810   -1.31150
  0.5830   -1.36000
  0.5850   -1.40590
  0.5870   -1.44930
  0.5890   -1.49000
  0.5910   -1.52800
  0.5930   -1.56340
  0.5950   -1.59620
  0.5970   -1.62630
  0.5990   -1.65380
  0.6010   -1.67860
  0.6030   -1.70090
  0.6050   -1.72030
  0.6070   -1.73730
  0.6090   -1.75170
  0.6110   -1.76370
  0.6130   -1.77320
  0.6150   -1.78040
  0.6170   -1.78530
  0.6190   -1.78780
  0.6210   -1.78780
  0.6230   -1.78570
  0.6250   -1.78160
  0.6270   -1.77550
  0.6290   -1.76730
  0.6310   -1.75720
  0.6330   -1.74550
  0.6350   -1.73220
  0.6370   -1.71730
  0.6390   -1.70080
  0.6410   -1.68280
  0.6430   -1.66360
  0.6450   -1.64320
  0.6470   -1.62150
  0.6490   -1.59840
  0.6510   -1.57440
  0.6530   -1.54950
  0.6550   -1.52380
  0.6570   -1.49730
  0.6590   -1.47010
  0.6610   -1.44220
  0.6630   -1.41370
  0.6650   -1.38460
  0.6670   -1.35510
  0.6690   -1.32520
  0.6710   -1.29480
  0.6730   -1.26410
  0.6750   -1.23310
  0.6770   -1.20220
  0.6790   -1.17100
  0.6810   -1.13970
  0.6830   -1.10830
  0.6850   -1.07700
  0.6870   -1.04570
  0.6890   -1.01430
  0.6910   -0.98310
  0.6930   -0.95190
  0.6950   -0.92090
  0.6970   -0.88990
  0.6990   -0.85910
  0.7010   -0.82850
  0.7030   -0.79790
  0.7050   -0.76760
  0.7070   -0.73750
  0.7090   -0.70740
  0.7110   -0.67760
  0.7130   -0.64800
  0.7150   -0.61860
  0.7170   -0.58950
  0.7190   -0.56050
  0.7210   -0.53180
  0.7230   -0.50350
  0.7250   -0.47540
  0.7270   -0.44760
  0.7290   -0.42020
  0.7310   -0.39300
  0.7330   -0.36620
  0.7350   -0.33970
  0.7370   -0.31360
  0.7390   -0.28780
  0.7410   -0.26250
  0.7430   -0.23750
  0.7450   -0.21300
  0.7470   -0.18900
  0.7490   -0.16540
  0.7510   -0.14230
  0.7530   -0.11970
  0.7550   -0.09760
  0.7570   -0.07610
  0.7590   -0.05520
  0.7610   -0.03500
  0.7630   -0.01530
  0.7650    0.00380
  0.7670    0.02220
  0.7690    0.03990
  0.7710    0.05700
  0.7730    0.07360
  0.7750    0.08930
  0.7770    0.10420
  0.7790    0.11830
  0.7810    0.13160
  0.7830    0.14430
  0.7850    0.15610
  0.7870    0.16700
  0.7890    0.17710
  0.7910    0.18650
  0.7930    0.19510
  0.7950    0.20280
  0.7970    0.20960
  0.7990    0.21560
  0.8010    0.22100
  0.8030    0.22550
  0.8050    0.22920
  0.8070    0.23220
  0.8090    0.23440
  0.8110    0.23580
  0.8130    0.23640
  0.8150    0.23630
  0.8170    0.23540
  0.8190    0.23370
  0.8210    0.23130
  0.8230    0.22840
  0.8250    0.22490
  0.8270    0.22060
  0.8290    0.21560
  0.8310    0.20990
  0.8330    0.20370
  0.8350    0.19710
  0.8370    0.18990
  0.8390    0.18230
  0.8410    0.17440
  0.8430    0.16620
  0.8450    0.15750
  0.8470    0.14840
  0.8490    0.13900
  0.8510    0.12930
  0.8530    0.11930
  0.8550    0.10920
  0.8570    0.09880
  0.8590    0.08830
  0.8610    0.07760
  0.8630    0.06680
  0.8650    0.05610
  0.8670    0.04530
  0.8690    0.03440
  0.8710    0.02360
  0.8730    0.01280
  0.8750    0.00210
  0.8770   -0.00850
  0.8790   -0.01900
  0.8810   -0.02930
  0.8830   -0.03960
  0.8850   -0.04960
  0.8870   -0.05940
  0.8890   -0.06880
  0.8910   -0.07800
  0.8930   -0.08710
  0.8950   -0.09590
  0.8970   -0.10430
  0.8990   -0.11230
  0.9010   -0.11980
  0.9030   -0.12700
  0.9050   -0.13390
  0.9070   -0.14070
  0.9090   -0.14720
  0.9110   -0.15340
  0.9130   -0.15920
  0.9150   -0.16450
  0.9170   -0.16960
  0.9190   -0.17430
  0.9210   -0.17870
  0.9230   -0.18290
  0.9250   -0.18670
  0.9270   -0.19030
  0.9290   -0.19350
  0.9310   -0.19630
  0.9330   -0.19900
  0.9350   -0.20130
  0.9370   -0.20340
  0.9390   -0.20520
  0.9410   -0.20670
  0.9430   -0.20810
  0.9450   -0.20910
  0.9470   -0.21000
  0.9490   -0.21070
  0.9510   -0.21120
  0.9530   -0.21150
  0.9550   -0.21160
  0.9570   -0.21150
  0.9590   -0.21130
  0.9610   -0.21090
  0.9630   -0.21040
  0.9650   -0.20980
  0.9670   -0.20900
  0.9690   -0.20810
  0.9710   -0.20690
  0.9730   -0.20570
  0.9750   -0.20430
  0.9770   -0.20290
  0.9790   -0.20130
  0.9810   -0.19950
  0.9830   -0.19770
  0.9850   -0.19580
  0.9870   -0.19370
  0.9890   -0.19160
  0.9910   -0.18940
  0.9930   -0.18710
  0.9950   -0.18470
  0.9970   -0.18210
  0.9990   -0.17940
  1.0010   -0.17670
  1.0030   -0.17380
  1.0050   -0.17090
  1.0070   -0.16780
  1.0090   -0.16450
  1.0110   -0.16110
  1.0130   -0.15760
  1.0150   -0.15410
  1.0170   -0.15040
  1.0190   -0.14660
  1.0210   -0.14260
  1.0230   -0.13840
  1.0250   -0.13430
  1.0270   -0.13030
  1.0290   -0.12600
  1.0310   -0.12160
  1.0330   -0.11710
  1.0350   -0.11240
  1.0370   -0.10750
  1.0390   -0.10260
  1.0410   -0.09750
  1.0430   -0.09250
  1.0450   -0.08750
  1.0470   -0.08250
  1.0490   -0.07760
  1.0510   -0.07250
  1.0530   -0.06740
  1.0550   -0.06230
  1.0570   -0.05710
  1.0590   -0.05200
  1.0610   -0.04710
  1.0630   -0.04220
  1.0650   -0.03730
  1.0670   -0.03240
  1.0690   -0.02750
  1.0710   -0.02270
  1.0730   -0.01810
  1.0750   -0.01350
  1.0770   -0.00880
  1.0790   -0.00440
  1.0810   -0.00000
  1.0830    0.00410
  1.0850    0.00810
  1.0870    0.01200
  1.0890    0.01560
  1.0910    0.01910
  1.0930    0.02250
  1.0950    0.02560
  1.0970    0.02860
  1.0990    0.03140
  1.1010    0.03410
  1.1030    0.03650
  1.1050    0.03870
  1.1070    0.04090
  1.1090    0.04280
  1.1110    0.04460
  1.1130    0.04620
  1.1150    0.04760
  1.1170    0.04880
  1.1190    0.04980
  1.1210    0.05070
  1.1230    0.05140
  1.1250    0.05200
  1.1270    0.05240
  1.1290    0.05270
  1.1310    0.05290
  1.1330    0.05300
  1.1350    0.05290
  1.1370    0.05280
  1.1390    0.05240
  1.1410    0.05200
  1.1430    0.05160
  1.1450    0.05110
  1.1470    0.05040
  1.1490    0.04960
  1.1510    0.04880
  1.1530    0.04800
  1.1550    0.04720
  1.1570    0.04630
  1.1590    0.04540
  1.1610    0.04450
  1.1630    0.04360
  1.1650    0.04260
  1.1670    0.04170
  1.1690    0.04090
  1.1710    0.04000
  1.1730    0.03910
  1.1750    0.03820
  1.1770    0.03740
  1.1790    0.03660
  1.1810    0.03590
  1.1830    0.03530
  1.1850    0.03460
  1.1870    0.03400
  1.1890    0.03340
  1.1910    0.03290
  1.1930    0.03240
  1.1950    0.03190
  1.1970    0.03150
  1.1990    0.03110
  1.2010    0.03080
  1.2030    0.03050
  1.2050    0.03030
  1.2070    0.03010
  1.2090    0.03010
  1.2110    0.03000
  1.2130    0.02990
  1.2150    0.02980
  1.2170    0.02970
  1.2190    0.02960
  1.2210    0.02940
  1.2230    0.02930
  1.2250    0.02920
  1.2270    0.02910
  1.2290    0.02900
  1.2310    0.02890
  1.2330    0.02860
  1.2350    0.02830
  1.2370    0.02800
  1.2390    0.02770
  1.2410    0.02720
  1.2430    0.02660
  1.2450    0.02590
  1.2470    0.02520
  1.2490    0.02450
  1.2510    0.02370
  1.2530    0.02270
  1.2550    0.02170
  1.2570    0.02070
  1.2590    0.01960
  1.2610    0.01840
  1.2630    0.01700
  1.2650    0.01560
  1.2670    0.01420
  1.2690    0.01260
  1.2710    0.01100
  1.2730    0.00940
  1.2750    0.00770
  1.2770    0.00590
  1.2790    0.00400
  1.2810    0.00200
  1.2830   -0.00000
  1.2850   -0.00200
  1.2870   -0.00390
  1.2890   -0.00590
  1.2910   -0.00790
  1.2930   -0.00990
  1.2950   -0.01190
  1.2970   -0.01390
  1.2990   -0.01590
  1.3010   -0.01790
  1.3030   -0.01980
  1.3050   -0.02150
  1.3070   -0.02330
  1.3090   -0.02500
  1.3110   -0.02660
  1.3130   -0.02810
  1.3150   -0.02950
  1.3170   -0.03080
  1.3190   -0.03190
  1.3210   -0.03280
  1.3230   -0.03360
  1.3250   -0.03430
  1.3270   -0.03480
  1.3290   -0.03510
  1.3310   -0.03520
  1.3330   -0.03520
  1.3350   -0.03500
  1.3370   -0.03470
  1.3390   -0.03410
  1.3410   -0.03340
  1.3430   -0.03250
  1.3450   -0.03160
  1.3470   -0.03050
  1.3490   -0.02920
  1.3510   -0.02770
  1.3530   -0.02620
  1.3550   -0.02450
  1.3570   -0.02270
  1.3590   -0.02070
  1.3610   -0.01860
  1.3630   -0.01660
  1.3650   -0.01440
  1.3670   -0.01230
  1.3690   -0.01010
  1.3710   -0.00790
  1.3730   -0.00580
  1.3750   -0.00360
  1.3770   -0.00150
  1.3790    0.00070
  1.3810    0.00260
  1.3830    0.00450
  1.3850    0.00620
  1.3870    0.00780
  1.3890    0.00920
  1.3910    0.01030
  1.3930    0.01110
  1.3950    0.01150
  1.3970    0.01150
  1.3990    0.01110
