# z (nm)   (kJ/mol)
  0.253000,  5.326800
  0.255000,  4.901900
  0.257000,  4.477800
  0.259000,  4.050200
  0.261000,  3.620200
  0.263000,  3.190800
  0.265000,  2.756300
  0.267000,  2.335700
  0.269000,  1.920300
  0.271000,  1.510000
  0.273000,  1.106500
  0.275000,  0.706000
  0.277000,  0.311700
  0.279000, -0.070600
  0.281000, -0.439600
  0.283000, -0.794600
  0.285000, -1.137700
  0.287000, -1.470500
  0.289000, -1.790000
  0.291000, -2.098500
  0.293000, -2.393600
  0.295000, -2.673800
  0.297000, -2.943500
  0.299000, -3.199900
  0.301000, -3.441200
  0.303000, -3.669300
  0.305000, -3.881400
  0.307000, -4.078300
  0.309000, -4.259800
  0.311000, -4.426900
  0.313000, -4.580000
  0.315000, -4.718500
  0.317000, -4.841000
  0.319000, -4.947900
  0.321000, -5.040900
  0.323000, -5.118800
  0.325000, -5.181400
  0.327000, -5.229300
  0.329000, -5.262300
  0.331000, -5.281200
  0.333000, -5.286200
  0.335000, -5.276300
  0.337000, -5.253100
  0.339000, -5.216500
  0.341000, -5.165800
  0.343000, -5.103400
  0.345000, -5.029100
  0.347000, -4.944000
  0.349000, -4.848200
  0.351000, -4.740000
  0.353000, -4.622300
  0.355000, -4.496000
  0.357000, -4.360500
  0.359000, -4.221100
  0.361000, -4.076900
  0.363000, -3.923800
  0.365000, -3.762000
  0.367000, -3.595200
  0.369000, -3.423800
  0.371000, -3.248700
  0.373000, -3.069900
  0.375000, -2.888200
  0.377000, -2.707100
  0.379000, -2.523600
  0.381000, -2.338900
  0.383000, -2.155800
  0.385000, -1.976800
  0.387000, -1.801000
  0.389000, -1.627100
  0.391000, -1.458100
  0.393000, -1.292800
  0.395000, -1.130300
  0.397000, -0.973200
  0.399000, -0.821600
  0.401000, -0.676500
  0.403000, -0.537500
  0.405000, -0.403800
  0.407000, -0.276100
  0.409000, -0.154500
  0.411000, -0.039000
  0.413000,  0.069500
  0.415000,  0.171800
  0.417000,  0.267600
  0.419000,  0.355700
  0.421000,  0.437400
  0.423000,  0.513700
  0.425000,  0.584200
  0.427000,  0.648200
  0.429000,  0.705800
  0.431000,  0.757600
  0.433000,  0.803600
  0.435000,  0.844500
  0.437000,  0.880200
  0.439000,  0.910700
  0.441000,  0.937100
  0.443000,  0.959500
  0.445000,  0.976600
  0.447000,  0.989400
  0.449000,  0.997600
  0.451000,  1.001700
  0.453000,  1.003000
  0.455000,  1.000900
  0.457000,  0.995500
  0.459000,  0.987100
  0.461000,  0.976200
  0.463000,  0.962400
  0.465000,  0.945900
  0.467000,  0.927800
  0.469000,  0.907400
  0.471000,  0.884600
  0.473000,  0.859700
  0.475000,  0.832800
  0.477000,  0.804500
  0.479000,  0.775000
  0.481000,  0.744000
  0.483000,  0.710700
  0.485000,  0.675600
  0.487000,  0.639700
  0.489000,  0.602900
  0.491000,  0.565000
  0.493000,  0.526000
  0.495000,  0.486100
  0.497000,  0.444900
  0.499000,  0.402800
  0.501000,  0.359900
  0.503000,  0.315600
  0.505000,  0.270600
  0.507000,  0.225100
  0.509000,  0.179100
  0.511000,  0.132400
  0.513000,  0.084900
  0.515000,  0.036900
  0.517000, -0.011500
  0.519000, -0.060300
  0.521000, -0.109700
  0.523000, -0.159300
  0.525000, -0.209000
  0.527000, -0.258700
  0.529000, -0.308300
  0.531000, -0.357400
  0.533000, -0.406300
  0.535000, -0.455200
  0.537000, -0.503700
  0.539000, -0.551500
  0.541000, -0.598800
  0.543000, -0.645400
  0.545000, -0.691100
  0.547000, -0.735800
  0.549000, -0.779700
  0.551000, -0.822600
  0.553000, -0.863800
  0.555000, -0.903800
  0.557000, -0.942600
  0.559000, -0.980000
  0.561000, -1.015900
  0.563000, -1.049900
  0.565000, -1.082400
  0.567000, -1.113200
  0.569000, -1.141900
  0.571000, -1.168900
  0.573000, -1.194300
  0.575000, -1.217700
  0.577000, -1.238900
  0.579000, -1.258000
  0.581000, -1.275000
  0.583000, -1.290100
  0.585000, -1.303300
  0.587000, -1.314500
  0.589000, -1.323800
  0.591000, -1.331400
  0.593000, -1.337100
  0.595000, -1.341100
  0.597000, -1.343300
  0.599000, -1.343300
  0.601000, -1.341500
  0.603000, -1.338500
  0.605000, -1.333700
  0.607000, -1.327400
  0.609000, -1.320000
  0.611000, -1.311400
  0.613000, -1.301800
  0.615000, -1.290800
  0.617000, -1.278800
  0.619000, -1.265500
  0.621000, -1.251400
  0.623000, -1.236900
  0.625000, -1.221800
  0.627000, -1.205900
  0.629000, -1.189300
  0.631000, -1.172300
  0.633000, -1.155200
  0.635000, -1.138000
  0.637000, -1.120300
  0.639000, -1.102400
  0.641000, -1.084500
  0.643000, -1.066800
  0.645000, -1.049200
  0.647000, -1.031700
  0.649000, -1.014300
  0.651000, -0.997100
  0.653000, -0.980100
  0.655000, -0.963300
  0.657000, -0.946800
  0.659000, -0.930600
  0.661000, -0.914800
  0.663000, -0.899200
  0.665000, -0.884100
  0.667000, -0.869200
  0.669000, -0.854700
  0.671000, -0.840600
  0.673000, -0.826600
  0.675000, -0.813000
  0.677000, -0.799700
  0.679000, -0.786700
  0.681000, -0.774000
  0.683000, -0.761600
  0.685000, -0.749500
  0.687000, -0.737600
  0.689000, -0.725700
  0.691000, -0.714000
  0.693000, -0.702500
  0.695000, -0.691200
  0.697000, -0.680000
  0.699000, -0.668800
  0.701000, -0.657800
  0.703000, -0.646900
  0.705000, -0.635900
  0.707000, -0.625000
  0.709000, -0.614200
  0.711000, -0.603500
  0.713000, -0.592600
  0.715000, -0.581700
  0.717000, -0.570900
  0.719000, -0.560200
  0.721000, -0.549400
  0.723000, -0.538700
  0.725000, -0.528000
  0.727000, -0.517300
  0.729000, -0.506700
  0.731000, -0.496200
  0.733000, -0.485800
  0.735000, -0.475700
  0.737000, -0.465500
  0.739000, -0.455500
  0.741000, -0.445700
  0.743000, -0.436200
  0.745000, -0.426700
  0.747000, -0.417400
  0.749000, -0.408300
  0.751000, -0.399500
  0.753000, -0.391100
  0.755000, -0.382700
  0.757000, -0.374700
  0.759000, -0.367100
  0.761000, -0.359700
  0.763000, -0.352600
  0.765000, -0.345700
  0.767000, -0.339100
  0.769000, -0.332800
  0.771000, -0.327000
  0.773000, -0.321600
  0.775000, -0.316500
  0.777000, -0.311700
  0.779000, -0.307400
  0.781000, -0.303300
  0.783000, -0.299700
  0.785000, -0.296400
  0.787000, -0.293300
  0.789000, -0.290300
  0.791000, -0.287800
  0.793000, -0.285600
  0.795000, -0.283600
  0.797000, -0.281900
  0.799000, -0.280500
  0.801000, -0.279400
  0.803000, -0.278500
  0.805000, -0.277700
  0.807000, -0.277100
  0.809000, -0.276800
  0.811000, -0.276700
  0.813000, -0.276600
  0.815000, -0.276600
  0.817000, -0.276600
  0.819000, -0.276600
  0.821000, -0.276800
  0.823000, -0.277100
  0.825000, -0.277400
  0.827000, -0.277700
  0.829000, -0.278000
  0.831000, -0.278200
  0.833000, -0.278500
  0.835000, -0.278700
  0.837000, -0.278900
  0.839000, -0.279000
  0.841000, -0.278900
  0.843000, -0.278800
  0.845000, -0.278800
  0.847000, -0.278600
  0.849000, -0.278300
  0.851000, -0.277900
  0.853000, -0.277400
  0.855000, -0.276900
  0.857000, -0.276200
  0.859000, -0.275200
  0.861000, -0.274300
  0.863000, -0.273400
  0.865000, -0.272400
  0.867000, -0.271300
  0.869000, -0.270100
  0.871000, -0.268900
  0.873000, -0.267600
  0.875000, -0.266300
  0.877000, -0.264800
  0.879000, -0.263200
  0.881000, -0.261700
  0.883000, -0.260200
  0.885000, -0.258800
  0.887000, -0.257400
  0.889000, -0.256000
  0.891000, -0.254500
  0.893000, -0.253000
  0.895000, -0.251400
  0.897000, -0.249700
  0.899000, -0.248300
  0.901000, -0.246900
  0.903000, -0.245600
  0.905000, -0.244500
  0.907000, -0.243400
  0.909000, -0.242400
  0.911000, -0.241600
  0.913000, -0.240700
  0.915000, -0.239900
  0.917000, -0.239200
  0.919000, -0.238500
  0.921000, -0.238000
  0.923000, -0.237700
  0.925000, -0.237300
  0.927000, -0.237000
  0.929000, -0.236800
  0.931000, -0.236800
  0.933000, -0.236800
  0.935000, -0.236900
  0.937000, -0.237000
  0.939000, -0.237300
  0.941000, -0.237600
  0.943000, -0.237900
  0.945000, -0.238200
  0.947000, -0.238600
  0.949000, -0.239000
  0.951000, -0.239300
  0.953000, -0.239700
  0.955000, -0.240100
  0.957000, -0.240500
  0.959000, -0.240800
  0.961000, -0.241200
  0.963000, -0.241500
  0.965000, -0.241800
  0.967000, -0.242000
  0.969000, -0.242100
  0.971000, -0.242100
  0.973000, -0.242000
  0.975000, -0.241900
  0.977000, -0.241800
  0.979000, -0.241700
  0.981000, -0.241400
  0.983000, -0.240900
  0.985000, -0.240300
  0.987000, -0.239500
  0.989000, -0.238700
  0.991000, -0.237800
  0.993000, -0.236900
  0.995000, -0.235800
  0.997000, -0.234400
  0.999000, -0.233000
  1.001000, -0.231400
  1.003000, -0.229500
  1.005000, -0.227500
  1.007000, -0.225400
  1.009000, -0.223200
  1.011000, -0.220800
  1.013000, -0.218200
  1.015000, -0.215500
  1.017000, -0.212700
  1.019000, -0.209800
  1.021000, -0.206800
  1.023000, -0.203600
  1.025000, -0.200200
  1.027000, -0.196800
  1.029000, -0.193200
  1.031000, -0.189600
  1.033000, -0.185900
  1.035000, -0.182000
  1.037000, -0.178000
  1.039000, -0.174000
  1.041000, -0.170000
  1.043000, -0.165900
  1.045000, -0.161700
  1.047000, -0.157400
  1.049000, -0.153000
  1.051000, -0.148500
  1.053000, -0.144000
  1.055000, -0.139500
  1.057000, -0.135000
  1.059000, -0.130600
  1.061000, -0.126100
  1.063000, -0.121400
  1.065000, -0.116800
  1.067000, -0.112300
  1.069000, -0.107900
  1.071000, -0.103600
  1.073000, -0.099200
  1.075000, -0.094900
  1.077000, -0.090900
  1.079000, -0.086800
  1.081000, -0.082700
  1.083000, -0.078500
  1.085000, -0.074400
  1.087000, -0.070600
  1.089000, -0.066900
  1.091000, -0.063200
  1.093000, -0.059600
  1.095000, -0.056100
  1.097000, -0.052600
  1.099000, -0.049300
  1.101000, -0.046100
  1.103000, -0.043000
  1.105000, -0.040000
  1.107000, -0.037200
  1.109000, -0.034500
  1.111000, -0.032100
  1.113000, -0.029700
  1.115000, -0.027500
  1.117000, -0.025400
  1.119000, -0.023300
  1.121000, -0.021400
  1.123000, -0.019600
  1.125000, -0.017900
  1.127000, -0.016300
  1.129000, -0.014900
  1.131000, -0.013600
  1.133000, -0.012500
  1.135000, -0.011500
  1.137000, -0.010400
  1.139000, -0.009500
  1.141000, -0.008700
  1.143000, -0.008000
  1.145000, -0.007400
  1.147000, -0.007000
  1.149000, -0.006600
  1.151000, -0.006300
  1.153000, -0.006100
  1.155000, -0.005900
  1.157000, -0.005800
  1.159000, -0.005800
  1.161000, -0.005900
  1.163000, -0.006100
  1.165000, -0.006400
  1.167000, -0.006700
  1.169000, -0.007100
  1.171000, -0.007500
  1.173000, -0.007900
  1.175000, -0.008200
  1.177000, -0.008700
  1.179000, -0.009200
  1.181000, -0.009700
  1.183000, -0.010100
  1.185000, -0.010600
  1.187000, -0.011200
  1.189000, -0.011700
  1.191000, -0.012200
  1.193000, -0.012900
  1.195000, -0.013500
  1.197000, -0.014000
  1.199000, -0.014500
  1.201000, -0.014900
  1.203000, -0.015300
  1.205000, -0.015600
  1.207000, -0.015800
  1.209000, -0.016200
  1.211000, -0.016500
  1.213000, -0.016800
  1.215000, -0.017000
  1.217000, -0.017000
  1.219000, -0.017100
  1.221000, -0.017200
  1.223000, -0.017200
  1.225000, -0.017100
  1.227000, -0.017000
  1.229000, -0.016800
  1.231000, -0.016500
  1.233000, -0.016200
  1.235000, -0.015800
  1.237000, -0.015300
  1.239000, -0.014900
  1.241000, -0.014400
  1.243000, -0.013800
  1.245000, -0.013000
  1.247000, -0.012300
  1.249000, -0.011600
  1.251000, -0.010700
  1.253000, -0.009900
  1.255000, -0.009100
  1.257000, -0.008200
  1.259000, -0.007300
  1.261000, -0.006500
  1.263000, -0.005700
  1.265000, -0.004800
  1.267000, -0.003800
  1.269000, -0.002900
  1.271000, -0.002200
  1.273000, -0.001400
  1.275000, -0.000700
  1.277000, -0.000000
  1.279000,  0.000600
  1.281000,  0.001300
  1.283000,  0.001900
  1.285000,  0.002400
  1.287000,  0.002900
  1.289000,  0.003300
  1.291000,  0.003700
  1.293000,  0.004000
  1.295000,  0.004200
  1.297000,  0.004300
  1.299000,  0.004200
  1.301000,  0.004200
  1.303000,  0.004100
  1.305000,  0.004000
  1.307000,  0.003900
  1.309000,  0.003700
  1.311000,  0.003400
  1.313000,  0.003100
  1.315000,  0.002800
  1.317000,  0.002500
  1.319000,  0.002100
  1.321000,  0.001800
  1.323000,  0.001400
  1.325000,  0.001100
  1.327000,  0.000700
  1.329000,  0.000400
  1.331000,  0.000200
  1.333000, -0.000100
  1.335000, -0.000300
  1.337000, -0.000400
  1.339000, -0.000400
  1.341000, -0.000300
  1.343000, -0.000300
  1.345000, -0.000200
  1.347000,  0.000100
  1.349000,  0.000600
  1.351000,  0.001100
  1.353000,  0.001700
  1.355000,  0.002400
  1.357000,  0.003100
  1.359000,  0.004000
  1.361000,  0.005200
  1.363000,  0.006400
  1.365000,  0.007700
  1.367000,  0.009200
  1.369000,  0.010700
  1.371000,  0.012300
  1.373000,  0.014000
  1.375000,  0.015800
  1.377000,  0.017500
  1.379000,  0.019400
  1.381000,  0.021200
  1.383000,  0.023200
  1.385000,  0.025000
  1.387000,  0.026800
  1.389000,  0.028500
  1.391000,  0.030200
  1.393000,  0.031700
  1.395000,  0.032900
  1.397000,  0.033800
  1.399000,  0.034400
