# z (nm)   (kJ/mol)
  0.2530    5.32680
  0.2550    4.90190
  0.2570    4.47780
  0.2590    4.05020
  0.2610    3.62020
  0.2630    3.19080
  0.2650    2.75630
  0.2670    2.33570
  0.2690    1.92030
  0.2710    1.51000
  0.2730    1.10650
  0.2750    0.70600
  0.2770    0.31170
  0.2790   -0.07060
  0.2810   -0.43960
  0.2830   -0.79460
  0.2850   -1.13770
  0.2870   -1.47050
  0.2890   -1.79000
  0.2910   -2.09850
  0.2930   -2.39360
  0.2950   -2.67380
  0.2970   -2.94350
  0.2990   -3.19990
  0.3010   -3.44120
  0.3030   -3.66930
  0.3050   -3.88140
  0.3070   -4.07830
  0.3090   -4.25980
  0.3110   -4.42690
  0.3130   -4.58000
  0.3150   -4.71850
  0.3170   -4.84100
  0.3190   -4.94790
  0.3210   -5.04090
  0.3230   -5.11880
  0.3250   -5.18140
  0.3270   -5.22930
  0.3290   -5.26230
  0.3310   -5.28120
  0.3330   -5.28620
  0.3350   -5.27630
  0.3370   -5.25310
  0.3390   -5.21650
  0.3410   -5.16580
  0.3430   -5.10340
  0.3450   -5.02910
  0.3470   -4.94400
  0.3490   -4.84820
  0.3510   -4.74000
  0.3530   -4.62230
  0.3550   -4.49600
  0.3570   -4.36050
  0.3590   -4.22110
  0.3610   -4.07690
  0.3630   -3.92380
  0.3650   -3.76200
  0.3670   -3.59520
  0.3690   -3.42380
  0.3710   -3.24870
  0.3730   -3.06990
  0.3750   -2.88820
  0.3770   -2.70710
  0.3790   -2.52360
  0.3810   -2.33890
  0.3830   -2.15580
  0.3850   -1.97680
  0.3870   -1.80100
  0.3890   -1.62710
  0.3910   -1.45810
  0.3930   -1.29280
  0.3950   -1.13030
  0.3970   -0.97320
  0.3990   -0.82160
  0.4010   -0.67650
  0.4030   -0.53750
  0.4050   -0.40380
  0.4070   -0.27610
  0.4090   -0.15450
  0.4110   -0.03900
  0.4130    0.06950
  0.4150    0.17180
  0.4170    0.26760
  0.4190    0.35570
  0.4210    0.43740
  0.4230    0.51370
  0.4250    0.58420
  0.4270    0.64820
  0.4290    0.70580
  0.4310    0.75760
  0.4330    0.80360
  0.4350    0.84450
  0.4370    0.88020
  0.4390    0.91070
  0.4410    0.93710
  0.4430    0.95950
  0.4450    0.97660
  0.4470    0.98940
  0.4490    0.99760
  0.4510    1.00170
  0.4530    1.00300
  0.4550    1.00090
  0.4570    0.99550
  0.4590    0.98710
  0.4610    0.97620
  0.4630    0.96240
  0.4650    0.94590
  0.4670    0.92780
  0.4690    0.90740
  0.4710    0.88460
  0.4730    0.85970
  0.4750    0.83280
  0.4770    0.80450
  0.4790    0.77500
  0.4810    0.74400
  0.4830    0.71070
  0.4850    0.67560
  0.4870    0.63970
  0.4890    0.60290
  0.4910    0.56500
  0.4930    0.52600
  0.4950    0.48610
  0.4970    0.44490
  0.4990    0.40280
  0.5010    0.35990
  0.5030    0.31560
  0.5050    0.27060
  0.5070    0.22510
  0.5090    0.17910
  0.5110    0.13240
  0.5130    0.08490
  0.5150    0.03690
  0.5170   -0.01150
  0.5190   -0.06030
  0.5210   -0.10970
  0.5230   -0.15930
  0.5250   -0.20900
  0.5270   -0.25870
  0.5290   -0.30830
  0.5310   -0.35740
  0.5330   -0.40630
  0.5350   -0.45520
  0.5370   -0.50370
  0.5390   -0.55150
  0.5410   -0.59880
  0.5430   -0.64540
  0.5450   -0.69110
  0.5470   -0.73580
  0.5490   -0.77970
  0.5510   -0.82260
  0.5530   -0.86380
  0.5550   -0.90380
  0.5570   -0.94260
  0.5590   -0.98000
  0.5610   -1.01590
  0.5630   -1.04990
  0.5650   -1.08240
  0.5670   -1.11320
  0.5690   -1.14190
  0.5710   -1.16890
  0.5730   -1.19430
  0.5750   -1.21770
  0.5770   -1.23890
  0.5790   -1.25800
  0.5810   -1.27500
  0.5830   -1.29010
  0.5850   -1.30330
  0.5870   -1.31450
  0.5890   -1.32380
  0.5910   -1.33140
  0.5930   -1.33710
  0.5950   -1.34110
  0.5970   -1.34330
  0.5990   -1.34330
  0.6010   -1.34150
  0.6030   -1.33850
  0.6050   -1.33370
  0.6070   -1.32740
  0.6090   -1.32000
  0.6110   -1.31140
  0.6130   -1.30180
  0.6150   -1.29080
  0.6170   -1.27880
  0.6190   -1.26550
  0.6210   -1.25140
  0.6230   -1.23690
  0.6250   -1.22180
  0.6270   -1.20590
  0.6290   -1.18930
  0.6310   -1.17230
  0.6330   -1.15520
  0.6350   -1.13800
  0.6370   -1.12030
  0.6390   -1.10240
  0.6410   -1.08450
  0.6430   -1.06680
  0.6450   -1.04920
  0.6470   -1.03170
  0.6490   -1.01430
  0.6510   -0.99710
  0.6530   -0.98010
  0.6550   -0.96330
  0.6570   -0.94680
  0.6590   -0.93060
  0.6610   -0.91480
  0.6630   -0.89920
  0.6650   -0.88410
  0.6670   -0.86920
  0.6690   -0.85470
  0.6710   -0.84060
  0.6730   -0.82660
  0.6750   -0.81300
  0.6770   -0.79970
  0.6790   -0.78670
  0.6810   -0.77400
  0.6830   -0.76160
  0.6850   -0.74950
  0.6870   -0.73760
  0.6890   -0.72570
  0.6910   -0.71400
  0.6930   -0.70250
  0.6950   -0.69120
  0.6970   -0.68000
  0.6990   -0.66880
  0.7010   -0.65780
  0.7030   -0.64690
  0.7050   -0.63590
  0.7070   -0.62500
  0.7090   -0.61420
  0.7110   -0.60350
  0.7130   -0.59260
  0.7150   -0.58170
  0.7170   -0.57090
  0.7190   -0.56020
  0.7210   -0.54940
  0.7230   -0.53870
  0.7250   -0.52800
  0.7270   -0.51730
  0.7290   -0.50670
  0.7310   -0.49620
  0.7330   -0.48580
  0.7350   -0.47570
  0.7370   -0.46550
  0.7390   -0.45550
  0.7410   -0.44570
  0.7430   -0.43620
  0.7450   -0.42670
  0.7470   -0.41740
  0.7490   -0.40830
  0.7510   -0.39950
  0.7530   -0.39110
  0.7550   -0.38270
  0.7570   -0.37470
  0.7590   -0.36710
  0.7610   -0.35970
  0.7630   -0.35260
  0.7650   -0.34570
  0.7670   -0.33910
  0.7690   -0.33280
  0.7710   -0.32700
  0.7730   -0.32160
  0.7750   -0.31650
  0.7770   -0.31170
  0.7790   -0.30740
  0.7810   -0.30330
  0.7830   -0.29970
  0.7850   -0.29640
  0.7870   -0.29330
  0.7890   -0.29030
  0.7910   -0.28780
  0.7930   -0.28560
  0.7950   -0.28360
  0.7970   -0.28190
  0.7990   -0.28050
  0.8010   -0.27940
  0.8030   -0.27850
  0.8050   -0.27770
  0.8070   -0.27710
  0.8090   -0.27680
  0.8110   -0.27670
  0.8130   -0.27660
  0.8150   -0.27660
  0.8170   -0.27660
  0.8190   -0.27660
  0.8210   -0.27680
  0.8230   -0.27710
  0.8250   -0.27740
  0.8270   -0.27770
  0.8290   -0.27800
  0.8310   -0.27820
  0.8330   -0.27850
  0.8350   -0.27870
  0.8370   -0.27890
  0.8390   -0.27900
  0.8410   -0.27890
  0.8430   -0.27880
  0.8450   -0.27880
  0.8470   -0.27860
  0.8490   -0.27830
  0.8510   -0.27790
  0.8530   -0.27740
  0.8550   -0.27690
  0.8570   -0.27620
  0.8590   -0.27520
  0.8610   -0.27430
  0.8630   -0.27340
  0.8650   -0.27240
  0.8670   -0.27130
  0.8690   -0.27010
  0.8710   -0.26890
  0.8730   -0.26760
  0.8750   -0.26630
  0.8770   -0.26480
  0.8790   -0.26320
  0.8810   -0.26170
  0.8830   -0.26020
  0.8850   -0.25880
  0.8870   -0.25740
  0.8890   -0.25600
  0.8910   -0.25450
  0.8930   -0.25300
  0.8950   -0.25140
  0.8970   -0.24970
  0.8990   -0.24830
  0.9010   -0.24690
  0.9030   -0.24560
  0.9050   -0.24450
  0.9070   -0.24340
  0.9090   -0.24240
  0.9110   -0.24160
  0.9130   -0.24070
  0.9150   -0.23990
  0.9170   -0.23920
  0.9190   -0.23850
  0.9210   -0.23800
  0.9230   -0.23770
  0.9250   -0.23730
  0.9270   -0.23700
  0.9290   -0.23680
  0.9310   -0.23680
  0.9330   -0.23680
  0.9350   -0.23690
  0.9370   -0.23700
  0.9390   -0.23730
  0.9410   -0.23760
  0.9430   -0.23790
  0.9450   -0.23820
  0.9470   -0.23860
  0.9490   -0.23900
  0.9510   -0.23930
  0.9530   -0.23970
  0.9550   -0.24010
  0.9570   -0.24050
  0.9590   -0.24080
  0.9610   -0.24120
  0.9630   -0.24150
  0.9650   -0.24180
  0.9670   -0.24200
  0.9690   -0.24210
  0.9710   -0.24210
  0.9730   -0.24200
  0.9750   -0.24190
  0.9770   -0.24180
  0.9790   -0.24170
  0.9810   -0.24140
  0.9830   -0.24090
  0.9850   -0.24030
  0.9870   -0.23950
  0.9890   -0.23870
  0.9910   -0.23780
  0.9930   -0.23690
  0.9950   -0.23580
  0.9970   -0.23440
  0.9990   -0.23300
  1.0010   -0.23140
  1.0030   -0.22950
  1.0050   -0.22750
  1.0070   -0.22540
  1.0090   -0.22320
  1.0110   -0.22080
  1.0130   -0.21820
  1.0150   -0.21550
  1.0170   -0.21270
  1.0190   -0.20980
  1.0210   -0.20680
  1.0230   -0.20360
  1.0250   -0.20020
  1.0270   -0.19680
  1.0290   -0.19320
  1.0310   -0.18960
  1.0330   -0.18590
  1.0350   -0.18200
  1.0370   -0.17800
  1.0390   -0.17400
  1.0410   -0.17000
  1.0430   -0.16590
  1.0450   -0.16170
  1.0470   -0.15740
  1.0490   -0.15300
  1.0510   -0.14850
  1.0530   -0.14400
  1.0550   -0.13950
  1.0570   -0.13500
  1.0590   -0.13060
  1.0610   -0.12610
  1.0630   -0.12140
  1.0650   -0.11680
  1.0670   -0.11230
  1.0690   -0.10790
  1.0710   -0.10360
  1.0730   -0.09920
  1.0750   -0.09490
  1.0770   -0.09090
  1.0790   -0.08680
  1.0810   -0.08270
  1.0830   -0.07850
  1.0850   -0.07440
  1.0870   -0.07060
  1.0890   -0.06690
  1.0910   -0.06320
  1.0930   -0.05960
  1.0950   -0.05610
  1.0970   -0.05260
  1.0990   -0.04930
  1.1010   -0.04610
  1.1030   -0.04300
  1.1050   -0.04000
  1.1070   -0.03720
  1.1090   -0.03450
  1.1110   -0.03210
  1.1130   -0.02970
  1.1150   -0.02750
  1.1170   -0.02540
  1.1190   -0.02330
  1.1210   -0.02140
  1.1230   -0.01960
  1.1250   -0.01790
  1.1270   -0.01630
  1.1290   -0.01490
  1.1310   -0.01360
  1.1330   -0.01250
  1.1350   -0.01150
  1.1370   -0.01040
  1.1390   -0.00950
  1.1410   -0.00870
  1.1430   -0.00800
  1.1450   -0.00740
  1.1470   -0.00700
  1.1490   -0.00660
  1.1510   -0.00630
  1.1530   -0.00610
  1.1550   -0.00590
  1.1570   -0.00580
  1.1590   -0.00580
  1.1610   -0.00590
  1.1630   -0.00610
  1.1650   -0.00640
  1.1670   -0.00670
  1.1690   -0.00710
  1.1710   -0.00750
  1.1730   -0.00790
  1.1750   -0.00820
  1.1770   -0.00870
  1.1790   -0.00920
  1.1810   -0.00970
  1.1830   -0.01010
  1.1850   -0.01060
  1.1870   -0.01120
  1.1890   -0.01170
  1.1910   -0.01220
  1.1930   -0.01290
  1.1950   -0.01350
  1.1970   -0.01400
  1.1990   -0.01450
  1.2010   -0.01490
  1.2030   -0.01530
  1.2050   -0.01560
  1.2070   -0.01580
  1.2090   -0.01620
  1.2110   -0.01650
  1.2130   -0.01680
  1.2150   -0.01700
  1.2170   -0.01700
  1.2190   -0.01710
  1.2210   -0.01720
  1.2230   -0.01720
  1.2250   -0.01710
  1.2270   -0.01700
  1.2290   -0.01680
  1.2310   -0.01650
  1.2330   -0.01620
  1.2350   -0.01580
  1.2370   -0.01530
  1.2390   -0.01490
  1.2410   -0.01440
  1.2430   -0.01380
  1.2450   -0.01300
  1.2470   -0.01230
  1.2490   -0.01160
  1.2510   -0.01070
  1.2530   -0.00990
  1.2550   -0.00910
  1.2570   -0.00820
  1.2590   -0.00730
  1.2610   -0.00650
  1.2630   -0.00570
  1.2650   -0.00480
  1.2670   -0.00380
  1.2690   -0.00290
  1.2710   -0.00220
  1.2730   -0.00140
  1.2750   -0.00070
  1.2770   -0.00000
  1.2790    0.00060
  1.2810    0.00130
  1.2830    0.00190
  1.2850    0.00240
  1.2870    0.00290
  1.2890    0.00330
  1.2910    0.00370
  1.2930    0.00400
  1.2950    0.00420
  1.2970    0.00430
  1.2990    0.00420
  1.3010    0.00420
  1.3030    0.00410
  1.3050    0.00400
  1.3070    0.00390
  1.3090    0.00370
  1.3110    0.00340
  1.3130    0.00310
  1.3150    0.00280
  1.3170    0.00250
  1.3190    0.00210
  1.3210    0.00180
  1.3230    0.00140
  1.3250    0.00110
  1.3270    0.00070
  1.3290    0.00040
  1.3310    0.00020
  1.3330   -0.00010
  1.3350   -0.00030
  1.3370   -0.00040
  1.3390   -0.00040
  1.3410   -0.00030
  1.3430   -0.00030
  1.3450   -0.00020
  1.3470    0.00010
  1.3490    0.00060
  1.3510    0.00110
  1.3530    0.00170
  1.3550    0.00240
  1.3570    0.00310
  1.3590    0.00400
  1.3610    0.00520
  1.3630    0.00640
  1.3650    0.00770
  1.3670    0.00920
  1.3690    0.01070
  1.3710    0.01230
  1.3730    0.01400
  1.3750    0.01580
  1.3770    0.01750
  1.3790    0.01940
  1.3810    0.02120
  1.3830    0.02320
  1.3850    0.02500
  1.3870    0.02680
  1.3890    0.02850
  1.3910    0.03020
  1.3930    0.03170
  1.3950    0.03290
  1.3970    0.03380
  1.3990    0.03440
