# z (nm)   (kJ/mol)
  0.2430    9.22680
  0.2450    9.00560
  0.2470    8.80000
  0.2490    8.60320
  0.2510    8.40850
  0.2530    8.23010
  0.2550    8.06000
  0.2570    7.89580
  0.2590    7.73820
  0.2610    7.58980
  0.2630    7.45620
  0.2650    7.33350
  0.2670    7.21930
  0.2690    7.11490
  0.2710    7.02130
  0.2730    6.93790
  0.2750    6.86370
  0.2770    6.79860
  0.2790    6.74370
  0.2810    6.69870
  0.2830    6.66350
  0.2850    6.63720
  0.2870    6.62040
  0.2890    6.61260
  0.2910    6.61410
  0.2930    6.62430
  0.2950    6.64280
  0.2970    6.66990
  0.2990    6.70540
  0.3010    6.74850
  0.3030    6.80010
  0.3050    6.85990
  0.3070    6.92680
  0.3090    6.99950
  0.3110    7.07940
  0.3130    7.16760
  0.3150    7.25720
  0.3170    7.35140
  0.3190    7.45500
  0.3210    7.56320
  0.3230    7.67530
  0.3250    7.78840
  0.3270    7.90530
  0.3290    8.02730
  0.3310    8.15130
  0.3330    8.27500
  0.3350    8.39680
  0.3370    8.51460
  0.3390    8.63210
  0.3410    8.74810
  0.3430    8.85990
  0.3450    8.97220
  0.3470    9.07490
  0.3490    9.17010
  0.3510    9.26100
  0.3530    9.34200
  0.3550    9.41560
  0.3570    9.47800
  0.3590    9.52720
  0.3610    9.56810
  0.3630    9.59840
  0.3650    9.61720
  0.3670    9.62730
  0.3690    9.62590
  0.3710    9.61140
  0.3730    9.58580
  0.3750    9.54720
  0.3770    9.49980
  0.3790    9.44350
  0.3810    9.37030
  0.3830    9.28580
  0.3850    9.18980
  0.3870    9.07830
  0.3890    8.95570
  0.3910    8.82380
  0.3930    8.68290
  0.3950    8.52940
  0.3970    8.36780
  0.3990    8.20200
  0.4010    8.03070
  0.4030    7.85290
  0.4050    7.66640
  0.4070    7.47330
  0.4090    7.27610
  0.4110    7.07430
  0.4130    6.86970
  0.4150    6.66230
  0.4170    6.45060
  0.4190    6.23720
  0.4210    6.02290
  0.4230    5.81060
  0.4250    5.59650
  0.4270    5.38070
  0.4290    5.16620
  0.4310    4.95080
  0.4330    4.73680
  0.4350    4.52730
  0.4370    4.32090
  0.4390    4.11520
  0.4410    3.91380
  0.4430    3.71780
  0.4450    3.52620
  0.4470    3.33860
  0.4490    3.15370
  0.4510    2.97420
  0.4530    2.80110
  0.4550    2.63200
  0.4570    2.46820
  0.4590    2.31270
  0.4610    2.16300
  0.4630    2.01570
  0.4650    1.87360
  0.4670    1.73760
  0.4690    1.60680
  0.4710    1.48290
  0.4730    1.36550
  0.4750    1.25380
  0.4770    1.14730
  0.4790    1.04620
  0.4810    0.95120
  0.4830    0.86220
  0.4850    0.77930
  0.4870    0.70200
  0.4890    0.62960
  0.4910    0.56250
  0.4930    0.50050
  0.4950    0.44330
  0.4970    0.39140
  0.4990    0.34450
  0.5010    0.30210
  0.5030    0.26400
  0.5050    0.23030
  0.5070    0.20040
  0.5090    0.17410
  0.5110    0.15160
  0.5130    0.13280
  0.5150    0.11740
  0.5170    0.10520
  0.5190    0.09550
  0.5210    0.08860
  0.5230    0.08440
  0.5250    0.08280
  0.5270    0.08350
  0.5290    0.08560
  0.5310    0.08900
  0.5330    0.09430
  0.5350    0.10100
  0.5370    0.10860
  0.5390    0.11720
  0.5410    0.12670
  0.5430    0.13720
  0.5450    0.14830
  0.5470    0.15960
  0.5490    0.17130
  0.5510    0.18340
  0.5530    0.19550
  0.5550    0.20750
  0.5570    0.21940
  0.5590    0.23120
  0.5610    0.24280
  0.5630    0.25410
  0.5650    0.26500
  0.5670    0.27520
  0.5690    0.28500
  0.5710    0.29450
  0.5730    0.30350
  0.5750    0.31230
  0.5770    0.32050
  0.5790    0.32800
  0.5810    0.33490
  0.5830    0.34160
  0.5850    0.34750
  0.5870    0.35280
  0.5890    0.35780
  0.5910    0.36250
  0.5930    0.36660
  0.5950    0.37010
  0.5970    0.37320
  0.5990    0.37610
  0.6010    0.37860
  0.6030    0.38070
  0.6050    0.38270
  0.6070    0.38430
  0.6090    0.38540
  0.6110    0.38650
  0.6130    0.38740
  0.6150    0.38820
  0.6170    0.38880
  0.6190    0.38910
  0.6210    0.38930
  0.6230    0.38930
  0.6250    0.38930
  0.6270    0.38920
  0.6290    0.38920
  0.6310    0.38930
  0.6330    0.38930
  0.6350    0.38920
  0.6370    0.38910
  0.6390    0.38910
  0.6410    0.38900
  0.6430    0.38900
  0.6450    0.38890
  0.6470    0.38890
  0.6490    0.38880
  0.6510    0.38890
  0.6530    0.38900
  0.6550    0.38900
  0.6570    0.38920
  0.6590    0.38930
  0.6610    0.38930
  0.6630    0.38950
  0.6650    0.38980
  0.6670    0.38990
  0.6690    0.39000
  0.6710    0.39000
  0.6730    0.39020
  0.6750    0.39040
  0.6770    0.39060
  0.6790    0.39090
  0.6810    0.39110
  0.6830    0.39120
  0.6850    0.39130
  0.6870    0.39140
  0.6890    0.39160
  0.6910    0.39170
  0.6930    0.39190
  0.6950    0.39200
  0.6970    0.39210
  0.6990    0.39230
  0.7010    0.39260
  0.7030    0.39290
  0.7050    0.39320
  0.7070    0.39340
  0.7090    0.39370
  0.7110    0.39420
  0.7130    0.39460
  0.7150    0.39500
  0.7170    0.39550
  0.7190    0.39600
  0.7210    0.39650
  0.7230    0.39720
  0.7250    0.39790
  0.7270    0.39870
  0.7290    0.39970
  0.7310    0.40090
  0.7330    0.40210
  0.7350    0.40330
  0.7370    0.40470
  0.7390    0.40630
  0.7410    0.40780
  0.7430    0.40950
  0.7450    0.41140
  0.7470    0.41340
  0.7490    0.41550
  0.7510    0.41760
  0.7530    0.41980
  0.7550    0.42210
  0.7570    0.42450
  0.7590    0.42690
  0.7610    0.42940
  0.7630    0.43190
  0.7650    0.43440
  0.7670    0.43680
  0.7690    0.43930
  0.7710    0.44180
  0.7730    0.44430
  0.7750    0.44670
  0.7770    0.44910
  0.7790    0.45130
  0.7810    0.45330
  0.7830    0.45530
  0.7850    0.45720
  0.7870    0.45890
  0.7890    0.46020
  0.7910    0.46140
  0.7930    0.46240
  0.7950    0.46310
  0.7970    0.46350
  0.7990    0.46380
  0.8010    0.46380
  0.8030    0.46340
  0.8050    0.46290
  0.8070    0.46200
  0.8090    0.46070
  0.8110    0.45910
  0.8130    0.45700
  0.8150    0.45460
  0.8170    0.45190
  0.8190    0.44870
  0.8210    0.44520
  0.8230    0.44120
  0.8250    0.43690
  0.8270    0.43230
  0.8290    0.42720
  0.8310    0.42170
  0.8330    0.41570
  0.8350    0.40950
  0.8370    0.40300
  0.8390    0.39610
  0.8410    0.38890
  0.8430    0.38140
  0.8450    0.37360
  0.8470    0.36550
  0.8490    0.35720
  0.8510    0.34850
  0.8530    0.33960
  0.8550    0.33050
  0.8570    0.32110
  0.8590    0.31160
  0.8610    0.30190
  0.8630    0.29200
  0.8650    0.28190
  0.8670    0.27180
  0.8690    0.26160
  0.8710    0.25120
  0.8730    0.24080
  0.8750    0.23040
  0.8770    0.22000
  0.8790    0.20950
  0.8810    0.19910
  0.8830    0.18870
  0.8850    0.17840
  0.8870    0.16810
  0.8890    0.15790
  0.8910    0.14780
  0.8930    0.13780
  0.8950    0.12810
  0.8970    0.11860
  0.8990    0.10920
  0.9010    0.09990
  0.9030    0.09090
  0.9050    0.08210
  0.9070    0.07350
  0.9090    0.06520
  0.9110    0.05700
  0.9130    0.04920
  0.9150    0.04160
  0.9170    0.03430
  0.9190    0.02730
  0.9210    0.02060
  0.9230    0.01430
  0.9250    0.00830
  0.9270    0.00270
  0.9290   -0.00270
  0.9310   -0.00780
  0.9330   -0.01250
  0.9350   -0.01700
  0.9370   -0.02120
  0.9390   -0.02490
  0.9410   -0.02820
  0.9430   -0.03120
  0.9450   -0.03380
  0.9470   -0.03600
  0.9490   -0.03790
  0.9510   -0.03940
  0.9530   -0.04050
  0.9550   -0.04130
  0.9570   -0.04170
  0.9590   -0.04180
  0.9610   -0.04150
  0.9630   -0.04100
  0.9650   -0.04000
  0.9670   -0.03860
  0.9690   -0.03690
  0.9710   -0.03490
  0.9730   -0.03260
  0.9750   -0.02990
  0.9770   -0.02690
  0.9790   -0.02370
  0.9810   -0.02020
  0.9830   -0.01630
  0.9850   -0.01210
  0.9870   -0.00770
  0.9890   -0.00300
  0.9910    0.00190
  0.9930    0.00700
  0.9950    0.01250
  0.9970    0.01820
  0.9990    0.02410
  1.0010    0.03010
  1.0030    0.03620
  1.0050    0.04240
  1.0070    0.04880
  1.0090    0.05540
  1.0110    0.06220
  1.0130    0.06900
  1.0150    0.07580
  1.0170    0.08270
  1.0190    0.08960
  1.0210    0.09660
  1.0230    0.10350
  1.0250    0.11030
  1.0270    0.11710
  1.0290    0.12380
  1.0310    0.13050
  1.0330    0.13710
  1.0350    0.14360
  1.0370    0.14990
  1.0390    0.15610
  1.0410    0.16220
  1.0430    0.16800
  1.0450    0.17380
  1.0470    0.17920
  1.0490    0.18440
  1.0510    0.18920
  1.0530    0.19380
  1.0550    0.19820
  1.0570    0.20220
  1.0590    0.20600
  1.0610    0.20950
  1.0630    0.21270
  1.0650    0.21560
  1.0670    0.21820
  1.0690    0.22050
  1.0710    0.22240
  1.0730    0.22410
  1.0750    0.22540
  1.0770    0.22640
  1.0790    0.22710
  1.0810    0.22750
  1.0830    0.22750
  1.0850    0.22720
  1.0870    0.22650
  1.0890    0.22570
  1.0910    0.22470
  1.0930    0.22330
  1.0950    0.22160
  1.0970    0.21960
  1.0990    0.21740
  1.1010    0.21490
  1.1030    0.21230
  1.1050    0.20930
  1.1070    0.20610
  1.1090    0.20270
  1.1110    0.19930
  1.1130    0.19570
  1.1150    0.19190
  1.1170    0.18810
  1.1190    0.18420
  1.1210    0.18020
  1.1230    0.17600
  1.1250    0.17170
  1.1270    0.16750
  1.1290    0.16330
  1.1310    0.15910
  1.1330    0.15490
  1.1350    0.15060
  1.1370    0.14640
  1.1390    0.14230
  1.1410    0.13820
  1.1430    0.13410
  1.1450    0.13020
  1.1470    0.12640
  1.1490    0.12260
  1.1510    0.11900
  1.1530    0.11530
  1.1550    0.11180
  1.1570    0.10840
  1.1590    0.10510
  1.1610    0.10210
  1.1630    0.09910
  1.1650    0.09620
  1.1670    0.09330
  1.1690    0.09060
  1.1710    0.08810
  1.1730    0.08560
  1.1750    0.08320
  1.1770    0.08100
  1.1790    0.07880
  1.1810    0.07670
  1.1830    0.07470
  1.1850    0.07280
  1.1870    0.07090
  1.1890    0.06900
  1.1910    0.06720
  1.1930    0.06540
  1.1950    0.06360
  1.1970    0.06180
  1.1990    0.06000
  1.2010    0.05820
  1.2030    0.05650
  1.2050    0.05480
  1.2070    0.05300
  1.2090    0.05110
  1.2110    0.04920
  1.2130    0.04720
  1.2150    0.04520
  1.2170    0.04310
  1.2190    0.04090
  1.2210    0.03870
  1.2230    0.03650
  1.2250    0.03410
  1.2270    0.03170
  1.2290    0.02920
  1.2310    0.02680
  1.2330    0.02430
  1.2350    0.02180
  1.2370    0.01920
  1.2390    0.01650
  1.2410    0.01380
  1.2430    0.01100
  1.2450    0.00820
  1.2470    0.00530
  1.2490    0.00250
  1.2510   -0.00030
  1.2530   -0.00320
  1.2550   -0.00600
  1.2570   -0.00880
  1.2590   -0.01170
  1.2610   -0.01450
  1.2630   -0.01720
  1.2650   -0.01980
  1.2670   -0.02240
  1.2690   -0.02490
  1.2710   -0.02720
  1.2730   -0.02940
  1.2750   -0.03160
  1.2770   -0.03360
  1.2790   -0.03550
  1.2810   -0.03730
  1.2830   -0.03890
  1.2850   -0.04030
  1.2870   -0.04140
  1.2890   -0.04250
  1.2910   -0.04340
  1.2930   -0.04400
  1.2950   -0.04460
  1.2970   -0.04500
  1.2990   -0.04510
  1.3010   -0.04510
  1.3030   -0.04490
  1.3050   -0.04440
  1.3070   -0.04380
  1.3090   -0.04300
  1.3110   -0.04210
  1.3130   -0.04100
  1.3150   -0.03960
  1.3170   -0.03820
  1.3190   -0.03670
  1.3210   -0.03500
  1.3230   -0.03320
  1.3250   -0.03120
  1.3270   -0.02920
  1.3290   -0.02720
  1.3310   -0.02510
  1.3330   -0.02280
  1.3350   -0.02050
  1.3370   -0.01800
  1.3390   -0.01550
  1.3410   -0.01290
  1.3430   -0.01030
  1.3450   -0.00780
  1.3470   -0.00530
  1.3490   -0.00270
  1.3510   -0.00010
  1.3530    0.00260
  1.3550    0.00520
  1.3570    0.00780
  1.3590    0.01030
  1.3610    0.01280
  1.3630    0.01520
  1.3650    0.01750
  1.3670    0.01980
  1.3690    0.02200
  1.3710    0.02400
  1.3730    0.02590
  1.3750    0.02770
  1.3770    0.02930
  1.3790    0.03080
  1.3810    0.03220
  1.3830    0.03340
  1.3850    0.03430
  1.3870    0.03490
  1.3890    0.03540
  1.3910    0.03540
  1.3930    0.03520
  1.3950    0.03460
  1.3970    0.03350
  1.3990    0.03210
