# z (nm)   (kJ/mol)
  0.281000, 15.498700
  0.283000, 15.307500
  0.285000, 15.118800
  0.287000, 14.931100
  0.289000, 14.732400
  0.291000, 14.540900
  0.293000, 14.352600
  0.295000, 14.150800
  0.297000, 13.950200
  0.299000, 13.747700
  0.301000, 13.538800
  0.303000, 13.328100
  0.305000, 13.109600
  0.307000, 12.887700
  0.309000, 12.661100
  0.311000, 12.428300
  0.313000, 12.195400
  0.315000, 11.954900
  0.317000, 11.714100
  0.319000, 11.477400
  0.321000, 11.234100
  0.323000, 10.987900
  0.325000, 10.741100
  0.327000, 10.493300
  0.329000, 10.246400
  0.331000,  9.997800
  0.333000,  9.749800
  0.335000,  9.501100
  0.337000,  9.254400
  0.339000,  9.010900
  0.341000,  8.768800
  0.343000,  8.530500
  0.345000,  8.292500
  0.347000,  8.054600
  0.349000,  7.817500
  0.351000,  7.587600
  0.353000,  7.363500
  0.355000,  7.147600
  0.357000,  6.939200
  0.359000,  6.732600
  0.361000,  6.534200
  0.363000,  6.341200
  0.365000,  6.153300
  0.367000,  5.971700
  0.369000,  5.796600
  0.371000,  5.631800
  0.373000,  5.473400
  0.375000,  5.324500
  0.377000,  5.186700
  0.379000,  5.055400
  0.381000,  4.933300
  0.383000,  4.819100
  0.385000,  4.714000
  0.387000,  4.618000
  0.389000,  4.529300
  0.391000,  4.449300
  0.393000,  4.377800
  0.395000,  4.315100
  0.397000,  4.261200
  0.399000,  4.215000
  0.401000,  4.176400
  0.403000,  4.146000
  0.405000,  4.123400
  0.407000,  4.108500
  0.409000,  4.100900
  0.411000,  4.100800
  0.413000,  4.107900
  0.415000,  4.122100
  0.417000,  4.142800
  0.419000,  4.169500
  0.421000,  4.202200
  0.423000,  4.239900
  0.425000,  4.283500
  0.427000,  4.332500
  0.429000,  4.385500
  0.431000,  4.442500
  0.433000,  4.503000
  0.435000,  4.566900
  0.437000,  4.634100
  0.439000,  4.704700
  0.441000,  4.777500
  0.443000,  4.850600
  0.445000,  4.922900
  0.447000,  4.995300
  0.449000,  5.068500
  0.451000,  5.138900
  0.453000,  5.205400
  0.455000,  5.269300
  0.457000,  5.330000
  0.459000,  5.387600
  0.461000,  5.441700
  0.463000,  5.490300
  0.465000,  5.532100
  0.467000,  5.568300
  0.469000,  5.599200
  0.471000,  5.623200
  0.473000,  5.640500
  0.475000,  5.650800
  0.477000,  5.653800
  0.479000,  5.649200
  0.481000,  5.636800
  0.483000,  5.616400
  0.485000,  5.587600
  0.487000,  5.550700
  0.489000,  5.505800
  0.491000,  5.452600
  0.493000,  5.391000
  0.495000,  5.321700
  0.497000,  5.244700
  0.499000,  5.160300
  0.501000,  5.069200
  0.503000,  4.970900
  0.505000,  4.866100
  0.507000,  4.755100
  0.509000,  4.637200
  0.511000,  4.513200
  0.513000,  4.383000
  0.515000,  4.249900
  0.517000,  4.111300
  0.519000,  3.965000
  0.521000,  3.815800
  0.523000,  3.662500
  0.525000,  3.504400
  0.527000,  3.342200
  0.529000,  3.177200
  0.531000,  3.011600
  0.533000,  2.845000
  0.535000,  2.676500
  0.537000,  2.506700
  0.539000,  2.335700
  0.541000,  2.163400
  0.543000,  1.992100
  0.545000,  1.821300
  0.547000,  1.649900
  0.549000,  1.479800
  0.551000,  1.311100
  0.553000,  1.143900
  0.555000,  0.979200
  0.557000,  0.816400
  0.559000,  0.655500
  0.561000,  0.497400
  0.563000,  0.342500
  0.565000,  0.190400
  0.567000,  0.041200
  0.569000, -0.103400
  0.571000, -0.243700
  0.573000, -0.380700
  0.575000, -0.513300
  0.577000, -0.641800
  0.579000, -0.766400
  0.581000, -0.886100
  0.583000, -1.001200
  0.585000, -1.111200
  0.587000, -1.215900
  0.589000, -1.315700
  0.591000, -1.410700
  0.593000, -1.500900
  0.595000, -1.586200
  0.597000, -1.666300
  0.599000, -1.741200
  0.601000, -1.810900
  0.603000, -1.875900
  0.605000, -1.936000
  0.607000, -1.991200
  0.609000, -2.041600
  0.611000, -2.087300
  0.613000, -2.128300
  0.615000, -2.164400
  0.617000, -2.196100
  0.619000, -2.223300
  0.621000, -2.246600
  0.623000, -2.266200
  0.625000, -2.281800
  0.627000, -2.293400
  0.629000, -2.301300
  0.631000, -2.305700
  0.633000, -2.306600
  0.635000, -2.304500
  0.637000, -2.299800
  0.639000, -2.292100
  0.641000, -2.282100
  0.643000, -2.269500
  0.645000, -2.254100
  0.647000, -2.236900
  0.649000, -2.217800
  0.651000, -2.196800
  0.653000, -2.174100
  0.655000, -2.150100
  0.657000, -2.125000
  0.659000, -2.098100
  0.661000, -2.069900
  0.663000, -2.041200
  0.665000, -2.011500
  0.667000, -1.980900
  0.669000, -1.949900
  0.671000, -1.918000
  0.673000, -1.885700
  0.675000, -1.853400
  0.677000, -1.820700
  0.679000, -1.787600
  0.681000, -1.754600
  0.683000, -1.721700
  0.685000, -1.688800
  0.687000, -1.656000
  0.689000, -1.623600
  0.691000, -1.591300
  0.693000, -1.559300
  0.695000, -1.527600
  0.697000, -1.496200
  0.699000, -1.465200
  0.701000, -1.434700
  0.703000, -1.404600
  0.705000, -1.375000
  0.707000, -1.345800
  0.709000, -1.317100
  0.711000, -1.288800
  0.713000, -1.260900
  0.715000, -1.233400
  0.717000, -1.206400
  0.719000, -1.179700
  0.721000, -1.153400
  0.723000, -1.127500
  0.725000, -1.102200
  0.727000, -1.077200
  0.729000, -1.052700
  0.731000, -1.028400
  0.733000, -1.004500
  0.735000, -0.981000
  0.737000, -0.957900
  0.739000, -0.935100
  0.741000, -0.912600
  0.743000, -0.890300
  0.745000, -0.868200
  0.747000, -0.846300
  0.749000, -0.824600
  0.751000, -0.803300
  0.753000, -0.782100
  0.755000, -0.760900
  0.757000, -0.740000
  0.759000, -0.719200
  0.761000, -0.698500
  0.763000, -0.678000
  0.765000, -0.657700
  0.767000, -0.637400
  0.769000, -0.617300
  0.771000, -0.597400
  0.773000, -0.577500
  0.775000, -0.557800
  0.777000, -0.538200
  0.779000, -0.518600
  0.781000, -0.499300
  0.783000, -0.480100
  0.785000, -0.461100
  0.787000, -0.442300
  0.789000, -0.423700
  0.791000, -0.405300
  0.793000, -0.387100
  0.795000, -0.369100
  0.797000, -0.351400
  0.799000, -0.334000
  0.801000, -0.316800
  0.803000, -0.300000
  0.805000, -0.283600
  0.807000, -0.267500
  0.809000, -0.251600
  0.811000, -0.236200
  0.813000, -0.221200
  0.815000, -0.206600
  0.817000, -0.192500
  0.819000, -0.178800
  0.821000, -0.165800
  0.823000, -0.153200
  0.825000, -0.141100
  0.827000, -0.129600
  0.829000, -0.118600
  0.831000, -0.108500
  0.833000, -0.098900
  0.835000, -0.089900
  0.837000, -0.081400
  0.839000, -0.073500
  0.841000, -0.066300
  0.843000, -0.059800
  0.845000, -0.054000
  0.847000, -0.048700
  0.849000, -0.044200
  0.851000, -0.040300
  0.853000, -0.037000
  0.855000, -0.034300
  0.857000, -0.032400
  0.859000, -0.031100
  0.861000, -0.030400
  0.863000, -0.030200
  0.865000, -0.030700
  0.867000, -0.031800
  0.869000, -0.033400
  0.871000, -0.035500
  0.873000, -0.038100
  0.875000, -0.041200
  0.877000, -0.044800
  0.879000, -0.048900
  0.881000, -0.053500
  0.883000, -0.058600
  0.885000, -0.063900
  0.887000, -0.069500
  0.889000, -0.075500
  0.891000, -0.081900
  0.893000, -0.088500
  0.895000, -0.095500
  0.897000, -0.102700
  0.899000, -0.110200
  0.901000, -0.117800
  0.903000, -0.125500
  0.905000, -0.133300
  0.907000, -0.141300
  0.909000, -0.149300
  0.911000, -0.157500
  0.913000, -0.165700
  0.915000, -0.173900
  0.917000, -0.182100
  0.919000, -0.190200
  0.921000, -0.198300
  0.923000, -0.206100
  0.925000, -0.214000
  0.927000, -0.221900
  0.929000, -0.229700
  0.931000, -0.237100
  0.933000, -0.244300
  0.935000, -0.251400
  0.937000, -0.258400
  0.939000, -0.265300
  0.941000, -0.272000
  0.943000, -0.278300
  0.945000, -0.284400
  0.947000, -0.290300
  0.949000, -0.295900
  0.951000, -0.301300
  0.953000, -0.306300
  0.955000, -0.311100
  0.957000, -0.315600
  0.959000, -0.319900
  0.961000, -0.323800
  0.963000, -0.327500
  0.965000, -0.331000
  0.967000, -0.334100
  0.969000, -0.337000
  0.971000, -0.339600
  0.973000, -0.341900
  0.975000, -0.344000
  0.977000, -0.345700
  0.979000, -0.347100
  0.981000, -0.348300
  0.983000, -0.349200
  0.985000, -0.349900
  0.987000, -0.350300
  0.989000, -0.350600
  0.991000, -0.350600
  0.993000, -0.350400
  0.995000, -0.350000
  0.997000, -0.349400
  0.999000, -0.348700
  1.001000, -0.347700
  1.003000, -0.346700
  1.005000, -0.345400
  1.007000, -0.343800
  1.009000, -0.342100
  1.011000, -0.340200
  1.013000, -0.338200
  1.015000, -0.336100
  1.017000, -0.334000
  1.019000, -0.331600
  1.021000, -0.329100
  1.023000, -0.326400
  1.025000, -0.323700
  1.027000, -0.320900
  1.029000, -0.317900
  1.031000, -0.314800
  1.033000, -0.311500
  1.035000, -0.308200
  1.037000, -0.304800
  1.039000, -0.301300
  1.041000, -0.297800
  1.043000, -0.294200
  1.045000, -0.290500
  1.047000, -0.286700
  1.049000, -0.282800
  1.051000, -0.278800
  1.053000, -0.274700
  1.055000, -0.270400
  1.057000, -0.266200
  1.059000, -0.262000
  1.061000, -0.257600
  1.063000, -0.253200
  1.065000, -0.248700
  1.067000, -0.244000
  1.069000, -0.239200
  1.071000, -0.234400
  1.073000, -0.229600
  1.075000, -0.224700
  1.077000, -0.219700
  1.079000, -0.214800
  1.081000, -0.209800
  1.083000, -0.204600
  1.085000, -0.199400
  1.087000, -0.194100
  1.089000, -0.188900
  1.091000, -0.183700
  1.093000, -0.178400
  1.095000, -0.173100
  1.097000, -0.167900
  1.099000, -0.162500
  1.101000, -0.157000
  1.103000, -0.151500
  1.105000, -0.145900
  1.107000, -0.140300
  1.109000, -0.134800
  1.111000, -0.129300
  1.113000, -0.123700
  1.115000, -0.118200
  1.117000, -0.112800
  1.119000, -0.107200
  1.121000, -0.101600
  1.123000, -0.096100
  1.125000, -0.090600
  1.127000, -0.085200
  1.129000, -0.079700
  1.131000, -0.074100
  1.133000, -0.068700
  1.135000, -0.063200
  1.137000, -0.057800
  1.139000, -0.052500
  1.141000, -0.047000
  1.143000, -0.041600
  1.145000, -0.036300
  1.147000, -0.031100
  1.149000, -0.026000
  1.151000, -0.020900
  1.153000, -0.015800
  1.155000, -0.010800
  1.157000, -0.006000
  1.159000, -0.001300
  1.161000,  0.003400
  1.163000,  0.008000
  1.165000,  0.012500
  1.167000,  0.016700
  1.169000,  0.020700
  1.171000,  0.024700
  1.173000,  0.028500
  1.175000,  0.032200
  1.177000,  0.035600
  1.179000,  0.038900
  1.181000,  0.041900
  1.183000,  0.044700
  1.185000,  0.047300
  1.187000,  0.049600
  1.189000,  0.051800
  1.191000,  0.053700
  1.193000,  0.055300
  1.195000,  0.056700
  1.197000,  0.057900
  1.199000,  0.058800
  1.201000,  0.059300
  1.203000,  0.059700
  1.205000,  0.059700
  1.207000,  0.059500
  1.209000,  0.058900
  1.211000,  0.058100
  1.213000,  0.057000
  1.215000,  0.055600
  1.217000,  0.053900
  1.219000,  0.052000
  1.221000,  0.049900
  1.223000,  0.047400
  1.225000,  0.044800
  1.227000,  0.042000
  1.229000,  0.039100
  1.231000,  0.036000
  1.233000,  0.032700
  1.235000,  0.029100
  1.237000,  0.025500
  1.239000,  0.021700
  1.241000,  0.018000
  1.243000,  0.014200
  1.245000,  0.010300
  1.247000,  0.006300
  1.249000,  0.002400
  1.251000, -0.001500
  1.253000, -0.005300
  1.255000, -0.009200
  1.257000, -0.013000
  1.259000, -0.016700
  1.261000, -0.020300
  1.263000, -0.023800
  1.265000, -0.027100
  1.267000, -0.030200
  1.269000, -0.033200
  1.271000, -0.036000
  1.273000, -0.038600
  1.275000, -0.040900
  1.277000, -0.043100
  1.279000, -0.045200
  1.281000, -0.047000
  1.283000, -0.048500
  1.285000, -0.049800
  1.287000, -0.050900
  1.289000, -0.051800
  1.291000, -0.052400
  1.293000, -0.052800
  1.295000, -0.053100
  1.297000, -0.053000
  1.299000, -0.052800
  1.301000, -0.052400
  1.303000, -0.051800
  1.305000, -0.051000
  1.307000, -0.050000
  1.309000, -0.048900
  1.311000, -0.047700
  1.313000, -0.046300
  1.315000, -0.044800
  1.317000, -0.043100
  1.319000, -0.041300
  1.321000, -0.039400
  1.323000, -0.037400
  1.325000, -0.035400
  1.327000, -0.033300
  1.329000, -0.031100
  1.331000, -0.028800
  1.333000, -0.026500
  1.335000, -0.024000
  1.337000, -0.021500
  1.339000, -0.018900
  1.341000, -0.016200
  1.343000, -0.013500
  1.345000, -0.010800
  1.347000, -0.008200
  1.349000, -0.005500
  1.351000, -0.002800
  1.353000, -0.000000
  1.355000,  0.002800
  1.357000,  0.005800
  1.359000,  0.008600
  1.361000,  0.011400
  1.363000,  0.014200
  1.365000,  0.017000
  1.367000,  0.019800
  1.369000,  0.022500
  1.371000,  0.025200
  1.373000,  0.027900
  1.375000,  0.030600
  1.377000,  0.033200
  1.379000,  0.035900
  1.381000,  0.038600
  1.383000,  0.041200
  1.385000,  0.043500
  1.387000,  0.045700
  1.389000,  0.047800
  1.391000,  0.049500
  1.393000,  0.050800
  1.395000,  0.052100
  1.397000,  0.053200
  1.399000,  0.053900
