# z (nm)   (kJ/mol)
  0.3110   11.97720
  0.3130   11.67370
  0.3150   11.35800
  0.3170   11.03370
  0.3190   10.67880
  0.3210   10.31900
  0.3230    9.97300
  0.3250    9.63530
  0.3270    9.30100
  0.3290    8.96250
  0.3310    8.62010
  0.3330    8.27750
  0.3350    7.93020
  0.3370    7.57740
  0.3390    7.22380
  0.3410    6.86670
  0.3430    6.50620
  0.3450    6.14360
  0.3470    5.77780
  0.3490    5.41130
  0.3510    5.04460
  0.3530    4.67760
  0.3550    4.31280
  0.3570    3.95500
  0.3590    3.60440
  0.3610    3.26130
  0.3630    2.92940
  0.3650    2.60810
  0.3670    2.29860
  0.3690    2.00130
  0.3710    1.71730
  0.3730    1.44670
  0.3750    1.18880
  0.3770    0.94300
  0.3790    0.70760
  0.3810    0.48330
  0.3830    0.26750
  0.3850    0.05900
  0.3870   -0.14110
  0.3890   -0.33230
  0.3910   -0.51460
  0.3930   -0.69090
  0.3950   -0.86240
  0.3970   -1.02470
  0.3990   -1.17580
  0.4010   -1.31750
  0.4030   -1.44840
  0.4050   -1.56740
  0.4070   -1.67510
  0.4090   -1.77280
  0.4110   -1.85830
  0.4130   -1.93040
  0.4150   -1.99260
  0.4170   -2.04510
  0.4190   -2.08770
  0.4210   -2.11930
  0.4230   -2.13940
  0.4250   -2.14830
  0.4270   -2.14740
  0.4290   -2.13520
  0.4310   -2.11190
  0.4330   -2.07810
  0.4350   -2.03580
  0.4370   -1.98580
  0.4390   -1.92550
  0.4410   -1.85800
  0.4430   -1.78380
  0.4450   -1.69950
  0.4470   -1.61140
  0.4490   -1.51820
  0.4510   -1.41630
  0.4530   -1.31190
  0.4550   -1.20420
  0.4570   -1.09380
  0.4590   -0.97940
  0.4610   -0.86190
  0.4630   -0.74350
  0.4650   -0.62330
  0.4670   -0.50190
  0.4690   -0.38060
  0.4710   -0.25940
  0.4730   -0.13930
  0.4750   -0.02300
  0.4770    0.09170
  0.4790    0.20490
  0.4810    0.31470
  0.4830    0.42130
  0.4850    0.52570
  0.4870    0.62590
  0.4890    0.72150
  0.4910    0.81270
  0.4930    0.89940
  0.4950    0.98200
  0.4970    1.05890
  0.4990    1.13010
  0.5010    1.19560
  0.5030    1.25530
  0.5050    1.30890
  0.5070    1.35590
  0.5090    1.39660
  0.5110    1.43110
  0.5130    1.45960
  0.5150    1.48150
  0.5170    1.49670
  0.5190    1.50610
  0.5210    1.50930
  0.5230    1.50610
  0.5250    1.49660
  0.5270    1.48120
  0.5290    1.46020
  0.5310    1.43330
  0.5330    1.40050
  0.5350    1.36230
  0.5370    1.31850
  0.5390    1.27000
  0.5410    1.21610
  0.5430    1.15760
  0.5450    1.09490
  0.5470    1.02780
  0.5490    0.95650
  0.5510    0.88130
  0.5530    0.80290
  0.5550    0.72040
  0.5570    0.63460
  0.5590    0.54650
  0.5610    0.45570
  0.5630    0.36310
  0.5650    0.26800
  0.5670    0.17010
  0.5690    0.07100
  0.5710   -0.02910
  0.5730   -0.13030
  0.5750   -0.23310
  0.5770   -0.33540
  0.5790   -0.43680
  0.5810   -0.53880
  0.5830   -0.64070
  0.5850   -0.74170
  0.5870   -0.84230
  0.5890   -0.94100
  0.5910   -1.03760
  0.5930   -1.13380
  0.5950   -1.22860
  0.5970   -1.32080
  0.5990   -1.41030
  0.6010   -1.49730
  0.6030   -1.58100
  0.6050   -1.66140
  0.6070   -1.73930
  0.6090   -1.81420
  0.6110   -1.88600
  0.6130   -1.95430
  0.6150   -2.01900
  0.6170   -2.07980
  0.6190   -2.13680
  0.6210   -2.19070
  0.6230   -2.24160
  0.6250   -2.28880
  0.6270   -2.33210
  0.6290   -2.37150
  0.6310   -2.40700
  0.6330   -2.43880
  0.6350   -2.46670
  0.6370   -2.49100
  0.6390   -2.51180
  0.6410   -2.52890
  0.6430   -2.54260
  0.6450   -2.55290
  0.6470   -2.56020
  0.6490   -2.56440
  0.6510   -2.56550
  0.6530   -2.56360
  0.6550   -2.55870
  0.6570   -2.55110
  0.6590   -2.54110
  0.6610   -2.52880
  0.6630   -2.51460
  0.6650   -2.49820
  0.6670   -2.47990
  0.6690   -2.45990
  0.6710   -2.43840
  0.6730   -2.41520
  0.6750   -2.39020
  0.6770   -2.36440
  0.6790   -2.33780
  0.6810   -2.30980
  0.6830   -2.28100
  0.6850   -2.25220
  0.6870   -2.22310
  0.6890   -2.19390
  0.6910   -2.16460
  0.6930   -2.13520
  0.6950   -2.10590
  0.6970   -2.07640
  0.6990   -2.04740
  0.7010   -2.01890
  0.7030   -1.99050
  0.7050   -1.96270
  0.7070   -1.93580
  0.7090   -1.90960
  0.7110   -1.88450
  0.7130   -1.86030
  0.7150   -1.83680
  0.7170   -1.81440
  0.7190   -1.79310
  0.7210   -1.77270
  0.7230   -1.75320
  0.7250   -1.73470
  0.7270   -1.71710
  0.7290   -1.70040
  0.7310   -1.68440
  0.7330   -1.66970
  0.7350   -1.65570
  0.7370   -1.64250
  0.7390   -1.63040
  0.7410   -1.61870
  0.7430   -1.60760
  0.7450   -1.59720
  0.7470   -1.58760
  0.7490   -1.57850
  0.7510   -1.56950
  0.7530   -1.56090
  0.7550   -1.55270
  0.7570   -1.54480
  0.7590   -1.53720
  0.7610   -1.52980
  0.7630   -1.52230
  0.7650   -1.51490
  0.7670   -1.50740
  0.7690   -1.49970
  0.7710   -1.49190
  0.7730   -1.48380
  0.7750   -1.47540
  0.7770   -1.46670
  0.7790   -1.45750
  0.7810   -1.44800
  0.7830   -1.43800
  0.7850   -1.42760
  0.7870   -1.41660
  0.7890   -1.40510
  0.7910   -1.39300
  0.7930   -1.38040
  0.7950   -1.36720
  0.7970   -1.35350
  0.7990   -1.33910
  0.8010   -1.32400
  0.8030   -1.30850
  0.8050   -1.29260
  0.8070   -1.27600
  0.8090   -1.25860
  0.8110   -1.24060
  0.8130   -1.22230
  0.8150   -1.20340
  0.8170   -1.18400
  0.8190   -1.16420
  0.8210   -1.14390
  0.8230   -1.12320
  0.8250   -1.10240
  0.8270   -1.08130
  0.8290   -1.05990
  0.8310   -1.03840
  0.8330   -1.01640
  0.8350   -0.99440
  0.8370   -0.97240
  0.8390   -0.95040
  0.8410   -0.92840
  0.8430   -0.90640
  0.8450   -0.88450
  0.8470   -0.86290
  0.8490   -0.84150
  0.8510   -0.82000
  0.8530   -0.79860
  0.8550   -0.77740
  0.8570   -0.75670
  0.8590   -0.73620
  0.8610   -0.71600
  0.8630   -0.69630
  0.8650   -0.67700
  0.8670   -0.65810
  0.8690   -0.63960
  0.8710   -0.62150
  0.8730   -0.60400
  0.8750   -0.58710
  0.8770   -0.57090
  0.8790   -0.55530
  0.8810   -0.54020
  0.8830   -0.52560
  0.8850   -0.51160
  0.8870   -0.49830
  0.8890   -0.48560
  0.8910   -0.47340
  0.8930   -0.46170
  0.8950   -0.45060
  0.8970   -0.44010
  0.8990   -0.43010
  0.9010   -0.42050
  0.9030   -0.41140
  0.9050   -0.40290
  0.9070   -0.39480
  0.9090   -0.38730
  0.9110   -0.38020
  0.9130   -0.37350
  0.9150   -0.36720
  0.9170   -0.36120
  0.9190   -0.35580
  0.9210   -0.35060
  0.9230   -0.34570
  0.9250   -0.34110
  0.9270   -0.33680
  0.9290   -0.33280
  0.9310   -0.32900
  0.9330   -0.32540
  0.9350   -0.32210
  0.9370   -0.31890
  0.9390   -0.31590
  0.9410   -0.31310
  0.9430   -0.31050
  0.9450   -0.30800
  0.9470   -0.30570
  0.9490   -0.30340
  0.9510   -0.30130
  0.9530   -0.29930
  0.9550   -0.29750
  0.9570   -0.29570
  0.9590   -0.29410
  0.9610   -0.29250
  0.9630   -0.29110
  0.9650   -0.28970
  0.9670   -0.28850
  0.9690   -0.28740
  0.9710   -0.28630
  0.9730   -0.28540
  0.9750   -0.28440
  0.9770   -0.28350
  0.9790   -0.28290
  0.9810   -0.28230
  0.9830   -0.28180
  0.9850   -0.28140
  0.9870   -0.28100
  0.9890   -0.28080
  0.9910   -0.28080
  0.9930   -0.28080
  0.9950   -0.28100
  0.9970   -0.28140
  0.9990   -0.28180
  1.0010   -0.28230
  1.0030   -0.28290
  1.0050   -0.28360
  1.0070   -0.28440
  1.0090   -0.28530
  1.0110   -0.28640
  1.0130   -0.28750
  1.0150   -0.28860
  1.0170   -0.28980
  1.0190   -0.29120
  1.0210   -0.29260
  1.0230   -0.29400
  1.0250   -0.29550
  1.0270   -0.29700
  1.0290   -0.29860
  1.0310   -0.30010
  1.0330   -0.30160
  1.0350   -0.30310
  1.0370   -0.30460
  1.0390   -0.30590
  1.0410   -0.30730
  1.0430   -0.30850
  1.0450   -0.30970
  1.0470   -0.31080
  1.0490   -0.31180
  1.0510   -0.31270
  1.0530   -0.31350
  1.0550   -0.31410
  1.0570   -0.31450
  1.0590   -0.31480
  1.0610   -0.31500
  1.0630   -0.31500
  1.0650   -0.31480
  1.0670   -0.31430
  1.0690   -0.31370
  1.0710   -0.31280
  1.0730   -0.31190
  1.0750   -0.31070
  1.0770   -0.30930
  1.0790   -0.30760
  1.0810   -0.30570
  1.0830   -0.30370
  1.0850   -0.30150
  1.0870   -0.29910
  1.0890   -0.29640
  1.0910   -0.29350
  1.0930   -0.29040
  1.0950   -0.28710
  1.0970   -0.28370
  1.0990   -0.28010
  1.1010   -0.27620
  1.1030   -0.27220
  1.1050   -0.26800
  1.1070   -0.26370
  1.1090   -0.25940
  1.1110   -0.25480
  1.1130   -0.25000
  1.1150   -0.24530
  1.1170   -0.24050
  1.1190   -0.23560
  1.1210   -0.23060
  1.1230   -0.22550
  1.1250   -0.22030
  1.1270   -0.21500
  1.1290   -0.20980
  1.1310   -0.20460
  1.1330   -0.19930
  1.1350   -0.19400
  1.1370   -0.18880
  1.1390   -0.18360
  1.1410   -0.17850
  1.1430   -0.17330
  1.1450   -0.16810
  1.1470   -0.16280
  1.1490   -0.15760
  1.1510   -0.15250
  1.1530   -0.14750
  1.1550   -0.14260
  1.1570   -0.13760
  1.1590   -0.13250
  1.1610   -0.12770
  1.1630   -0.12320
  1.1650   -0.11870
  1.1670   -0.11420
  1.1690   -0.10970
  1.1710   -0.10530
  1.1730   -0.10110
  1.1750   -0.09700
  1.1770   -0.09290
  1.1790   -0.08890
  1.1810   -0.08500
  1.1830   -0.08130
  1.1850   -0.07760
  1.1870   -0.07390
  1.1890   -0.07030
  1.1910   -0.06690
  1.1930   -0.06340
  1.1950   -0.06000
  1.1970   -0.05670
  1.1990   -0.05350
  1.2010   -0.05020
  1.2030   -0.04700
  1.2050   -0.04400
  1.2070   -0.04090
  1.2090   -0.03780
  1.2110   -0.03480
  1.2130   -0.03200
  1.2150   -0.02930
  1.2170   -0.02650
  1.2190   -0.02370
  1.2210   -0.02090
  1.2230   -0.01820
  1.2250   -0.01550
  1.2270   -0.01290
  1.2290   -0.01040
  1.2310   -0.00780
  1.2330   -0.00530
  1.2350   -0.00300
  1.2370   -0.00080
  1.2390    0.00160
  1.2410    0.00380
  1.2430    0.00590
  1.2450    0.00800
  1.2470    0.01000
  1.2490    0.01200
  1.2510    0.01380
  1.2530    0.01540
  1.2550    0.01690
  1.2570    0.01830
  1.2590    0.01960
  1.2610    0.02070
  1.2630    0.02180
  1.2650    0.02280
  1.2670    0.02360
  1.2690    0.02410
  1.2710    0.02440
  1.2730    0.02450
  1.2750    0.02460
  1.2770    0.02460
  1.2790    0.02430
  1.2810    0.02390
  1.2830    0.02320
  1.2850    0.02250
  1.2870    0.02160
  1.2890    0.02060
  1.2910    0.01950
  1.2930    0.01810
  1.2950    0.01670
  1.2970    0.01520
  1.2990    0.01360
  1.3010    0.01180
  1.3030    0.00990
  1.3050    0.00800
  1.3070    0.00600
  1.3090    0.00400
  1.3110    0.00190
  1.3130   -0.00020
  1.3150   -0.00230
  1.3170   -0.00440
  1.3190   -0.00650
  1.3210   -0.00860
  1.3230   -0.01060
  1.3250   -0.01240
  1.3270   -0.01420
  1.3290   -0.01580
  1.3310   -0.01730
  1.3330   -0.01870
  1.3350   -0.02000
  1.3370   -0.02100
  1.3390   -0.02160
  1.3410   -0.02220
  1.3430   -0.02270
  1.3450   -0.02290
  1.3470   -0.02280
  1.3490   -0.02260
  1.3510   -0.02210
  1.3530   -0.02140
  1.3550   -0.02030
  1.3570   -0.01880
  1.3590   -0.01720
  1.3610   -0.01540
  1.3630   -0.01320
  1.3650   -0.01090
  1.3670   -0.00830
  1.3690   -0.00540
  1.3710   -0.00230
  1.3730    0.00080
  1.3750    0.00430
  1.3770    0.00790
  1.3790    0.01170
  1.3810    0.01560
  1.3830    0.01960
  1.3850    0.02360
  1.3870    0.02760
  1.3890    0.03160
  1.3910    0.03570
  1.3930    0.03960
  1.3950    0.04320
  1.3970    0.04670
  1.3990    0.04990
