# z (nm)   (kJ/mol)
  0.281000, 10.523200
  0.285000,  9.865200
  0.287000,  9.563200
  0.289000,  9.257000
  0.291000,  8.959600
  0.293000,  8.658200
  0.295000,  8.355400
  0.297000,  8.061500
  0.299000,  7.766600
  0.301000,  7.471700
  0.303000,  7.180900
  0.305000,  6.896800
  0.307000,  6.618600
  0.309000,  6.346000
  0.311000,  6.080300
  0.313000,  5.818500
  0.315000,  5.561900
  0.317000,  5.312200
  0.319000,  5.067900
  0.321000,  4.829500
  0.323000,  4.598600
  0.325000,  4.374600
  0.327000,  4.157600
  0.329000,  3.946800
  0.331000,  3.743700
  0.333000,  3.546700
  0.335000,  3.355100
  0.337000,  3.168300
  0.339000,  2.986100
  0.341000,  2.810200
  0.343000,  2.637500
  0.345000,  2.468300
  0.347000,  2.303700
  0.349000,  2.142400
  0.351000,  1.983600
  0.353000,  1.826400
  0.355000,  1.669800
  0.357000,  1.516100
  0.359000,  1.366800
  0.361000,  1.219100
  0.363000,  1.073300
  0.365000,  0.929600
  0.367000,  0.787800
  0.369000,  0.649400
  0.371000,  0.512600
  0.373000,  0.377200
  0.375000,  0.244500
  0.377000,  0.112400
  0.379000, -0.018200
  0.381000, -0.145700
  0.383000, -0.271900
  0.385000, -0.398400
  0.387000, -0.524300
  0.389000, -0.645700
  0.391000, -0.764700
  0.393000, -0.883600
  0.395000, -1.000500
  0.397000, -1.116300
  0.399000, -1.232800
  0.401000, -1.347300
  0.403000, -1.457900
  0.405000, -1.567500
  0.407000, -1.677500
  0.409000, -1.785800
  0.411000, -1.890100
  0.413000, -1.990500
  0.415000, -2.088600
  0.417000, -2.182800
  0.419000, -2.275500
  0.421000, -2.368000
  0.423000, -2.455200
  0.425000, -2.537500
  0.427000, -2.615800
  0.429000, -2.687000
  0.431000, -2.753100
  0.433000, -2.815500
  0.435000, -2.871000
  0.437000, -2.919700
  0.439000, -2.961000
  0.441000, -2.995400
  0.443000, -3.022900
  0.445000, -3.043700
  0.447000, -3.057400
  0.449000, -3.062700
  0.451000, -3.060500
  0.453000, -3.051700
  0.455000, -3.036300
  0.457000, -3.013000
  0.459000, -2.981500
  0.461000, -2.942000
  0.463000, -2.895400
  0.465000, -2.842400
  0.467000, -2.781200
  0.469000, -2.713200
  0.471000, -2.640200
  0.473000, -2.563100
  0.475000, -2.481600
  0.477000, -2.394100
  0.479000, -2.301700
  0.481000, -2.205400
  0.483000, -2.105300
  0.485000, -2.001800
  0.487000, -1.896700
  0.489000, -1.790200
  0.491000, -1.680800
  0.493000, -1.570300
  0.495000, -1.460700
  0.497000, -1.351500
  0.499000, -1.243000
  0.501000, -1.135000
  0.503000, -1.028800
  0.505000, -0.925300
  0.507000, -0.824000
  0.509000, -0.726800
  0.511000, -0.629700
  0.513000, -0.535200
  0.515000, -0.447700
  0.517000, -0.365700
  0.519000, -0.288800
  0.521000, -0.216800
  0.523000, -0.152200
  0.525000, -0.093400
  0.527000, -0.039400
  0.529000,  0.009800
  0.531000,  0.053200
  0.533000,  0.088900
  0.535000,  0.119600
  0.537000,  0.145500
  0.539000,  0.164700
  0.541000,  0.177800
  0.543000,  0.185200
  0.545000,  0.187100
  0.547000,  0.183500
  0.549000,  0.174700
  0.551000,  0.161100
  0.553000,  0.142900
  0.555000,  0.119800
  0.557000,  0.091400
  0.559000,  0.058500
  0.561000,  0.020700
  0.563000, -0.020900
  0.565000, -0.065700
  0.567000, -0.114500
  0.569000, -0.166800
  0.571000, -0.222100
  0.573000, -0.279500
  0.575000, -0.339300
  0.577000, -0.401800
  0.579000, -0.467000
  0.581000, -0.533700
  0.583000, -0.600200
  0.585000, -0.667900
  0.587000, -0.736800
  0.589000, -0.806100
  0.591000, -0.876100
  0.593000, -0.946600
  0.595000, -1.017800
  0.597000, -1.089300
  0.599000, -1.159600
  0.601000, -1.229000
  0.603000, -1.298200
  0.605000, -1.366800
  0.607000, -1.434300
  0.609000, -1.500100
  0.611000, -1.564500
  0.613000, -1.627500
  0.615000, -1.689000
  0.617000, -1.749000
  0.619000, -1.807100
  0.621000, -1.863400
  0.623000, -1.917800
  0.625000, -1.969900
  0.627000, -2.019800
  0.629000, -2.067800
  0.631000, -2.113800
  0.633000, -2.157500
  0.635000, -2.198700
  0.637000, -2.237600
  0.639000, -2.274400
  0.641000, -2.309200
  0.643000, -2.341700
  0.645000, -2.371900
  0.647000, -2.399700
  0.649000, -2.425400
  0.651000, -2.449000
  0.653000, -2.470400
  0.655000, -2.489600
  0.657000, -2.506800
  0.659000, -2.521900
  0.661000, -2.535000
  0.663000, -2.546200
  0.665000, -2.555500
  0.667000, -2.562800
  0.669000, -2.568300
  0.671000, -2.572200
  0.673000, -2.574200
  0.675000, -2.574600
  0.677000, -2.573400
  0.679000, -2.570600
  0.681000, -2.566500
  0.683000, -2.561000
  0.685000, -2.554100
  0.687000, -2.546000
  0.689000, -2.536500
  0.691000, -2.525800
  0.693000, -2.514200
  0.695000, -2.501500
  0.697000, -2.487900
  0.699000, -2.473200
  0.701000, -2.457600
  0.703000, -2.441100
  0.705000, -2.423700
  0.707000, -2.405600
  0.709000, -2.386800
  0.711000, -2.367500
  0.713000, -2.347400
  0.715000, -2.326700
  0.717000, -2.305200
  0.719000, -2.283100
  0.721000, -2.260600
  0.723000, -2.237600
  0.725000, -2.213900
  0.727000, -2.189400
  0.729000, -2.164400
  0.731000, -2.139300
  0.733000, -2.113800
  0.735000, -2.087900
  0.737000, -2.061400
  0.739000, -2.034200
  0.741000, -2.006700
  0.743000, -1.978800
  0.745000, -1.950700
  0.747000, -1.922000
  0.749000, -1.892600
  0.751000, -1.863000
  0.753000, -1.832900
  0.755000, -1.802400
  0.757000, -1.771800
  0.759000, -1.741000
  0.761000, -1.709700
  0.763000, -1.678100
  0.765000, -1.646200
  0.767000, -1.613800
  0.769000, -1.580600
  0.771000, -1.547000
  0.773000, -1.513500
  0.775000, -1.479400
  0.777000, -1.445300
  0.779000, -1.411300
  0.781000, -1.376800
  0.783000, -1.342100
  0.785000, -1.307300
  0.787000, -1.272400
  0.789000, -1.237500
  0.791000, -1.202500
  0.793000, -1.167400
  0.795000, -1.132600
  0.797000, -1.098200
  0.799000, -1.063400
  0.801000, -1.028400
  0.803000, -0.993600
  0.805000, -0.958800
  0.807000, -0.924100
  0.809000, -0.889700
  0.811000, -0.855900
  0.813000, -0.822200
  0.815000, -0.788600
  0.817000, -0.755500
  0.819000, -0.723100
  0.821000, -0.691000
  0.823000, -0.659300
  0.825000, -0.628400
  0.827000, -0.598000
  0.829000, -0.568100
  0.831000, -0.539100
  0.833000, -0.510700
  0.835000, -0.482700
  0.837000, -0.455800
  0.839000, -0.430000
  0.841000, -0.405000
  0.843000, -0.380900
  0.845000, -0.357600
  0.847000, -0.335100
  0.849000, -0.313400
  0.851000, -0.292800
  0.853000, -0.273300
  0.855000, -0.254800
  0.857000, -0.237400
  0.859000, -0.221100
  0.861000, -0.205700
  0.863000, -0.191400
  0.865000, -0.178200
  0.867000, -0.166100
  0.869000, -0.155100
  0.871000, -0.145300
  0.873000, -0.136500
  0.875000, -0.128800
  0.877000, -0.122300
  0.879000, -0.117000
  0.881000, -0.112500
  0.883000, -0.109100
  0.885000, -0.106700
  0.887000, -0.105200
  0.889000, -0.104600
  0.891000, -0.104800
  0.893000, -0.106100
  0.895000, -0.108200
  0.897000, -0.111200
  0.899000, -0.115000
  0.901000, -0.119700
  0.903000, -0.125100
  0.905000, -0.131200
  0.907000, -0.138200
  0.909000, -0.145700
  0.911000, -0.154000
  0.913000, -0.162700
  0.915000, -0.171800
  0.917000, -0.181600
  0.919000, -0.191700
  0.921000, -0.201900
  0.923000, -0.212600
  0.925000, -0.223600
  0.927000, -0.234900
  0.929000, -0.246500
  0.931000, -0.258200
  0.933000, -0.270000
  0.935000, -0.281800
  0.937000, -0.293600
  0.939000, -0.305200
  0.941000, -0.316800
  0.943000, -0.328200
  0.945000, -0.339600
  0.947000, -0.351100
  0.949000, -0.362100
  0.951000, -0.372800
  0.953000, -0.383000
  0.955000, -0.392900
  0.957000, -0.402700
  0.959000, -0.412000
  0.961000, -0.420900
  0.963000, -0.429500
  0.965000, -0.437700
  0.967000, -0.445600
  0.969000, -0.453000
  0.971000, -0.459800
  0.973000, -0.466100
  0.975000, -0.472000
  0.977000, -0.477300
  0.979000, -0.482100
  0.981000, -0.486300
  0.983000, -0.490000
  0.985000, -0.493300
  0.987000, -0.496000
  0.989000, -0.498200
  0.991000, -0.499800
  0.993000, -0.500800
  0.995000, -0.501300
  0.997000, -0.501300
  0.999000, -0.500800
  1.001000, -0.499900
  1.003000, -0.498600
  1.005000, -0.496800
  1.007000, -0.494500
  1.009000, -0.491700
  1.011000, -0.488600
  1.013000, -0.485100
  1.015000, -0.481200
  1.017000, -0.477000
  1.019000, -0.472400
  1.021000, -0.467600
  1.023000, -0.462400
  1.025000, -0.456900
  1.027000, -0.451100
  1.029000, -0.445000
  1.031000, -0.438800
  1.033000, -0.432300
  1.035000, -0.425500
  1.037000, -0.418600
  1.039000, -0.411400
  1.041000, -0.404100
  1.043000, -0.396700
  1.045000, -0.389100
  1.047000, -0.381400
  1.049000, -0.373600
  1.051000, -0.365700
  1.053000, -0.357700
  1.055000, -0.349500
  1.057000, -0.341300
  1.059000, -0.332900
  1.061000, -0.324500
  1.063000, -0.316100
  1.065000, -0.307700
  1.067000, -0.299200
  1.069000, -0.290600
  1.071000, -0.282000
  1.073000, -0.273400
  1.075000, -0.264800
  1.077000, -0.256000
  1.079000, -0.247300
  1.081000, -0.238600
  1.083000, -0.230000
  1.085000, -0.221300
  1.087000, -0.212600
  1.089000, -0.203900
  1.091000, -0.195100
  1.093000, -0.186300
  1.095000, -0.177400
  1.097000, -0.168600
  1.099000, -0.159800
  1.101000, -0.151100
  1.103000, -0.142300
  1.105000, -0.133700
  1.107000, -0.125200
  1.109000, -0.116600
  1.111000, -0.108000
  1.113000, -0.099400
  1.115000, -0.090900
  1.117000, -0.082500
  1.119000, -0.074200
  1.121000, -0.065900
  1.123000, -0.057800
  1.125000, -0.049700
  1.127000, -0.041600
  1.129000, -0.033700
  1.131000, -0.025900
  1.133000, -0.018100
  1.135000, -0.010500
  1.137000, -0.003000
  1.139000,  0.004300
  1.141000,  0.011500
  1.143000,  0.018500
  1.145000,  0.025300
  1.147000,  0.031900
  1.149000,  0.038200
  1.151000,  0.044400
  1.153000,  0.050400
  1.155000,  0.056100
  1.157000,  0.061600
  1.159000,  0.066900
  1.161000,  0.072000
  1.163000,  0.077100
  1.165000,  0.081900
  1.167000,  0.086500
  1.169000,  0.090800
  1.171000,  0.094800
  1.173000,  0.098600
  1.175000,  0.102100
  1.177000,  0.105300
  1.179000,  0.108300
  1.181000,  0.111000
  1.183000,  0.113400
  1.185000,  0.115500
  1.187000,  0.117500
  1.189000,  0.119300
  1.191000,  0.120700
  1.193000,  0.121900
  1.195000,  0.122900
  1.197000,  0.123500
  1.199000,  0.123900
  1.201000,  0.124100
  1.203000,  0.124100
  1.205000,  0.123900
  1.207000,  0.123500
  1.209000,  0.122700
  1.211000,  0.121800
  1.213000,  0.120700
  1.215000,  0.119400
  1.217000,  0.117800
  1.219000,  0.116100
  1.221000,  0.114100
  1.223000,  0.112000
  1.225000,  0.109700
  1.227000,  0.107300
  1.229000,  0.104800
  1.231000,  0.102000
  1.233000,  0.099200
  1.235000,  0.096100
  1.237000,  0.092900
  1.239000,  0.089700
  1.241000,  0.086400
  1.243000,  0.082800
  1.245000,  0.079200
  1.247000,  0.075600
  1.249000,  0.071800
  1.251000,  0.067900
  1.253000,  0.063900
  1.255000,  0.060000
  1.257000,  0.056000
  1.259000,  0.051900
  1.261000,  0.047800
  1.263000,  0.043600
  1.265000,  0.039400
  1.267000,  0.035100
  1.269000,  0.030700
  1.271000,  0.026400
  1.273000,  0.022000
  1.275000,  0.017600
  1.277000,  0.013300
  1.279000,  0.009000
  1.281000,  0.004700
  1.283000,  0.000600
  1.285000, -0.003600
  1.287000, -0.007800
  1.289000, -0.011800
  1.291000, -0.015700
  1.293000, -0.019700
  1.295000, -0.023600
  1.297000, -0.027400
  1.299000, -0.031100
  1.301000, -0.034700
  1.303000, -0.038300
  1.305000, -0.041800
  1.307000, -0.045100
  1.309000, -0.048300
  1.311000, -0.051400
  1.313000, -0.054300
  1.315000, -0.057000
  1.317000, -0.059700
  1.319000, -0.062200
  1.321000, -0.064500
  1.323000, -0.066600
  1.325000, -0.068400
  1.327000, -0.070100
  1.329000, -0.071600
  1.331000, -0.072900
  1.333000, -0.074000
  1.335000, -0.074900
  1.337000, -0.075800
  1.339000, -0.076400
  1.341000, -0.076800
  1.343000, -0.077100
  1.345000, -0.077300
  1.347000, -0.077200
  1.349000, -0.077000
  1.351000, -0.076500
  1.353000, -0.075900
  1.355000, -0.075300
  1.357000, -0.074400
  1.359000, -0.073500
  1.361000, -0.072600
  1.363000, -0.071400
  1.365000, -0.070200
  1.367000, -0.068800
  1.369000, -0.067300
  1.371000, -0.065900
  1.373000, -0.064500
  1.375000, -0.063000
  1.377000, -0.061500
  1.379000, -0.060000
  1.381000, -0.058500
  1.383000, -0.057200
  1.385000, -0.055900
  1.387000, -0.054800
  1.389000, -0.053800
  1.391000, -0.053000
  1.393000, -0.052300
  1.395000, -0.051800
  1.397000, -0.051800
  1.399000, -0.052000
