# z (nm)   (kJ/mol)
  0.2350    9.87650
  0.2370    9.64390
  0.2390    9.33920
  0.2410    9.02700
  0.2430    8.74740
  0.2450    8.47180
  0.2470    8.18070
  0.2490    7.89510
  0.2510    7.62270
  0.2530    7.35650
  0.2550    7.09280
  0.2570    6.83240
  0.2590    6.57570
  0.2610    6.32220
  0.2630    6.07620
  0.2650    5.83740
  0.2670    5.60410
  0.2690    5.37810
  0.2710    5.15750
  0.2730    4.94330
  0.2750    4.73500
  0.2770    4.53530
  0.2790    4.34180
  0.2810    4.15510
  0.2830    3.97680
  0.2850    3.80650
  0.2870    3.64280
  0.2890    3.48470
  0.2910    3.33530
  0.2930    3.19450
  0.2950    3.05930
  0.2970    2.93040
  0.2990    2.80940
  0.3010    2.69410
  0.3030    2.58530
  0.3050    2.48450
  0.3070    2.38870
  0.3090    2.29680
  0.3110    2.21080
  0.3130    2.13050
  0.3150    2.05600
  0.3170    1.98610
  0.3190    1.91990
  0.3210    1.85800
  0.3230    1.80160
  0.3250    1.75160
  0.3270    1.70690
  0.3290    1.66540
  0.3310    1.62740
  0.3330    1.59440
  0.3350    1.56610
  0.3370    1.54180
  0.3390    1.52210
  0.3410    1.50720
  0.3430    1.49590
  0.3450    1.48780
  0.3470    1.48340
  0.3490    1.48260
  0.3510    1.48540
  0.3530    1.49160
  0.3550    1.50020
  0.3570    1.51170
  0.3590    1.52720
  0.3610    1.54650
  0.3630    1.56780
  0.3650    1.59070
  0.3670    1.61710
  0.3690    1.64640
  0.3710    1.67690
  0.3730    1.70880
  0.3750    1.74220
  0.3770    1.77720
  0.3790    1.81390
  0.3810    1.85160
  0.3830    1.88970
  0.3850    1.92950
  0.3870    1.97000
  0.3890    2.01040
  0.3910    2.05120
  0.3930    2.09170
  0.3950    2.13230
  0.3970    2.17230
  0.3990    2.21100
  0.4010    2.24900
  0.4030    2.28620
  0.4050    2.32220
  0.4070    2.35680
  0.4090    2.39010
  0.4110    2.42160
  0.4130    2.45110
  0.4150    2.47860
  0.4170    2.50400
  0.4190    2.52680
  0.4210    2.54700
  0.4230    2.56460
  0.4250    2.57950
  0.4270    2.59190
  0.4290    2.60130
  0.4310    2.60780
  0.4330    2.61120
  0.4350    2.61150
  0.4370    2.60860
  0.4390    2.60240
  0.4410    2.59310
  0.4430    2.58060
  0.4450    2.56480
  0.4470    2.54580
  0.4490    2.52340
  0.4510    2.49790
  0.4530    2.46940
  0.4550    2.43750
  0.4570    2.40240
  0.4590    2.36450
  0.4610    2.32400
  0.4630    2.28040
  0.4650    2.23400
  0.4670    2.18520
  0.4690    2.13400
  0.4710    2.08030
  0.4730    2.02440
  0.4750    1.96660
  0.4770    1.90650
  0.4790    1.84480
  0.4810    1.78110
  0.4830    1.71540
  0.4850    1.64860
  0.4870    1.58090
  0.4890    1.51130
  0.4910    1.44050
  0.4930    1.36900
  0.4950    1.29650
  0.4970    1.22350
  0.4990    1.14980
  0.5010    1.07570
  0.5030    1.00130
  0.5050    0.92680
  0.5070    0.85240
  0.5090    0.77780
  0.5110    0.70280
  0.5130    0.62850
  0.5150    0.55540
  0.5170    0.48250
  0.5190    0.40950
  0.5210    0.33760
  0.5230    0.26660
  0.5250    0.19630
  0.5270    0.12720
  0.5290    0.05880
  0.5310   -0.00840
  0.5330   -0.07400
  0.5350   -0.13800
  0.5370   -0.20050
  0.5390   -0.26170
  0.5410   -0.32150
  0.5430   -0.37980
  0.5450   -0.43640
  0.5470   -0.49100
  0.5490   -0.54400
  0.5510   -0.59530
  0.5530   -0.64450
  0.5550   -0.69190
  0.5570   -0.73740
  0.5590   -0.78120
  0.5610   -0.82300
  0.5630   -0.86280
  0.5650   -0.90060
  0.5670   -0.93650
  0.5690   -0.97040
  0.5710   -1.00240
  0.5730   -1.03240
  0.5750   -1.06020
  0.5770   -1.08610
  0.5790   -1.11010
  0.5810   -1.13230
  0.5830   -1.15260
  0.5850   -1.17100
  0.5870   -1.18770
  0.5890   -1.20230
  0.5910   -1.21490
  0.5930   -1.22580
  0.5950   -1.23520
  0.5970   -1.24290
  0.5990   -1.24870
  0.6010   -1.25290
  0.6030   -1.25550
  0.6050   -1.25670
  0.6070   -1.25630
  0.6090   -1.25450
  0.6110   -1.25110
  0.6130   -1.24640
  0.6150   -1.24030
  0.6170   -1.23280
  0.6190   -1.22400
  0.6210   -1.21410
  0.6230   -1.20300
  0.6250   -1.19060
  0.6270   -1.17710
  0.6290   -1.16250
  0.6310   -1.14680
  0.6330   -1.13030
  0.6350   -1.11270
  0.6370   -1.09430
  0.6390   -1.07490
  0.6410   -1.05460
  0.6430   -1.03330
  0.6450   -1.01140
  0.6470   -0.98880
  0.6490   -0.96540
  0.6510   -0.94120
  0.6530   -0.91650
  0.6550   -0.89120
  0.6570   -0.86530
  0.6590   -0.83890
  0.6610   -0.81200
  0.6630   -0.78450
  0.6650   -0.75660
  0.6670   -0.72830
  0.6690   -0.69960
  0.6710   -0.67060
  0.6730   -0.64140
  0.6750   -0.61180
  0.6770   -0.58210
  0.6790   -0.55230
  0.6810   -0.52220
  0.6830   -0.49210
  0.6850   -0.46190
  0.6870   -0.43160
  0.6890   -0.40130
  0.6910   -0.37100
  0.6930   -0.34090
  0.6950   -0.31080
  0.6970   -0.28090
  0.6990   -0.25130
  0.7010   -0.22190
  0.7030   -0.19270
  0.7050   -0.16390
  0.7070   -0.13530
  0.7090   -0.10710
  0.7110   -0.07930
  0.7130   -0.05210
  0.7150   -0.02530
  0.7170    0.00090
  0.7190    0.02660
  0.7210    0.05200
  0.7230    0.07670
  0.7250    0.10080
  0.7270    0.12420
  0.7290    0.14700
  0.7310    0.16920
  0.7330    0.19060
  0.7350    0.21110
  0.7370    0.23080
  0.7390    0.24960
  0.7410    0.26760
  0.7430    0.28480
  0.7450    0.30100
  0.7470    0.31640
  0.7490    0.33100
  0.7510    0.34450
  0.7530    0.35690
  0.7550    0.36850
  0.7570    0.37900
  0.7590    0.38850
  0.7610    0.39690
  0.7630    0.40430
  0.7650    0.41070
  0.7670    0.41610
  0.7690    0.42050
  0.7710    0.42390
  0.7730    0.42620
  0.7750    0.42750
  0.7770    0.42780
  0.7790    0.42710
  0.7810    0.42540
  0.7830    0.42270
  0.7850    0.41910
  0.7870    0.41460
  0.7890    0.40920
  0.7910    0.40290
  0.7930    0.39590
  0.7950    0.38810
  0.7970    0.37950
  0.7990    0.37000
  0.8010    0.35980
  0.8030    0.34910
  0.8050    0.33780
  0.8070    0.32560
  0.8090    0.31290
  0.8110    0.29970
  0.8130    0.28580
  0.8150    0.27160
  0.8170    0.25690
  0.8190    0.24200
  0.8210    0.22670
  0.8230    0.21110
  0.8250    0.19540
  0.8270    0.17940
  0.8290    0.16340
  0.8310    0.14740
  0.8330    0.13120
  0.8350    0.11490
  0.8370    0.09870
  0.8390    0.08270
  0.8410    0.06680
  0.8430    0.05100
  0.8450    0.03530
  0.8470    0.01980
  0.8490    0.00450
  0.8510   -0.01050
  0.8530   -0.02540
  0.8550   -0.03970
  0.8570   -0.05350
  0.8590   -0.06690
  0.8610   -0.08030
  0.8630   -0.09340
  0.8650   -0.10590
  0.8670   -0.11790
  0.8690   -0.12940
  0.8710   -0.14050
  0.8730   -0.15100
  0.8750   -0.16110
  0.8770   -0.17070
  0.8790   -0.17980
  0.8810   -0.18830
  0.8830   -0.19630
  0.8850   -0.20370
  0.8870   -0.21070
  0.8890   -0.21710
  0.8910   -0.22320
  0.8930   -0.22880
  0.8950   -0.23390
  0.8970   -0.23840
  0.8990   -0.24260
  0.9010   -0.24620
  0.9030   -0.24940
  0.9050   -0.25220
  0.9070   -0.25460
  0.9090   -0.25650
  0.9110   -0.25800
  0.9130   -0.25920
  0.9150   -0.25990
  0.9170   -0.26030
  0.9190   -0.26030
  0.9210   -0.25990
  0.9230   -0.25930
  0.9250   -0.25830
  0.9270   -0.25710
  0.9290   -0.25560
  0.9310   -0.25380
  0.9330   -0.25180
  0.9350   -0.24960
  0.9370   -0.24710
  0.9390   -0.24440
  0.9410   -0.24150
  0.9430   -0.23840
  0.9450   -0.23510
  0.9470   -0.23170
  0.9490   -0.22810
  0.9510   -0.22430
  0.9530   -0.22050
  0.9550   -0.21650
  0.9570   -0.21250
  0.9590   -0.20830
  0.9610   -0.20390
  0.9630   -0.19950
  0.9650   -0.19510
  0.9670   -0.19060
  0.9690   -0.18600
  0.9710   -0.18130
  0.9730   -0.17650
  0.9750   -0.17180
  0.9770   -0.16720
  0.9790   -0.16250
  0.9810   -0.15770
  0.9830   -0.15300
  0.9850   -0.14830
  0.9870   -0.14350
  0.9890   -0.13880
  0.9910   -0.13400
  0.9930   -0.12920
  0.9950   -0.12450
  0.9970   -0.11980
  0.9990   -0.11520
  1.0010   -0.11060
  1.0030   -0.10610
  1.0050   -0.10170
  1.0070   -0.09730
  1.0090   -0.09290
  1.0110   -0.08870
  1.0130   -0.08460
  1.0150   -0.08050
  1.0170   -0.07650
  1.0190   -0.07270
  1.0210   -0.06890
  1.0230   -0.06520
  1.0250   -0.06170
  1.0270   -0.05830
  1.0290   -0.05490
  1.0310   -0.05150
  1.0330   -0.04830
  1.0350   -0.04510
  1.0370   -0.04200
  1.0390   -0.03910
  1.0410   -0.03620
  1.0430   -0.03350
  1.0450   -0.03100
  1.0470   -0.02850
  1.0490   -0.02620
  1.0510   -0.02400
  1.0530   -0.02190
  1.0550   -0.01990
  1.0570   -0.01790
  1.0590   -0.01600
  1.0610   -0.01420
  1.0630   -0.01250
  1.0650   -0.01090
  1.0670   -0.00930
  1.0690   -0.00770
  1.0710   -0.00620
  1.0730   -0.00470
  1.0750   -0.00340
  1.0770   -0.00210
  1.0790   -0.00080
  1.0810    0.00050
  1.0830    0.00170
  1.0850    0.00280
  1.0870    0.00390
  1.0890    0.00490
  1.0910    0.00590
  1.0930    0.00690
  1.0950    0.00790
  1.0970    0.00880
  1.0990    0.00970
  1.1010    0.01050
  1.1030    0.01130
  1.1050    0.01200
  1.1070    0.01270
  1.1090    0.01340
  1.1110    0.01400
  1.1130    0.01460
  1.1150    0.01520
  1.1170    0.01580
  1.1190    0.01630
  1.1210    0.01680
  1.1230    0.01720
  1.1250    0.01740
  1.1270    0.01760
  1.1290    0.01780
  1.1310    0.01790
  1.1330    0.01790
  1.1350    0.01780
  1.1370    0.01770
  1.1390    0.01750
  1.1410    0.01720
  1.1430    0.01680
  1.1450    0.01630
  1.1470    0.01570
  1.1490    0.01500
  1.1510    0.01420
  1.1530    0.01320
  1.1550    0.01210
  1.1570    0.01090
  1.1590    0.00970
  1.1610    0.00840
  1.1630    0.00700
  1.1650    0.00550
  1.1670    0.00400
  1.1690    0.00240
  1.1710    0.00070
  1.1730   -0.00110
  1.1750   -0.00300
  1.1770   -0.00490
  1.1790   -0.00680
  1.1810   -0.00890
  1.1830   -0.01100
  1.1850   -0.01300
  1.1870   -0.01510
  1.1890   -0.01720
  1.1910   -0.01920
  1.1930   -0.02130
  1.1950   -0.02350
  1.1970   -0.02550
  1.1990   -0.02740
  1.2010   -0.02920
  1.2030   -0.03110
  1.2050   -0.03280
  1.2070   -0.03440
  1.2090   -0.03600
  1.2110   -0.03740
  1.2130   -0.03870
  1.2150   -0.04000
  1.2170   -0.04110
  1.2190   -0.04220
  1.2210   -0.04300
  1.2230   -0.04370
  1.2250   -0.04440
  1.2270   -0.04490
  1.2290   -0.04520
  1.2310   -0.04560
  1.2330   -0.04570
  1.2350   -0.04570
  1.2370   -0.04560
  1.2390   -0.04530
  1.2410   -0.04490
  1.2430   -0.04440
  1.2450   -0.04380
  1.2470   -0.04320
  1.2490   -0.04250
  1.2510   -0.04170
  1.2530   -0.04080
  1.2550   -0.03980
  1.2570   -0.03870
  1.2590   -0.03760
  1.2610   -0.03650
  1.2630   -0.03530
  1.2650   -0.03410
  1.2670   -0.03290
  1.2690   -0.03160
  1.2710   -0.03030
  1.2730   -0.02890
  1.2750   -0.02760
  1.2770   -0.02620
  1.2790   -0.02490
  1.2810   -0.02360
  1.2830   -0.02230
  1.2850   -0.02110
  1.2870   -0.01990
  1.2890   -0.01860
  1.2910   -0.01740
  1.2930   -0.01620
  1.2950   -0.01510
  1.2970   -0.01400
  1.2990   -0.01290
  1.3010   -0.01180
  1.3030   -0.01060
  1.3050   -0.00940
  1.3070   -0.00830
  1.3090   -0.00720
  1.3110   -0.00620
  1.3130   -0.00510
  1.3150   -0.00400
  1.3170   -0.00280
  1.3190   -0.00160
  1.3210   -0.00040
  1.3230    0.00090
  1.3250    0.00220
  1.3270    0.00370
  1.3290    0.00540
  1.3310    0.00710
  1.3330    0.00880
  1.3350    0.01060
  1.3370    0.01250
  1.3390    0.01460
  1.3410    0.01680
  1.3430    0.01900
  1.3450    0.02140
  1.3470    0.02390
  1.3490    0.02650
  1.3510    0.02910
  1.3530    0.03190
  1.3550    0.03480
  1.3570    0.03780
  1.3590    0.04100
  1.3610    0.04420
  1.3630    0.04750
  1.3650    0.05080
  1.3670    0.05430
  1.3690    0.05770
  1.3710    0.06120
  1.3730    0.06470
  1.3750    0.06840
  1.3770    0.07190
  1.3790    0.07520
  1.3810    0.07850
  1.3830    0.08180
  1.3850    0.08490
  1.3870    0.08780
  1.3890    0.09050
  1.3910    0.09290
  1.3930    0.09500
  1.3950    0.09690
  1.3970    0.09840
  1.3990    0.09930
