# z (nm)   (kJ/mol)
  0.289000, 14.510100
  0.291000, 14.365200
  0.293000, 14.198300
  0.295000, 14.022400
  0.297000, 13.849300
  0.299000, 13.684100
  0.301000, 13.516400
  0.303000, 13.350200
  0.305000, 13.181300
  0.307000, 13.013700
  0.309000, 12.850700
  0.311000, 12.684900
  0.313000, 12.520300
  0.315000, 12.361100
  0.317000, 12.203700
  0.319000, 12.044700
  0.321000, 11.884900
  0.323000, 11.727600
  0.325000, 11.571400
  0.327000, 11.418800
  0.329000, 11.269700
  0.331000, 11.120100
  0.333000, 10.969300
  0.335000, 10.821500
  0.337000, 10.677500
  0.339000, 10.537200
  0.341000, 10.398900
  0.343000, 10.260500
  0.345000, 10.124100
  0.347000,  9.987900
  0.349000,  9.853700
  0.351000,  9.721100
  0.353000,  9.589400
  0.355000,  9.460500
  0.357000,  9.334700
  0.359000,  9.210300
  0.361000,  9.087400
  0.363000,  8.964400
  0.365000,  8.841200
  0.367000,  8.721300
  0.369000,  8.602500
  0.371000,  8.483600
  0.373000,  8.365900
  0.375000,  8.250900
  0.377000,  8.138700
  0.379000,  8.027400
  0.381000,  7.915000
  0.383000,  7.803200
  0.385000,  7.694700
  0.387000,  7.588900
  0.389000,  7.483700
  0.391000,  7.378200
  0.393000,  7.275400
  0.395000,  7.176800
  0.397000,  7.078700
  0.399000,  6.979800
  0.401000,  6.882500
  0.403000,  6.787000
  0.405000,  6.693000
  0.407000,  6.602300
  0.409000,  6.513700
  0.411000,  6.426800
  0.413000,  6.341300
  0.415000,  6.257300
  0.417000,  6.175900
  0.419000,  6.096100
  0.421000,  6.018600
  0.423000,  5.943800
  0.425000,  5.870600
  0.427000,  5.799300
  0.429000,  5.730300
  0.431000,  5.664000
  0.433000,  5.599300
  0.435000,  5.535900
  0.437000,  5.475000
  0.439000,  5.416500
  0.441000,  5.360200
  0.443000,  5.305500
  0.445000,  5.252800
  0.447000,  5.201800
  0.449000,  5.151700
  0.451000,  5.102800
  0.453000,  5.055600
  0.455000,  5.009800
  0.457000,  4.964800
  0.459000,  4.920600
  0.461000,  4.877000
  0.463000,  4.833400
  0.465000,  4.790400
  0.467000,  4.747100
  0.469000,  4.702900
  0.471000,  4.658700
  0.473000,  4.614100
  0.475000,  4.568400
  0.477000,  4.521800
  0.479000,  4.473400
  0.481000,  4.423100
  0.483000,  4.370700
  0.485000,  4.316100
  0.487000,  4.259500
  0.489000,  4.201000
  0.491000,  4.139700
  0.493000,  4.075300
  0.495000,  4.007700
  0.497000,  3.936900
  0.499000,  3.863000
  0.501000,  3.785400
  0.503000,  3.703900
  0.505000,  3.619100
  0.507000,  3.530800
  0.509000,  3.438900
  0.511000,  3.343000
  0.513000,  3.243200
  0.515000,  3.140600
  0.517000,  3.034300
  0.519000,  2.924300
  0.521000,  2.811500
  0.523000,  2.694600
  0.525000,  2.573800
  0.527000,  2.450100
  0.529000,  2.323700
  0.531000,  2.194000
  0.533000,  2.061700
  0.535000,  1.927900
  0.537000,  1.792300
  0.539000,  1.654200
  0.541000,  1.514900
  0.543000,  1.375400
  0.545000,  1.234900
  0.547000,  1.093400
  0.549000,  0.951000
  0.551000,  0.808700
  0.553000,  0.666900
  0.555000,  0.525500
  0.557000,  0.384200
  0.559000,  0.245000
  0.561000,  0.108400
  0.563000, -0.026400
  0.565000, -0.158800
  0.567000, -0.289200
  0.569000, -0.416700
  0.571000, -0.540600
  0.573000, -0.661600
  0.575000, -0.779700
  0.577000, -0.894300
  0.579000, -1.004900
  0.581000, -1.110600
  0.583000, -1.211000
  0.585000, -1.307600
  0.587000, -1.400300
  0.589000, -1.487700
  0.591000, -1.570500
  0.593000, -1.649300
  0.595000, -1.723200
  0.597000, -1.791900
  0.599000, -1.855900
  0.601000, -1.915400
  0.603000, -1.970400
  0.605000, -2.020500
  0.607000, -2.066100
  0.609000, -2.107300
  0.611000, -2.143900
  0.613000, -2.176300
  0.615000, -2.204800
  0.617000, -2.229600
  0.619000, -2.250600
  0.621000, -2.267800
  0.623000, -2.281900
  0.625000, -2.293000
  0.627000, -2.300700
  0.629000, -2.305300
  0.631000, -2.307400
  0.633000, -2.307100
  0.635000, -2.304500
  0.637000, -2.299900
  0.639000, -2.293600
  0.641000, -2.285500
  0.643000, -2.276000
  0.645000, -2.265400
  0.647000, -2.253600
  0.649000, -2.240900
  0.651000, -2.227500
  0.653000, -2.213500
  0.655000, -2.199000
  0.657000, -2.184400
  0.659000, -2.169600
  0.661000, -2.154600
  0.663000, -2.139600
  0.665000, -2.124800
  0.667000, -2.110100
  0.669000, -2.095700
  0.671000, -2.081600
  0.673000, -2.068000
  0.675000, -2.054900
  0.677000, -2.042200
  0.679000, -2.029800
  0.681000, -2.017900
  0.683000, -2.006700
  0.685000, -1.995900
  0.687000, -1.985500
  0.689000, -1.975500
  0.691000, -1.965900
  0.693000, -1.956700
  0.695000, -1.947900
  0.697000, -1.938900
  0.699000, -1.930100
  0.701000, -1.921500
  0.703000, -1.912900
  0.705000, -1.904300
  0.707000, -1.895700
  0.709000, -1.887100
  0.711000, -1.878400
  0.713000, -1.869600
  0.715000, -1.860500
  0.717000, -1.851100
  0.719000, -1.841200
  0.721000, -1.831000
  0.723000, -1.820500
  0.725000, -1.809500
  0.727000, -1.798100
  0.729000, -1.786100
  0.731000, -1.773500
  0.733000, -1.760000
  0.735000, -1.745700
  0.737000, -1.730800
  0.739000, -1.715400
  0.741000, -1.699300
  0.743000, -1.682400
  0.745000, -1.664800
  0.747000, -1.646500
  0.749000, -1.627500
  0.751000, -1.607800
  0.753000, -1.587400
  0.755000, -1.566300
  0.757000, -1.544700
  0.759000, -1.522400
  0.761000, -1.499600
  0.763000, -1.476100
  0.765000, -1.452200
  0.767000, -1.427900
  0.769000, -1.403200
  0.771000, -1.377900
  0.773000, -1.352400
  0.775000, -1.326700
  0.777000, -1.300700
  0.779000, -1.274500
  0.781000, -1.248200
  0.783000, -1.221700
  0.785000, -1.195000
  0.787000, -1.168100
  0.789000, -1.141300
  0.791000, -1.114600
  0.793000, -1.087800
  0.795000, -1.061200
  0.797000, -1.034600
  0.799000, -1.008200
  0.801000, -0.982000
  0.803000, -0.956200
  0.805000, -0.930700
  0.807000, -0.905600
  0.809000, -0.880900
  0.811000, -0.856400
  0.813000, -0.832100
  0.815000, -0.808400
  0.817000, -0.785000
  0.819000, -0.762200
  0.821000, -0.739700
  0.823000, -0.717700
  0.825000, -0.696100
  0.827000, -0.675000
  0.829000, -0.654300
  0.831000, -0.634000
  0.833000, -0.614000
  0.835000, -0.594500
  0.837000, -0.575600
  0.839000, -0.557100
  0.841000, -0.539200
  0.843000, -0.521700
  0.845000, -0.504500
  0.847000, -0.487600
  0.849000, -0.471100
  0.851000, -0.455100
  0.853000, -0.439600
  0.855000, -0.424400
  0.857000, -0.409400
  0.859000, -0.394900
  0.861000, -0.380800
  0.863000, -0.367200
  0.865000, -0.353900
  0.867000, -0.340900
  0.869000, -0.328200
  0.871000, -0.315800
  0.873000, -0.303800
  0.875000, -0.292000
  0.877000, -0.280600
  0.879000, -0.269500
  0.881000, -0.258800
  0.883000, -0.248300
  0.885000, -0.238200
  0.887000, -0.228300
  0.889000, -0.218700
  0.891000, -0.209700
  0.893000, -0.200800
  0.895000, -0.192200
  0.897000, -0.184000
  0.899000, -0.176200
  0.901000, -0.168700
  0.903000, -0.161600
  0.905000, -0.154700
  0.907000, -0.148000
  0.909000, -0.141700
  0.911000, -0.135700
  0.913000, -0.130100
  0.915000, -0.124600
  0.917000, -0.119500
  0.919000, -0.115000
  0.921000, -0.111000
  0.923000, -0.107200
  0.925000, -0.103800
  0.927000, -0.100400
  0.929000, -0.097100
  0.931000, -0.094500
  0.933000, -0.092300
  0.935000, -0.090300
  0.937000, -0.088700
  0.939000, -0.087400
  0.941000, -0.086300
  0.943000, -0.085400
  0.945000, -0.085100
  0.947000, -0.084900
  0.949000, -0.084700
  0.951000, -0.084600
  0.953000, -0.085000
  0.955000, -0.085600
  0.957000, -0.086300
  0.959000, -0.087100
  0.961000, -0.088200
  0.963000, -0.089600
  0.965000, -0.091100
  0.967000, -0.092700
  0.969000, -0.094300
  0.971000, -0.096500
  0.973000, -0.098800
  0.975000, -0.101200
  0.977000, -0.103600
  0.979000, -0.105800
  0.981000, -0.108200
  0.983000, -0.110900
  0.985000, -0.113900
  0.987000, -0.116600
  0.989000, -0.119200
  0.991000, -0.122100
  0.993000, -0.125000
  0.995000, -0.127800
  0.997000, -0.130700
  0.999000, -0.133700
  1.001000, -0.136800
  1.003000, -0.139800
  1.005000, -0.142900
  1.007000, -0.146100
  1.009000, -0.149200
  1.011000, -0.152400
  1.013000, -0.155700
  1.015000, -0.158900
  1.017000, -0.162100
  1.019000, -0.165200
  1.021000, -0.168400
  1.023000, -0.171500
  1.025000, -0.174700
  1.027000, -0.177900
  1.029000, -0.181000
  1.031000, -0.183900
  1.033000, -0.186900
  1.035000, -0.189900
  1.037000, -0.192800
  1.039000, -0.195600
  1.041000, -0.198300
  1.043000, -0.201000
  1.045000, -0.203600
  1.047000, -0.206000
  1.049000, -0.208400
  1.051000, -0.210700
  1.053000, -0.212600
  1.055000, -0.214600
  1.057000, -0.216600
  1.059000, -0.218300
  1.061000, -0.219900
  1.063000, -0.221200
  1.065000, -0.222400
  1.067000, -0.223400
  1.069000, -0.224100
  1.071000, -0.224600
  1.073000, -0.225000
  1.075000, -0.225300
  1.077000, -0.225300
  1.079000, -0.225000
  1.081000, -0.224400
  1.083000, -0.223600
  1.085000, -0.222600
  1.087000, -0.221300
  1.089000, -0.219900
  1.091000, -0.218100
  1.093000, -0.216200
  1.095000, -0.214100
  1.097000, -0.211600
  1.099000, -0.209000
  1.101000, -0.206200
  1.103000, -0.203100
  1.105000, -0.199700
  1.107000, -0.196200
  1.109000, -0.192400
  1.111000, -0.188400
  1.113000, -0.184100
  1.115000, -0.179700
  1.117000, -0.175100
  1.119000, -0.170400
  1.121000, -0.165600
  1.123000, -0.160700
  1.125000, -0.155600
  1.127000, -0.150300
  1.129000, -0.145000
  1.131000, -0.139600
  1.133000, -0.134300
  1.135000, -0.128800
  1.137000, -0.123500
  1.139000, -0.118300
  1.141000, -0.113100
  1.143000, -0.107700
  1.145000, -0.102300
  1.147000, -0.097000
  1.149000, -0.091700
  1.151000, -0.086600
  1.153000, -0.081600
  1.155000, -0.076600
  1.157000, -0.072000
  1.159000, -0.067600
  1.161000, -0.063200
  1.163000, -0.058900
  1.165000, -0.054900
  1.167000, -0.050900
  1.169000, -0.047200
  1.171000, -0.043700
  1.173000, -0.040500
  1.175000, -0.037600
  1.177000, -0.034700
  1.179000, -0.031900
  1.181000, -0.029400
  1.183000, -0.027200
  1.185000, -0.025200
  1.187000, -0.023400
  1.189000, -0.021800
  1.191000, -0.020300
  1.193000, -0.019100
  1.195000, -0.018000
  1.197000, -0.017100
  1.199000, -0.016300
  1.201000, -0.015700
  1.203000, -0.015200
  1.205000, -0.014800
  1.207000, -0.014400
  1.209000, -0.014100
  1.211000, -0.013900
  1.213000, -0.013800
  1.215000, -0.013800
  1.217000, -0.013700
  1.219000, -0.013700
  1.221000, -0.013700
  1.223000, -0.013700
  1.225000, -0.013700
  1.227000, -0.013800
  1.229000, -0.013700
  1.231000, -0.013600
  1.233000, -0.013400
  1.235000, -0.013100
  1.237000, -0.012900
  1.239000, -0.012500
  1.241000, -0.012200
  1.243000, -0.011900
  1.245000, -0.011600
  1.247000, -0.011300
  1.249000, -0.010800
  1.251000, -0.010200
  1.253000, -0.009600
  1.255000, -0.009100
  1.257000, -0.008600
  1.259000, -0.008200
  1.261000, -0.007800
  1.263000, -0.007200
  1.265000, -0.006600
  1.267000, -0.006000
  1.269000, -0.005600
  1.271000, -0.005200
  1.273000, -0.005000
  1.275000, -0.004800
  1.277000, -0.004600
  1.279000, -0.004500
  1.281000, -0.004400
  1.283000, -0.004400
  1.285000, -0.004400
  1.287000, -0.004300
  1.289000, -0.004300
  1.291000, -0.004400
  1.293000, -0.004600
  1.295000, -0.004800
  1.297000, -0.005000
  1.299000, -0.005400
  1.301000, -0.005700
  1.303000, -0.006200
  1.305000, -0.006600
  1.307000, -0.007000
  1.309000, -0.007400
  1.311000, -0.007900
  1.313000, -0.008400
  1.315000, -0.008700
  1.317000, -0.008900
  1.319000, -0.009200
  1.321000, -0.009600
  1.323000, -0.009800
  1.325000, -0.009900
  1.327000, -0.009800
  1.329000, -0.009700
  1.331000, -0.009400
  1.333000, -0.009100
  1.335000, -0.008500
  1.337000, -0.007900
  1.339000, -0.007100
  1.341000, -0.006200
  1.343000, -0.005200
  1.345000, -0.004100
  1.347000, -0.002800
  1.349000, -0.001200
  1.351000,  0.000300
  1.353000,  0.002100
  1.355000,  0.004100
  1.357000,  0.006100
  1.359000,  0.008200
  1.361000,  0.010500
  1.363000,  0.013000
  1.365000,  0.015400
  1.367000,  0.017900
  1.369000,  0.020400
  1.371000,  0.023100
  1.373000,  0.025800
  1.375000,  0.028500
  1.377000,  0.031200
  1.379000,  0.033800
  1.381000,  0.036600
  1.383000,  0.039200
  1.385000,  0.041700
  1.387000,  0.044000
  1.389000,  0.046300
  1.391000,  0.048500
  1.393000,  0.050300
  1.395000,  0.051800
  1.397000,  0.052900
  1.399000,  0.053700
