# #h[nm], U[kJ/mol]
  0.126949, 88.370000
  0.129596, 82.720000
  0.132242, 77.000000
  0.134888, 71.240000
  0.137534, 65.500000
  0.140180, 59.790000
  0.142827, 54.170000
  0.145473, 48.690000
  0.148119, 43.370000
  0.150765, 38.260000
  0.153411, 33.390000
  0.156057, 28.780000
  0.158704, 24.450000
  0.161350, 20.400000
  0.163996, 16.630000
  0.166642, 13.150000
  0.169288,  9.940000
  0.171934,  7.020000
  0.174581,  4.360000
  0.177227,  1.970000
  0.179873, -0.160000
  0.182519, -2.030000
  0.185165, -3.670000
  0.187812, -5.070000
  0.190458, -6.250000
  0.193104, -7.250000
  0.195750, -8.100000
  0.198396, -8.820000
  0.201042, -9.480000
  0.203689,-10.080000
  0.206335,-10.650000
  0.208981,-11.180000
  0.211627,-11.650000
  0.214273,-12.040000
  0.216919,-12.340000
  0.219566,-12.550000
  0.222212,-12.670000
  0.224858,-12.740000
  0.227504,-12.770000
  0.230150,-12.760000
  0.232797,-12.720000
  0.235443,-12.620000
  0.238089,-12.460000
  0.240735,-12.230000
  0.243381,-11.920000
  0.246027,-11.540000
  0.248674,-11.090000
  0.251320,-10.600000
  0.253966,-10.090000
  0.256612, -9.590000
  0.259258, -9.110000
  0.261904, -8.660000
  0.264551, -8.250000
  0.267197, -7.890000
  0.269843, -7.560000
  0.272489, -7.270000
  0.275135, -7.010000
  0.277781, -6.770000
  0.280428, -6.540000
  0.283074, -6.310000
  0.285720, -6.090000
  0.288366, -5.860000
  0.291012, -5.620000
  0.293659, -5.370000
  0.296305, -5.130000
  0.298951, -4.890000
  0.301597, -4.670000
  0.304243, -4.470000
  0.306889, -4.300000
  0.309536, -4.170000
  0.312182, -4.090000
  0.314828, -4.040000
  0.317474, -4.030000
  0.320120, -4.060000
  0.322766, -4.110000
  0.325413, -4.170000
  0.328059, -4.220000
  0.330705, -4.250000
  0.333351, -4.240000
  0.335997, -4.180000
  0.338644, -4.070000
  0.341290, -3.890000
  0.343936, -3.640000
  0.346582, -3.330000
  0.349228, -2.970000
  0.351874, -2.560000
  0.354521, -2.100000
  0.357167, -1.620000
  0.359813, -1.110000
  0.362459, -0.580000
  0.365105, -0.040000
  0.367751,  0.510000
  0.370398,  1.050000
  0.373044,  1.600000
  0.375690,  2.140000
  0.378336,  2.660000
  0.380982,  3.170000
  0.383628,  3.660000
  0.386275,  4.130000
  0.388921,  4.570000
  0.391567,  4.980000
  0.394213,  5.360000
  0.396859,  5.710000
  0.399506,  6.020000
  0.402152,  6.290000
  0.404798,  6.540000
  0.407444,  6.740000
  0.410090,  6.920000
  0.412736,  7.060000
  0.415383,  7.170000
  0.418029,  7.250000
  0.420675,  7.300000
  0.423321,  7.320000
  0.425967,  7.300000
  0.428613,  7.250000
  0.431260,  7.180000
  0.433906,  7.090000
  0.436552,  6.960000
  0.439198,  6.820000
  0.441844,  6.640000
  0.444491,  6.450000
  0.447137,  6.230000
  0.449783,  6.000000
  0.452429,  5.750000
  0.455075,  5.470000
  0.457721,  5.190000
  0.460368,  4.890000
  0.463014,  4.570000
  0.465660,  4.240000
  0.468306,  3.890000
  0.470952,  3.530000
  0.473598,  3.170000
  0.476245,  2.790000
  0.478891,  2.420000
  0.481537,  2.050000
  0.484183,  1.680000
  0.486829,  1.330000
  0.489475,  0.990000
  0.492122,  0.680000
  0.494768,  0.380000
  0.497414,  0.110000
  0.500060, -0.130000
  0.502706, -0.350000
  0.505353, -0.550000
  0.507999, -0.730000
  0.510645, -0.890000
  0.513291, -1.040000
  0.515937, -1.160000
  0.518583, -1.280000
  0.521230, -1.380000
  0.523876, -1.470000
  0.526522, -1.540000
  0.529168, -1.600000
  0.531814, -1.660000
  0.534460, -1.690000
  0.537107, -1.720000
  0.539753, -1.730000
  0.542399, -1.720000
  0.545045, -1.690000
  0.547691, -1.660000
  0.550338, -1.610000
  0.552984, -1.560000
  0.555630, -1.500000
  0.558276, -1.430000
  0.560922, -1.360000
  0.563568, -1.290000
  0.566215, -1.220000
  0.568861, -1.150000
  0.571507, -1.090000
  0.574153, -1.040000
  0.576799, -1.000000
  0.579445, -0.970000
  0.582092, -0.940000
  0.584738, -0.920000
  0.587384, -0.910000
  0.590030, -0.910000
  0.592676, -0.900000
  0.595322, -0.900000
  0.597969, -0.900000
  0.600615, -0.900000
  0.603261, -0.900000
  0.605907, -0.880000
  0.608553, -0.860000
  0.611200, -0.840000
  0.613846, -0.800000
  0.616492, -0.750000
  0.619138, -0.700000
  0.621784, -0.640000
  0.624430, -0.570000
  0.627077, -0.490000
  0.629723, -0.410000
  0.632369, -0.320000
  0.635015, -0.220000
  0.637661, -0.130000
  0.640307, -0.030000
  0.642954,  0.060000
  0.645600,  0.160000
  0.648246,  0.260000
  0.650892,  0.360000
  0.653538,  0.450000
  0.656185,  0.530000
  0.658831,  0.620000
  0.661477,  0.690000
  0.664123,  0.770000
  0.666769,  0.840000
  0.669415,  0.910000
  0.672062,  0.970000
  0.674708,  1.040000
  0.677354,  1.090000
  0.680000,  1.150000
  0.682646,  1.200000
  0.685292,  1.260000
  0.687939,  1.310000
  0.690585,  1.360000
  0.693231,  1.410000
  0.695877,  1.460000
  0.698523,  1.510000
  0.701169,  1.550000
  0.703816,  1.600000
  0.706462,  1.640000
  0.709108,  1.670000
  0.711754,  1.700000
  0.714400,  1.720000
  0.717047,  1.740000
  0.719693,  1.740000
  0.722339,  1.740000
  0.724985,  1.730000
  0.727631,  1.710000
  0.730277,  1.690000
  0.732924,  1.650000
  0.735570,  1.620000
  0.738216,  1.570000
  0.740862,  1.510000
  0.743508,  1.450000
  0.746154,  1.380000
  0.748801,  1.320000
  0.751447,  1.240000
  0.754093,  1.170000
  0.756739,  1.090000
  0.759385,  1.020000
  0.762032,  0.940000
  0.764678,  0.850000
  0.767324,  0.780000
  0.769970,  0.700000
  0.772616,  0.630000
  0.775262,  0.560000
  0.777909,  0.480000
  0.780555,  0.420000
  0.783201,  0.360000
  0.785847,  0.300000
  0.788493,  0.250000
  0.791139,  0.200000
  0.793786,  0.150000
  0.796432,  0.120000
  0.799078,  0.080000
  0.801724,  0.050000
  0.804370,  0.020000
  0.807016, -0.010000
  0.809663, -0.040000
  0.812309, -0.070000
  0.814955, -0.090000
  0.817601, -0.120000
  0.820247, -0.150000
  0.822894, -0.180000
  0.825540, -0.210000
  0.828186, -0.240000
  0.830832, -0.260000
  0.833478, -0.290000
  0.836124, -0.320000
  0.838771, -0.340000
  0.841417, -0.360000
  0.844063, -0.380000
  0.846709, -0.390000
  0.849355, -0.400000
  0.852001, -0.410000
  0.854648, -0.410000
  0.857294, -0.420000
  0.859940, -0.420000
  0.862586, -0.420000
  0.865232, -0.420000
  0.867879, -0.410000
  0.870525, -0.410000
  0.873171, -0.410000
  0.875817, -0.410000
  0.878463, -0.410000
  0.881109, -0.400000
  0.883756, -0.400000
  0.886402, -0.400000
  0.889048, -0.400000
  0.891694, -0.400000
  0.894340, -0.390000
  0.896986, -0.390000
  0.899633, -0.380000
  0.902279, -0.360000
  0.904925, -0.350000
  0.907571, -0.330000
  0.910217, -0.310000
  0.912864, -0.290000
  0.915510, -0.270000
  0.918156, -0.240000
  0.920802, -0.210000
  0.923448, -0.180000
  0.926094, -0.150000
  0.928741, -0.120000
  0.931387, -0.080000
  0.934033, -0.050000
  0.936679, -0.020000
  0.939325,  0.010000
  0.941971,  0.040000
  0.944618,  0.070000
  0.947264,  0.090000
  0.949910,  0.120000
  0.952556,  0.130000
  0.955202,  0.150000
  0.957848,  0.170000
  0.960495,  0.180000
  0.963141,  0.190000
  0.965787,  0.200000
  0.968433,  0.210000
  0.971079,  0.220000
  0.973726,  0.220000
  0.976372,  0.230000
  0.979018,  0.230000
  0.981664,  0.230000
  0.984310,  0.230000
  0.986956,  0.240000
  0.989603,  0.240000
  0.992249,  0.240000
  0.994895,  0.250000
  0.997541,  0.250000
  1.000187,  0.260000
  1.002833,  0.260000
  1.005480,  0.270000
  1.008126,  0.280000
  1.010772,  0.300000
  1.013418,  0.310000
  1.016064,  0.330000
  1.018711,  0.350000
  1.021357,  0.360000
  1.024003,  0.380000
  1.026649,  0.400000
  1.029295,  0.410000
  1.031941,  0.420000
  1.034588,  0.430000
  1.037234,  0.430000
  1.039880,  0.430000
  1.042526,  0.420000
  1.045172,  0.400000
  1.047818,  0.390000
  1.050465,  0.360000
  1.053111,  0.330000
  1.055757,  0.300000
  1.058403,  0.270000
  1.061049,  0.240000
  1.063695,  0.210000
  1.066342,  0.180000
  1.068988,  0.150000
  1.071634,  0.120000
  1.074280,  0.100000
  1.076926,  0.090000
  1.079573,  0.080000
  1.082219,  0.070000
  1.084865,  0.060000
  1.087511,  0.060000
  1.090157,  0.060000
  1.092803,  0.060000
  1.095450,  0.060000
  1.098096,  0.050000
  1.100742,  0.050000
  1.103388,  0.050000
  1.106034,  0.040000
  1.108680,  0.030000
  1.111327,  0.020000
  1.113973,  0.020000
  1.116619,  0.010000
  1.119265,  0.000000
  1.121911, -0.010000
  1.124558, -0.030000
  1.127204, -0.040000
  1.129850, -0.040000
  1.132496, -0.050000
  1.135142, -0.060000
  1.137788, -0.070000
  1.140435, -0.070000
  1.143081, -0.080000
  1.145727, -0.080000
  1.148373, -0.080000
  1.151019, -0.090000
  1.153665, -0.090000
  1.156312, -0.090000
  1.158958, -0.090000
  1.161604, -0.080000
  1.164250, -0.080000
  1.166896, -0.080000
  1.169542, -0.070000
  1.172189, -0.070000
  1.174835, -0.060000
  1.177481, -0.050000
  1.180127, -0.040000
  1.182773, -0.040000
  1.185420, -0.040000
  1.188066, -0.030000
  1.190712, -0.030000
  1.193358, -0.030000
  1.196004, -0.030000
  1.198650, -0.040000
  1.201297, -0.040000
  1.203943, -0.050000
  1.206589, -0.060000
  1.209235, -0.060000
  1.211881, -0.070000
  1.214527, -0.080000
  1.217174, -0.080000
  1.219820, -0.080000
  1.222466, -0.090000
  1.225112, -0.090000
  1.227758, -0.090000
  1.230405, -0.100000
  1.233051, -0.100000
  1.235697, -0.100000
  1.238343, -0.100000
  1.240989, -0.100000
  1.243635, -0.110000
  1.246282, -0.100000
  1.248928, -0.110000
  1.251574, -0.100000
  1.254220, -0.100000
  1.256866, -0.100000
  1.259512, -0.090000
  1.262159, -0.090000
  1.264805, -0.080000
  1.267451, -0.070000
  1.270097, -0.060000
  1.272743, -0.050000
  1.275389, -0.040000
  1.278036, -0.020000
  1.280682, -0.010000
  1.283328,  0.000000
  1.285974,  0.010000
  1.288620,  0.030000
  1.291267,  0.030000
  1.293913,  0.040000
  1.296559,  0.050000
  1.299205,  0.060000
  1.301851,  0.070000
  1.304497,  0.070000
  1.307144,  0.080000
  1.309790,  0.080000
  1.312436,  0.080000
  1.315082,  0.080000
  1.317728,  0.080000
  1.320374,  0.070000
  1.323021,  0.060000
  1.325667,  0.060000
  1.328313,  0.050000
  1.330959,  0.040000
  1.333605,  0.030000
  1.336252,  0.020000
  1.338898,  0.010000
  1.341544,  0.000000
