# #h[nm], U[kJ/mol]
  0.143065, 43.320000
  0.144943, 37.360000
  0.146820, 31.410000
  0.148698, 25.530000
  0.150575, 19.760000
  0.152453, 14.120000
  0.154330,  8.660000
  0.156208,  3.420000
  0.158085, -1.590000
  0.159963, -6.340000
  0.161840,-10.810000
  0.163718,-15.000000
  0.165595,-18.920000
  0.167473,-22.560000
  0.169350,-25.940000
  0.171228,-29.070000
  0.173105,-31.950000
  0.174983,-34.620000
  0.176860,-37.060000
  0.178738,-39.290000
  0.180615,-41.330000
  0.182493,-43.180000
  0.184371,-44.870000
  0.186248,-46.420000
  0.188126,-47.820000
  0.190003,-49.090000
  0.191881,-50.240000
  0.193758,-51.280000
  0.195636,-52.200000
  0.197513,-53.010000
  0.199391,-53.720000
  0.201268,-54.350000
  0.203146,-54.920000
  0.205023,-55.460000
  0.206901,-55.970000
  0.208778,-56.420000
  0.210656,-56.770000
  0.212533,-56.940000
  0.214411,-56.930000
  0.216288,-56.760000
  0.218166,-56.470000
  0.220043,-56.110000
  0.221921,-55.730000
  0.223798,-55.320000
  0.225676,-54.870000
  0.227553,-54.370000
  0.229431,-53.790000
  0.231308,-53.130000
  0.233186,-52.420000
  0.235063,-51.640000
  0.236941,-50.810000
  0.238818,-49.940000
  0.240696,-49.040000
  0.242573,-48.110000
  0.244451,-47.150000
  0.246328,-46.160000
  0.248206,-45.150000
  0.250083,-44.130000
  0.251961,-43.080000
  0.253839,-42.030000
  0.255716,-40.980000
  0.257594,-39.910000
  0.259471,-38.860000
  0.261349,-37.820000
  0.263226,-36.800000
  0.265104,-35.790000
  0.266981,-34.810000
  0.268859,-33.870000
  0.270736,-32.950000
  0.272614,-32.060000
  0.274491,-31.220000
  0.276369,-30.410000
  0.278246,-29.640000
  0.280124,-28.910000
  0.282001,-28.220000
  0.283879,-27.560000
  0.285756,-26.940000
  0.287634,-26.350000
  0.289511,-25.800000
  0.291389,-25.290000
  0.293266,-24.810000
  0.295144,-24.370000
  0.297021,-23.970000
  0.298899,-23.600000
  0.300776,-23.260000
  0.302654,-22.950000
  0.304531,-22.660000
  0.306409,-22.410000
  0.308286,-22.170000
  0.310164,-21.950000
  0.312041,-21.750000
  0.313919,-21.570000
  0.315796,-21.410000
  0.317674,-21.270000
  0.319551,-21.140000
  0.321429,-21.020000
  0.323307,-20.910000
  0.325184,-20.800000
  0.327062,-20.690000
  0.328939,-20.580000
  0.330817,-20.460000
  0.332694,-20.350000
  0.334572,-20.250000
  0.336449,-20.140000
  0.338327,-20.030000
  0.340204,-19.900000
  0.342082,-19.770000
  0.343959,-19.610000
  0.345837,-19.440000
  0.347714,-19.250000
  0.349592,-19.050000
  0.351469,-18.840000
  0.353347,-18.620000
  0.355224,-18.400000
  0.357102,-18.170000
  0.358979,-17.930000
  0.360857,-17.690000
  0.362734,-17.440000
  0.364612,-17.180000
  0.366489,-16.920000
  0.368367,-16.660000
  0.370244,-16.410000
  0.372122,-16.160000
  0.373999,-15.910000
  0.375877,-15.670000
  0.377754,-15.440000
  0.379632,-15.210000
  0.381509,-14.990000
  0.383387,-14.770000
  0.385264,-14.560000
  0.387142,-14.350000
  0.389019,-14.150000
  0.390897,-13.950000
  0.392775,-13.760000
  0.394652,-13.580000
  0.396530,-13.400000
  0.398407,-13.240000
  0.400285,-13.080000
  0.402162,-12.920000
  0.404040,-12.770000
  0.405917,-12.610000
  0.407795,-12.450000
  0.409672,-12.290000
  0.411550,-12.110000
  0.413427,-11.920000
  0.415305,-11.720000
  0.417182,-11.500000
  0.419060,-11.270000
  0.420937,-11.020000
  0.422815,-10.750000
  0.424692,-10.480000
  0.426570,-10.190000
  0.428447, -9.900000
  0.430325, -9.600000
  0.432202, -9.310000
  0.434080, -9.010000
  0.435957, -8.710000
  0.437835, -8.410000
  0.439712, -8.120000
  0.441590, -7.830000
  0.443467, -7.540000
  0.445345, -7.250000
  0.447222, -6.970000
  0.449100, -6.700000
  0.450977, -6.430000
  0.452855, -6.170000
  0.454732, -5.910000
  0.456610, -5.670000
  0.458487, -5.420000
  0.460365, -5.190000
  0.462243, -4.970000
  0.464120, -4.770000
  0.465998, -4.570000
  0.467875, -4.390000
  0.469753, -4.220000
  0.471630, -4.060000
  0.473508, -3.930000
  0.475385, -3.820000
  0.477263, -3.730000
  0.479140, -3.670000
  0.481018, -3.630000
  0.482895, -3.610000
  0.484773, -3.620000
  0.486650, -3.650000
  0.488528, -3.690000
  0.490405, -3.750000
  0.492283, -3.820000
  0.494160, -3.910000
  0.496038, -3.990000
  0.497915, -4.070000
  0.499793, -4.140000
  0.501670, -4.200000
  0.503548, -4.250000
  0.505425, -4.280000
  0.507303, -4.280000
  0.509180, -4.270000
  0.511058, -4.240000
  0.512935, -4.190000
  0.514813, -4.120000
  0.516690, -4.040000
  0.518568, -3.940000
  0.520445, -3.830000
  0.522323, -3.720000
  0.524200, -3.600000
  0.526078, -3.470000
  0.527955, -3.340000
  0.529833, -3.210000
  0.531711, -3.080000
  0.533588, -2.950000
  0.535466, -2.820000
  0.537343, -2.690000
  0.539221, -2.570000
  0.541098, -2.460000
  0.542976, -2.350000
  0.544853, -2.250000
  0.546731, -2.140000
  0.548608, -2.040000
  0.550486, -1.940000
  0.552363, -1.830000
  0.554241, -1.720000
  0.556118, -1.610000
  0.557996, -1.490000
  0.559873, -1.380000
  0.561751, -1.260000
  0.563628, -1.160000
  0.565506, -1.060000
  0.567383, -0.970000
  0.569261, -0.890000
  0.571138, -0.820000
  0.573016, -0.760000
  0.574893, -0.710000
  0.576771, -0.670000
  0.578648, -0.640000
  0.580526, -0.620000
  0.582403, -0.610000
  0.584281, -0.610000
  0.586158, -0.620000
  0.588036, -0.630000
  0.589913, -0.660000
  0.591791, -0.690000
  0.593668, -0.740000
  0.595546, -0.790000
  0.597423, -0.850000
  0.599301, -0.910000
  0.601179, -0.970000
  0.603056, -1.030000
  0.604934, -1.100000
  0.606811, -1.160000
  0.608689, -1.220000
  0.610566, -1.270000
  0.612444, -1.320000
  0.614321, -1.370000
  0.616199, -1.410000
  0.618076, -1.460000
  0.619954, -1.500000
  0.621831, -1.540000
  0.623709, -1.580000
  0.625586, -1.620000
  0.627464, -1.670000
  0.629341, -1.720000
  0.631219, -1.770000
  0.633096, -1.830000
  0.634974, -1.890000
  0.636851, -1.940000
  0.638729, -1.990000
  0.640606, -2.040000
  0.642484, -2.080000
  0.644361, -2.110000
  0.646239, -2.130000
  0.648116, -2.150000
  0.649994, -2.150000
  0.651871, -2.150000
  0.653749, -2.140000
  0.655626, -2.110000
  0.657504, -2.080000
  0.659381, -2.030000
  0.661259, -1.980000
  0.663136, -1.920000
  0.665014, -1.850000
  0.666892, -1.780000
  0.668769, -1.710000
  0.670647, -1.640000
  0.672524, -1.570000
  0.674402, -1.490000
  0.676279, -1.420000
  0.678157, -1.350000
  0.680034, -1.290000
  0.681912, -1.230000
  0.683789, -1.170000
  0.685667, -1.120000
  0.687544, -1.080000
  0.689422, -1.040000
  0.691299, -1.010000
  0.693177, -0.980000
  0.695054, -0.950000
  0.696932, -0.920000
  0.698809, -0.890000
  0.700687, -0.860000
  0.702564, -0.830000
  0.704442, -0.800000
  0.706319, -0.760000
  0.708197, -0.710000
  0.710074, -0.660000
  0.711952, -0.610000
  0.713829, -0.550000
  0.715707, -0.490000
  0.717584, -0.420000
  0.719462, -0.350000
  0.721339, -0.280000
  0.723217, -0.220000
  0.725094, -0.150000
  0.726972, -0.090000
  0.728849, -0.030000
  0.730727,  0.020000
  0.732604,  0.070000
  0.734482,  0.120000
  0.736360,  0.160000
  0.738237,  0.190000
  0.740115,  0.230000
  0.741992,  0.250000
  0.743870,  0.280000
  0.745747,  0.300000
  0.747625,  0.320000
  0.749502,  0.330000
  0.751380,  0.340000
  0.753257,  0.350000
  0.755135,  0.350000
  0.757012,  0.350000
  0.758890,  0.350000
  0.760767,  0.340000
  0.762645,  0.330000
  0.764522,  0.320000
  0.766400,  0.310000
  0.768277,  0.290000
  0.770155,  0.280000
  0.772032,  0.260000
  0.773910,  0.250000
  0.775787,  0.230000
  0.777665,  0.220000
  0.779542,  0.210000
  0.781420,  0.200000
  0.783297,  0.200000
  0.785175,  0.200000
  0.787052,  0.210000
  0.788930,  0.220000
  0.790807,  0.240000
  0.792685,  0.260000
  0.794562,  0.280000
  0.796440,  0.300000
  0.798317,  0.330000
  0.800195,  0.350000
  0.802072,  0.370000
  0.803950,  0.390000
  0.805828,  0.410000
  0.807705,  0.430000
  0.809583,  0.440000
  0.811460,  0.450000
  0.813338,  0.460000
  0.815215,  0.460000
  0.817093,  0.460000
  0.818970,  0.470000
  0.820848,  0.470000
  0.822725,  0.470000
  0.824603,  0.480000
  0.826480,  0.480000
  0.828358,  0.480000
  0.830235,  0.470000
  0.832113,  0.470000
  0.833990,  0.460000
  0.835868,  0.450000
  0.837745,  0.440000
  0.839623,  0.430000
  0.841500,  0.400000
  0.843378,  0.380000
  0.845255,  0.350000
  0.847133,  0.320000
  0.849010,  0.290000
  0.850888,  0.260000
  0.852765,  0.240000
  0.854643,  0.230000
  0.856520,  0.220000
  0.858398,  0.230000
  0.860275,  0.240000
  0.862153,  0.260000
  0.864030,  0.290000
  0.865908,  0.330000
  0.867785,  0.370000
  0.869663,  0.410000
  0.871540,  0.440000
  0.873418,  0.470000
  0.875296,  0.490000
  0.877173,  0.500000
  0.879051,  0.500000
  0.880928,  0.490000
  0.882806,  0.470000
  0.884683,  0.440000
  0.886561,  0.400000
  0.888438,  0.360000
  0.890316,  0.320000
  0.892193,  0.270000
  0.894071,  0.230000
  0.895948,  0.200000
  0.897826,  0.160000
  0.899703,  0.130000
  0.901581,  0.110000
  0.903458,  0.090000
  0.905336,  0.080000
  0.907213,  0.080000
  0.909091,  0.080000
  0.910968,  0.080000
  0.912846,  0.080000
  0.914723,  0.090000
  0.916601,  0.100000
  0.918478,  0.100000
  0.920356,  0.110000
  0.922233,  0.110000
  0.924111,  0.110000
  0.925988,  0.110000
  0.927866,  0.100000
  0.929743,  0.090000
  0.931621,  0.090000
  0.933498,  0.070000
  0.935376,  0.070000
  0.937253,  0.060000
  0.939131,  0.050000
  0.941008,  0.040000
  0.942886,  0.030000
  0.944764,  0.020000
  0.946641,  0.020000
  0.948519,  0.020000
  0.950396,  0.020000
  0.952274,  0.020000
  0.954151,  0.020000
  0.956029,  0.020000
  0.957906,  0.030000
  0.959784,  0.040000
  0.961661,  0.040000
  0.963539,  0.050000
  0.965416,  0.050000
  0.967294,  0.050000
  0.969171,  0.060000
  0.971049,  0.070000
  0.972926,  0.070000
  0.974804,  0.080000
  0.976681,  0.090000
  0.978559,  0.100000
  0.980436,  0.110000
  0.982314,  0.120000
  0.984191,  0.130000
  0.986069,  0.140000
  0.987946,  0.150000
  0.989824,  0.160000
  0.991701,  0.170000
  0.993579,  0.180000
  0.995456,  0.190000
  0.997334,  0.200000
  0.999211,  0.210000
  1.001089,  0.220000
  1.002966,  0.220000
  1.004844,  0.210000
  1.006721,  0.210000
  1.008599,  0.200000
  1.010476,  0.190000
  1.012354,  0.180000
  1.014232,  0.160000
  1.016109,  0.140000
  1.017987,  0.130000
  1.019864,  0.120000
  1.021742,  0.100000
  1.023619,  0.100000
  1.025497,  0.090000
  1.027374,  0.090000
  1.029252,  0.100000
  1.031129,  0.110000
  1.033007,  0.120000
  1.034884,  0.130000
  1.036762,  0.150000
  1.038639,  0.170000
  1.040517,  0.190000
  1.042394,  0.210000
  1.044272,  0.230000
  1.046149,  0.240000
  1.048027,  0.250000
  1.049904,  0.260000
  1.051782,  0.260000
  1.053659,  0.260000
  1.055537,  0.260000
  1.057414,  0.260000
  1.059292,  0.260000
  1.061169,  0.250000
  1.063047,  0.250000
  1.064924,  0.240000
  1.066802,  0.240000
  1.068679,  0.240000
  1.070557,  0.240000
  1.072434,  0.240000
  1.074312,  0.240000
  1.076189,  0.250000
  1.078067,  0.260000
  1.079944,  0.270000
  1.081822,  0.280000
  1.083700,  0.290000
  1.085577,  0.300000
  1.087455,  0.310000
  1.089332,  0.310000
  1.091210,  0.310000
  1.093087,  0.320000
  1.094965,  0.310000
  1.096842,  0.310000
  1.098720,  0.310000
  1.100597,  0.300000
  1.102475,  0.290000
  1.104352,  0.280000
  1.106230,  0.260000
  1.108107,  0.240000
  1.109985,  0.220000
  1.111862,  0.200000
  1.113740,  0.180000
  1.115617,  0.160000
  1.117495,  0.140000
  1.119372,  0.130000
  1.121250,  0.110000
  1.123127,  0.100000
  1.125005,  0.100000
  1.126882,  0.100000
  1.128760,  0.100000
  1.130637,  0.100000
  1.132515,  0.110000
  1.134392,  0.130000
  1.136270,  0.140000
  1.138147,  0.160000
  1.140025,  0.180000
  1.141902,  0.200000
  1.143780,  0.220000
  1.145657,  0.240000
  1.147535,  0.260000
  1.149412,  0.270000
  1.151290,  0.280000
  1.153168,  0.290000
  1.155045,  0.290000
  1.156923,  0.290000
  1.158800,  0.280000
  1.160678,  0.270000
  1.162555,  0.260000
  1.164433,  0.240000
  1.166310,  0.230000
  1.168188,  0.210000
  1.170065,  0.200000
  1.171943,  0.190000
  1.173820,  0.180000
  1.175698,  0.170000
  1.177575,  0.170000
  1.179453,  0.170000
  1.181330,  0.180000
  1.183208,  0.190000
  1.185085,  0.200000
  1.186963,  0.220000
  1.188840,  0.230000
  1.190718,  0.250000
  1.192595,  0.260000
  1.194473,  0.280000
  1.196350,  0.290000
  1.198228,  0.300000
  1.200105,  0.310000
  1.201983,  0.310000
  1.203860,  0.320000
  1.205738,  0.310000
  1.207615,  0.310000
  1.209493,  0.300000
  1.211370,  0.280000
  1.213248,  0.270000
  1.215125,  0.260000
  1.217003,  0.250000
  1.218880,  0.240000
  1.220758,  0.220000
  1.222636,  0.220000
  1.224513,  0.210000
  1.226391,  0.210000
  1.228268,  0.210000
  1.230146,  0.210000
  1.232023,  0.220000
  1.233901,  0.220000
  1.235778,  0.230000
  1.237656,  0.230000
  1.239533,  0.230000
  1.241411,  0.240000
  1.243288,  0.240000
  1.245166,  0.240000
  1.247043,  0.240000
  1.248921,  0.240000
  1.250798,  0.250000
  1.252676,  0.250000
  1.254553,  0.250000
  1.256431,  0.250000
  1.258308,  0.250000
  1.260186,  0.250000
  1.262063,  0.250000
  1.263941,  0.250000
  1.265818,  0.240000
  1.267696,  0.240000
  1.269573,  0.240000
  1.271451,  0.230000
  1.273328,  0.230000
  1.275206,  0.220000
  1.277083,  0.210000
  1.278961,  0.200000
  1.280838,  0.190000
  1.282716,  0.180000
  1.284593,  0.170000
  1.286471,  0.160000
  1.288349,  0.150000
  1.290226,  0.140000
  1.292104,  0.130000
  1.293981,  0.120000
  1.295859,  0.110000
  1.297736,  0.110000
  1.299614,  0.100000
  1.301491,  0.090000
  1.303369,  0.080000
  1.305246,  0.080000
  1.307124,  0.070000
  1.309001,  0.070000
  1.310879,  0.070000
  1.312756,  0.060000
  1.314634,  0.060000
  1.316511,  0.060000
  1.318389,  0.060000
  1.320266,  0.060000
  1.322144,  0.060000
  1.324021,  0.050000
  1.325899,  0.050000
  1.327776,  0.050000
  1.329654,  0.040000
  1.331531,  0.040000
  1.333409,  0.030000
  1.335286,  0.030000
  1.337164,  0.020000
  1.339041,  0.010000
  1.340919,  0.000000
