# z (nm)   (kJ/mol)
  0.1260  251.15986
  0.1280  248.87403
  0.1300  246.62852
  0.1320  244.00496
  0.1340  241.53166
  0.1360  239.11112
  0.1380  236.66805
  0.1400  234.17512
  0.1420  231.70679
  0.1440  229.21506
  0.1460  226.61744
  0.1480  223.92973
  0.1500  221.11531
  0.1520  218.17470
  0.1540  215.09147
  0.1560  211.85517
  0.1580  208.47194
  0.1600  204.95363
  0.1620  201.30443
  0.1640  197.54648
  0.1660  193.69441
  0.1680  189.76976
  0.1700  185.79413
  0.1720  181.77487
  0.1740  177.71614
  0.1760  173.62673
  0.1780  169.49800
  0.1800  165.33848
  0.1820  161.14828
  0.1840  156.93568
  0.1860  152.71604
  0.1880  148.52743
  0.1900  144.41363
  0.1920  140.40548
  0.1940  136.53385
  0.1960  132.80704
  0.1980  129.20551
  0.2000  125.70494
  0.2020  122.26727
  0.2040  118.85886
  0.2060  115.47803
  0.2080  112.13544
  0.2100  108.85410
  0.2120  105.65964
  0.2140  102.53901
  0.2160   99.48184
  0.2180   96.43994
  0.2200   93.38496
  0.2220   90.28757
  0.2240   87.16667
  0.2260   84.03710
  0.2280   80.95202
  0.2300   77.96114
  0.2320   75.11224
  0.2340   72.41807
  0.2360   69.86100
  0.2380   67.38983
  0.2400   64.93050
  0.2420   62.41048
  0.2440   59.78601
  0.2460   57.06215
  0.2480   54.29416
  0.2500   51.55455
  0.2520   48.92917
  0.2540   46.47887
  0.2560   44.20764
  0.2580   42.07843
  0.2600   40.02842
  0.2620   38.00036
  0.2640   35.95295
  0.2660   33.87781
  0.2680   31.78643
  0.2700   29.69501
  0.2720   27.64845
  0.2740   25.65061
  0.2760   23.72477
  0.2780   21.86766
  0.2800   20.08122
  0.2820   18.37078
  0.2840   16.72138
  0.2860   15.11882
  0.2880   13.53205
  0.2900   11.94360
  0.2920   10.35615
  0.2940    8.76661
  0.2960    7.18388
  0.2980    5.63738
  0.3000    4.12749
  0.3020    2.65926
  0.3040    1.21773
  0.3060   -0.21078
  0.3080   -1.64617
  0.3100   -3.10266
  0.3120   -4.58300
  0.3140   -6.06465
  0.3160   -7.53044
  0.3180   -8.95140
  0.3200  -10.31146
  0.3220  -11.61612
  0.3240  -12.87961
  0.3260  -14.14259
  0.3280  -15.39956
  0.3300  -16.65807
  0.3320  -17.90037
  0.3340  -19.11243
  0.3360  -20.26365
  0.3380  -21.33724
  0.3400  -22.31703
  0.3420  -23.22048
  0.3440  -24.06838
  0.3460  -24.89186
  0.3480  -25.71816
  0.3500  -26.54916
  0.3520  -27.36532
  0.3540  -28.13568
  0.3560  -28.85383
  0.3580  -29.51166
  0.3600  -30.11043
  0.3620  -30.65437
  0.3640  -31.15177
  0.3660  -31.60378
  0.3680  -32.01174
  0.3700  -32.38101
  0.3720  -32.72036
  0.3740  -33.03508
  0.3760  -33.32681
  0.3780  -33.60577
  0.3800  -33.85806
  0.3820  -34.07991
  0.3840  -34.24822
  0.3860  -34.35527
  0.3880  -34.39706
  0.3900  -34.37938
  0.3920  -34.31854
  0.3940  -34.23445
  0.3960  -34.13318
  0.3980  -34.03207
  0.4000  -33.91855
  0.4020  -33.78897
  0.4040  -33.62976
  0.4060  -33.42872
  0.4080  -33.17641
  0.4100  -32.86903
  0.4120  -32.52852
  0.4140  -32.15865
  0.4160  -31.76763
  0.4180  -31.36648
  0.4200  -30.94700
  0.4220  -30.50926
  0.4240  -30.05024
  0.4260  -29.56894
  0.4280  -29.07734
  0.4300  -28.57335
  0.4320  -28.06618
  0.4340  -27.55125
  0.4360  -26.99672
  0.4380  -26.40448
  0.4400  -25.76155
  0.4420  -25.07209
  0.4440  -24.35448
  0.4460  -23.62414
  0.4480  -22.88850
  0.4500  -22.14833
  0.4520  -21.39084
  0.4540  -20.62160
  0.4560  -19.83650
  0.4580  -19.02612
  0.4600  -18.21803
  0.4620  -17.41695
  0.4640  -16.63742
  0.4660  -15.86760
  0.4680  -15.09582
  0.4700  -14.32738
  0.4720  -13.56076
  0.4740  -12.79856
  0.4760  -12.06410
  0.4780  -11.37712
  0.4800  -10.76498
  0.4820  -10.22642
  0.4840   -9.76089
  0.4860   -9.37028
  0.4880   -9.02956
  0.4900   -8.73091
  0.4920   -8.44715
  0.4940   -8.19038
  0.4960   -7.95283
  0.4980   -7.74564
  0.5000   -7.56496
  0.5020   -7.42281
  0.5040   -7.31371
  0.5060   -7.24781
  0.5080   -7.22453
  0.5100   -7.24895
  0.5120   -7.29773
  0.5140   -7.35682
  0.5160   -7.40233
  0.5180   -7.40732
  0.5200   -7.38381
  0.5220   -7.33359
  0.5240   -7.27652
  0.5260   -7.23624
  0.5280   -7.21949
  0.5300   -7.21912
  0.5320   -7.23557
  0.5340   -7.25864
  0.5360   -7.26433
  0.5380   -7.27398
  0.5400   -7.27755
  0.5420   -7.27018
  0.5440   -7.24434
  0.5460   -7.21492
  0.5480   -7.16396
  0.5500   -7.09334
  0.5520   -7.01902
  0.5540   -6.93252
  0.5560   -6.84640
  0.5580   -6.76493
  0.5600   -6.69715
  0.5620   -6.62761
  0.5640   -6.56498
  0.5660   -6.50002
  0.5680   -6.42971
  0.5700   -6.35037
  0.5720   -6.24335
  0.5740   -6.12318
  0.5760   -5.97924
  0.5780   -5.81457
  0.5800   -5.63069
  0.5820   -5.44311
  0.5840   -5.26467
  0.5860   -5.09139
  0.5880   -4.94529
  0.5900   -4.81922
  0.5920   -4.70997
  0.5940   -4.61583
  0.5960   -4.52673
  0.5980   -4.43870
  0.6000   -4.34598
  0.6020   -4.24265
  0.6040   -4.13111
  0.6060   -4.01310
  0.6080   -3.89043
  0.6100   -3.77543
  0.6120   -3.66406
  0.6140   -3.57598
  0.6160   -3.51497
  0.6180   -3.47847
  0.6200   -3.45650
  0.6220   -3.44435
  0.6240   -3.42565
  0.6260   -3.40328
  0.6280   -3.36923
  0.6300   -3.31909
  0.6320   -3.25346
  0.6340   -3.18576
  0.6360   -3.12597
  0.6380   -3.08855
  0.6400   -3.07078
  0.6420   -3.06984
  0.6440   -3.07705
  0.6460   -3.08634
  0.6480   -3.08162
  0.6500   -3.07019
  0.6520   -3.04160
  0.6540   -3.00173
  0.6560   -2.94863
  0.6580   -2.88391
  0.6600   -2.81739
  0.6620   -2.75545
  0.6640   -2.69418
  0.6660   -2.63713
  0.6680   -2.59619
  0.6700   -2.56683
  0.6720   -2.54727
  0.6740   -2.53574
  0.6760   -2.53361
  0.6780   -2.52479
  0.6800   -2.50773
  0.6820   -2.46806
  0.6840   -2.40945
  0.6860   -2.33138
  0.6880   -2.24043
  0.6900   -2.14605
  0.6920   -2.05973
  0.6940   -1.99602
  0.6960   -1.94436
  0.6980   -1.90942
  0.7000   -1.88788
  0.7020   -1.87091
  0.7040   -1.85659
  0.7060   -1.84934
  0.7080   -1.83308
  0.7100   -1.81390
  0.7120   -1.78832
  0.7140   -1.75147
  0.7160   -1.70845
  0.7180   -1.65287
  0.7200   -1.59240
  0.7220   -1.53485
  0.7240   -1.48476
  0.7260   -1.45184
  0.7280   -1.43608
  0.7300   -1.43024
  0.7320   -1.44093
  0.7340   -1.44949
  0.7360   -1.44174
  0.7380   -1.42166
  0.7400   -1.38827
  0.7420   -1.34799
  0.7440   -1.30897
  0.7460   -1.26395
  0.7480   -1.22769
  0.7500   -1.20515
  0.7520   -1.18926
  0.7540   -1.17481
  0.7560   -1.15412
  0.7580   -1.12949
  0.7600   -1.09726
  0.7620   -1.05179
  0.7640   -1.00641
  0.7660   -0.96420
  0.7680   -0.92478
  0.7700   -0.90379
  0.7720   -0.89369
  0.7740   -0.89985
  0.7760   -0.91463
  0.7780   -0.94243
  0.7800   -0.96873
  0.7820   -0.99538
  0.7840   -1.01880
  0.7860   -1.02296
  0.7880   -1.02150
  0.7900   -1.00960
  0.7920   -0.99351
  0.7940   -0.97383
  0.7960   -0.95108
  0.7980   -0.92893
  0.8000   -0.91705
  0.8020   -0.91673
  0.8040   -0.91524
  0.8060   -0.91482
  0.8080   -0.91515
  0.8100   -0.91054
  0.8120   -0.90344
  0.8140   -0.90300
  0.8160   -0.89788
  0.8180   -0.90378
  0.8200   -0.90830
  0.8220   -0.90748
  0.8240   -0.89778
  0.8260   -0.86982
  0.8280   -0.82889
  0.8300   -0.78762
  0.8320   -0.73650
  0.8340   -0.69771
  0.8360   -0.67505
  0.8380   -0.67109
  0.8400   -0.68678
  0.8420   -0.71808
  0.8440   -0.74744
  0.8460   -0.78206
  0.8480   -0.81247
  0.8500   -0.82153
  0.8520   -0.81449
  0.8540   -0.80337
  0.8560   -0.77897
  0.8580   -0.75253
  0.8600   -0.72612
  0.8620   -0.70590
  0.8640   -0.68262
  0.8660   -0.66404
  0.8680   -0.65683
  0.8700   -0.65710
  0.8720   -0.64800
  0.8740   -0.63764
  0.8760   -0.62413
  0.8780   -0.60835
  0.8800   -0.58849
  0.8820   -0.56644
  0.8840   -0.53873
  0.8860   -0.50985
  0.8880   -0.47624
  0.8900   -0.43317
  0.8920   -0.38967
  0.8940   -0.33944
  0.8960   -0.30062
  0.8980   -0.26573
  0.9000   -0.23803
  0.9020   -0.22215
  0.9040   -0.21319
  0.9060   -0.21390
  0.9080   -0.21238
  0.9100   -0.21947
  0.9120   -0.22547
  0.9140   -0.21965
  0.9160   -0.22636
  0.9180   -0.22673
  0.9200   -0.22739
  0.9220   -0.21794
  0.9240   -0.19852
  0.9260   -0.18069
  0.9280   -0.15578
  0.9300   -0.13475
  0.9320   -0.11521
  0.9340   -0.10475
  0.9360   -0.09909
  0.9380   -0.09876
  0.9400   -0.09530
  0.9420   -0.08591
  0.9440   -0.06245
  0.9460   -0.03225
  0.9480    0.01527
  0.9500    0.07124
  0.9520    0.12227
  0.9540    0.16720
  0.9560    0.20559
  0.9580    0.22812
  0.9600    0.23778
  0.9620    0.23320
  0.9640    0.21503
  0.9660    0.18541
  0.9680    0.14577
  0.9700    0.11094
  0.9720    0.08141
  0.9740    0.06329
  0.9760    0.05977
  0.9780    0.07439
  0.9800    0.09872
  0.9820    0.13380
  0.9840    0.16848
  0.9860    0.19068
  0.9880    0.20264
  0.9900    0.20309
  0.9920    0.18178
  0.9940    0.14607
  0.9960    0.11169
  0.9980    0.07858
  1.0000    0.05589
