# z (nm)   (kJ/mol)
  0.2060  317.95476
  0.2080  314.43899
  0.2100  310.22831
  0.2120  306.56643
  0.2140  303.02316
  0.2160  299.71886
  0.2180  296.41969
  0.2200  293.06207
  0.2220  289.57673
  0.2240  285.95254
  0.2260  282.14317
  0.2280  278.11351
  0.2300  273.83027
  0.2320  269.24655
  0.2340  264.30241
  0.2360  258.93625
  0.2380  253.07494
  0.2400  246.64006
  0.2420  239.58942
  0.2440  231.91156
  0.2460  223.66620
  0.2480  214.94558
  0.2500  205.88897
  0.2520  196.69992
  0.2540  187.67678
  0.2560  179.03869
  0.2580  170.80764
  0.2600  162.93869
  0.2620  155.47838
  0.2640  148.51038
  0.2660  142.03550
  0.2680  135.95629
  0.2700  130.11127
  0.2720  124.39393
  0.2740  118.80311
  0.2760  113.39880
  0.2780  108.25739
  0.2800  103.42254
  0.2820   98.86434
  0.2840   94.47591
  0.2860   90.12572
  0.2880   85.78619
  0.2900   81.58256
  0.2920   77.77183
  0.2940   74.51117
  0.2960   71.69914
  0.2980   69.05359
  0.3000   66.32126
  0.3020   63.45449
  0.3040   60.60923
  0.3060   57.98087
  0.3080   55.68950
  0.3100   53.74417
  0.3120   52.08378
  0.3140   50.60526
  0.3160   49.20515
  0.3180   47.78665
  0.3200   46.29737
  0.3220   44.77431
  0.3240   43.32797
  0.3260   42.05365
  0.3280   41.02438
  0.3300   40.23682
  0.3320   39.64633
  0.3340   39.16877
  0.3360   38.71031
  0.3380   38.21324
  0.3400   37.66333
  0.3420   37.10895
  0.3440   36.58955
  0.3460   36.13597
  0.3480   35.77932
  0.3500   35.51094
  0.3520   35.33616
  0.3540   35.21664
  0.3560   35.09583
  0.3580   34.93862
  0.3600   34.74140
  0.3620   34.52433
  0.3640   34.30534
  0.3660   34.11868
  0.3680   33.96145
  0.3700   33.80959
  0.3720   33.62196
  0.3740   33.33955
  0.3760   32.94121
  0.3780   32.41275
  0.3800   31.76433
  0.3820   31.03219
  0.3840   30.23495
  0.3860   29.38335
  0.3880   28.48061
  0.3900   27.53115
  0.3920   26.55429
  0.3940   25.56926
  0.3960   24.59148
  0.3980   23.64234
  0.4000   22.72150
  0.4020   21.83825
  0.4040   20.99346
  0.4060   20.19186
  0.4080   19.44914
  0.4100   18.76638
  0.4120   18.15589
  0.4140   17.60829
  0.4160   17.10966
  0.4180   16.66256
  0.4200   16.24993
  0.4220   15.86823
  0.4240   15.51009
  0.4260   15.18077
  0.4280   14.86931
  0.4300   14.57666
  0.4320   14.29503
  0.4340   14.02641
  0.4360   13.76201
  0.4380   13.49540
  0.4400   13.22609
  0.4420   12.95988
  0.4440   12.69759
  0.4460   12.44754
  0.4480   12.21366
  0.4500   11.99502
  0.4520   11.78825
  0.4540   11.56253
  0.4560   11.33113
  0.4580   11.07565
  0.4600   10.80974
  0.4620   10.53938
  0.4640   10.28071
  0.4660   10.02870
  0.4680    9.78804
  0.4700    9.55572
  0.4720    9.31732
  0.4740    9.09349
  0.4760    8.87598
  0.4780    8.66521
  0.4800    8.44722
  0.4820    8.23082
  0.4840    8.01054
  0.4860    7.78307
  0.4880    7.55568
  0.4900    7.32445
  0.4920    7.09028
  0.4940    6.85315
  0.4960    6.62107
  0.4980    6.39466
  0.5000    6.18482
  0.5020    5.98235
  0.5040    5.79397
  0.5060    5.61325
  0.5080    5.44641
  0.5100    5.28495
  0.5120    5.11684
  0.5140    4.95773
  0.5160    4.80009
  0.5180    4.64148
  0.5200    4.49853
  0.5220    4.35554
  0.5240    4.22694
  0.5260    4.10373
  0.5280    3.98802
  0.5300    3.87669
  0.5320    3.77148
  0.5340    3.66752
  0.5360    3.56425
  0.5380    3.45157
  0.5400    3.34027
  0.5420    3.23044
  0.5440    3.12069
  0.5460    3.01422
  0.5480    2.91666
  0.5500    2.81560
  0.5520    2.72327
  0.5540    2.62466
  0.5560    2.53464
  0.5580    2.44670
  0.5600    2.36262
  0.5620    2.27598
  0.5640    2.18880
  0.5660    2.10796
  0.5680    2.02153
  0.5700    1.94065
  0.5720    1.85935
  0.5740    1.77442
  0.5760    1.68826
  0.5780    1.60440
  0.5800    1.52617
  0.5820    1.44507
  0.5840    1.37411
  0.5860    1.30812
  0.5880    1.25213
  0.5900    1.20588
  0.5920    1.16334
  0.5940    1.12902
  0.5960    1.10486
  0.5980    1.07740
  0.6000    1.05530
  0.6020    1.03300
  0.6040    1.00436
  0.6060    0.96926
  0.6080    0.93658
  0.6100    0.90083
  0.6120    0.85722
  0.6140    0.82611
  0.6160    0.79417
  0.6180    0.77513
  0.6200    0.76951
  0.6220    0.78243
  0.6240    0.81252
  0.6260    0.83565
  0.6280    0.86302
  0.6300    0.88714
  0.6320    0.90249
  0.6340    0.91126
  0.6360    0.90516
  0.6380    0.88087
  0.6400    0.84256
  0.6420    0.79349
  0.6440    0.75460
  0.6460    0.72504
  0.6480    0.70215
  0.6500    0.69055
  0.6520    0.69314
  0.6540    0.70187
  0.6560    0.71464
  0.6580    0.71714
  0.6600    0.71342
  0.6620    0.69229
  0.6640    0.67068
  0.6660    0.64285
  0.6680    0.61234
  0.6700    0.58366
  0.6720    0.54910
  0.6740    0.51887
  0.6760    0.48773
  0.6780    0.45746
  0.6800    0.43248
  0.6820    0.40904
  0.6840    0.38431
  0.6860    0.37030
  0.6880    0.35784
  0.6900    0.35339
  0.6920    0.35192
  0.6940    0.35193
  0.6960    0.34046
  0.6980    0.31287
  0.7000    0.28056
  0.7020    0.24423
  0.7040    0.18729
  0.7060    0.12071
  0.7080    0.06303
  0.7100    0.00816
  0.7120   -0.03661
  0.7140   -0.07393
  0.7160   -0.08980
  0.7180   -0.09149
  0.7200   -0.08936
  0.7220   -0.08212
  0.7240   -0.08395
  0.7260   -0.09700
  0.7280   -0.12509
  0.7300   -0.16836
  0.7320   -0.21701
  0.7340   -0.26561
  0.7360   -0.30847
  0.7380   -0.34555
  0.7400   -0.37587
  0.7420   -0.39017
  0.7440   -0.39642
  0.7460   -0.39449
  0.7480   -0.38915
  0.7500   -0.39885
  0.7520   -0.41039
  0.7540   -0.43325
  0.7560   -0.46559
  0.7580   -0.51715
  0.7600   -0.56288
  0.7620   -0.60755
  0.7640   -0.64278
  0.7660   -0.65980
  0.7680   -0.66254
  0.7700   -0.64439
  0.7720   -0.61493
  0.7740   -0.56855
  0.7760   -0.51883
  0.7780   -0.47566
  0.7800   -0.44564
  0.7820   -0.43156
  0.7840   -0.43831
  0.7860   -0.47131
  0.7880   -0.52925
  0.7900   -0.59487
  0.7920   -0.65734
  0.7940   -0.70804
  0.7960   -0.73481
  0.7980   -0.73322
  0.8000   -0.70325
  0.8020   -0.64832
  0.8040   -0.57883
  0.8060   -0.50695
  0.8080   -0.44339
  0.8100   -0.40384
  0.8120   -0.38423
  0.8140   -0.38863
  0.8160   -0.40957
  0.8180   -0.43923
  0.8200   -0.47371
  0.8220   -0.51255
  0.8240   -0.53425
  0.8260   -0.54684
  0.8280   -0.55124
  0.8300   -0.54096
  0.8320   -0.51178
  0.8340   -0.47642
  0.8360   -0.43930
  0.8380   -0.40507
  0.8400   -0.38482
  0.8420   -0.36344
  0.8440   -0.34972
  0.8460   -0.34485
  0.8480   -0.33752
  0.8500   -0.33426
  0.8520   -0.33390
  0.8540   -0.32960
  0.8560   -0.32200
  0.8580   -0.30625
  0.8600   -0.28760
  0.8620   -0.26177
  0.8640   -0.23671
  0.8660   -0.21201
  0.8680   -0.19109
  0.8700   -0.16207
  0.8720   -0.13918
  0.8740   -0.12125
  0.8760   -0.10452
  0.8780   -0.09134
  0.8800   -0.07456
  0.8820   -0.06301
  0.8840   -0.04785
  0.8860   -0.03529
  0.8880   -0.01747
  0.8900   -0.00233
  0.8920    0.01179
  0.8940    0.02764
  0.8960    0.04016
  0.8980    0.05875
  0.9000    0.07500
  0.9020    0.08778
  0.9040    0.09651
  0.9060    0.10408
  0.9080    0.11191
  0.9100    0.10649
  0.9120    0.09538
  0.9140    0.08507
  0.9160    0.07809
  0.9180    0.06395
  0.9200    0.05688
  0.9220    0.05485
  0.9240    0.05510
  0.9260    0.06386
  0.9280    0.07199
  0.9300    0.08372
  0.9320    0.09491
  0.9340    0.11051
  0.9360    0.12142
  0.9380    0.12640
  0.9400    0.12846
  0.9420    0.12809
  0.9440    0.12461
  0.9460    0.11223
  0.9480    0.10073
  0.9500    0.08549
  0.9520    0.07259
  0.9540    0.05307
  0.9560    0.03710
  0.9580    0.02064
  0.9600    0.00365
  0.9620   -0.00495
  0.9640   -0.01165
  0.9660   -0.01870
  0.9680   -0.01517
  0.9700   -0.00612
  0.9720    0.01709
  0.9740    0.02523
  0.9760    0.03950
  0.9780    0.04975
  0.9800    0.05579
  0.9820    0.05464
  0.9840    0.05317
  0.9860    0.04361
  0.9880    0.03535
  0.9900    0.03254
  0.9920    0.02781
  0.9940    0.02535
  0.9960    0.02047
  0.9980    0.02343
  1.0000    0.02357
  1.0020    0.02627
  1.0040    0.02672
  1.0060    0.02393
  1.0080    0.02150
  1.0100    0.01592
  1.0120    0.00866
  1.0140   -0.00001
  1.0160   -0.01128
  1.0180   -0.01716
  1.0200   -0.01881
  1.0220   -0.01633
  1.0240   -0.01697
  1.0260   -0.01335
  1.0280   -0.00584
  1.0300   -0.00138
  1.0320    0.00011
  1.0340    0.00164
  1.0360   -0.00045
  1.0380   -0.00435
  1.0400   -0.01415
  1.0420   -0.02568
  1.0440   -0.03722
  1.0460   -0.04695
  1.0480   -0.05947
  1.0500   -0.07080
  1.0520   -0.08598
  1.0540   -0.09467
  1.0560   -0.10051
  1.0580   -0.10079
  1.0600   -0.10145
  1.0620   -0.10053
  1.0640   -0.09689
  1.0660   -0.09174
  1.0680   -0.07909
  1.0700   -0.06388
  1.0720   -0.05004
  1.0740   -0.04231
  1.0760   -0.02604
  1.0780   -0.01308
  1.0800   -0.00350
  1.0820    0.00625
  1.0840    0.00489
  1.0860    0.00367
  1.0880    0.00314
  1.0900   -0.00690
  1.0920   -0.01182
  1.0940   -0.01639
  1.0960   -0.02850
  1.0980   -0.03684
  1.1000   -0.03957
  1.1020   -0.04733
  1.1040   -0.04638
  1.1060   -0.05299
  1.1080   -0.05533
  1.1100   -0.05935
  1.1120   -0.05639
  1.1140   -0.05881
  1.1160   -0.05756
  1.1180   -0.05562
  1.1200   -0.05104
  1.1220   -0.04433
  1.1240   -0.02813
  1.1260   -0.01225
  1.1280   -0.00298
  1.1300    0.00497
  1.1320    0.00722
  1.1340    0.00861
  1.1360    0.00313
  1.1380   -0.00522
  1.1400   -0.00759
  1.1420   -0.01285
  1.1440   -0.01300
  1.1460   -0.01188
  1.1480   -0.00820
  1.1500   -0.00675
  1.1520   -0.00665
  1.1540   -0.00666
  1.1560   -0.01228
  1.1580   -0.01716
  1.1600   -0.02131
  1.1620   -0.03090
  1.1640   -0.03728
  1.1660   -0.03734
  1.1680   -0.03271
  1.1700   -0.02619
  1.1720   -0.01363
  1.1740   -0.00274
  1.1760    0.00064
  1.1780   -0.00087
  1.1800   -0.00809
  1.1820   -0.01010
  1.1840   -0.01677
  1.1860   -0.02703
  1.1880   -0.03994
  1.1900   -0.05361
  1.1920   -0.07314
  1.1940   -0.09234
  1.1960   -0.10686
  1.1980   -0.12053
  1.2000   -0.13474
