# z (nm)   (kJ/mol)
  0.2080  312.49041
  0.2100  305.48954
  0.2120  301.42353
  0.2140  298.19907
  0.2160  294.80637
  0.2180  291.45275
  0.2200  288.00998
  0.2220  284.37795
  0.2240  280.53830
  0.2260  276.44328
  0.2280  272.01993
  0.2300  267.21096
  0.2320  261.94945
  0.2340  256.15269
  0.2360  249.73308
  0.2380  242.60696
  0.2400  234.70568
  0.2420  225.98906
  0.2440  216.48401
  0.2460  206.32971
  0.2480  195.78137
  0.2500  185.19003
  0.2520  174.90776
  0.2540  165.18031
  0.2560  156.09809
  0.2580  147.62166
  0.2600  139.65448
  0.2620  132.10785
  0.2640  124.91615
  0.2660  118.04343
  0.2680  111.47386
  0.2700  105.17243
  0.2720   99.07815
  0.2740   93.11872
  0.2760   87.23111
  0.2780   81.45107
  0.2800   75.92941
  0.2820   70.86827
  0.2840   66.40204
  0.2860   62.48299
  0.2880   58.93022
  0.2900   55.51969
  0.2920   52.11221
  0.2940   48.69459
  0.2960   45.33787
  0.2980   42.16039
  0.3000   39.26973
  0.3020   36.69744
  0.3040   34.41846
  0.3060   32.35241
  0.3080   30.41447
  0.3100   28.54977
  0.3120   26.74370
  0.3140   25.02419
  0.3160   23.42635
  0.3180   21.97336
  0.3200   20.67366
  0.3220   19.51065
  0.3240   18.45412
  0.3260   17.47706
  0.3280   16.55807
  0.3300   15.68470
  0.3320   14.85098
  0.3340   14.06552
  0.3360   13.35013
  0.3380   12.73179
  0.3400   12.22008
  0.3420   11.82469
  0.3440   11.55217
  0.3460   11.38899
  0.3480   11.32118
  0.3500   11.31178
  0.3520   11.35411
  0.3540   11.43685
  0.3560   11.60145
  0.3580   11.85444
  0.3600   12.19598
  0.3620   12.56471
  0.3640   12.89914
  0.3660   13.15911
  0.3680   13.38296
  0.3700   13.65191
  0.3720   14.03267
  0.3740   14.49960
  0.3760   14.99440
  0.3780   15.40744
  0.3800   15.73317
  0.3820   15.99167
  0.3840   16.22096
  0.3860   16.41161
  0.3880   16.52791
  0.3900   16.58024
  0.3920   16.59399
  0.3940   16.55002
  0.3960   16.42422
  0.3980   16.17949
  0.4000   15.75677
  0.4020   15.15619
  0.4040   14.39943
  0.4060   13.54333
  0.4080   12.62543
  0.4100   11.68918
  0.4120   10.77512
  0.4140    9.89592
  0.4160    9.05530
  0.4180    8.24794
  0.4200    7.46873
  0.4220    6.73272
  0.4240    6.03897
  0.4260    5.42406
  0.4280    4.89673
  0.4300    4.45389
  0.4320    4.08312
  0.4340    3.76923
  0.4360    3.49664
  0.4380    3.28116
  0.4400    3.10238
  0.4420    2.93630
  0.4440    2.78230
  0.4460    2.61834
  0.4480    2.45381
  0.4500    2.28536
  0.4520    2.13307
  0.4540    2.01495
  0.4560    1.93758
  0.4580    1.90912
  0.4600    1.93633
  0.4620    2.00342
  0.4640    2.09963
  0.4660    2.19297
  0.4680    2.28506
  0.4700    2.36707
  0.4720    2.44023
  0.4740    2.52649
  0.4760    2.62211
  0.4780    2.75005
  0.4800    2.91828
  0.4820    3.09352
  0.4840    3.27721
  0.4860    3.45829
  0.4880    3.61430
  0.4900    3.74894
  0.4920    3.86192
  0.4940    3.95125
  0.4960    4.01022
  0.4980    4.03853
  0.5000    4.03683
  0.5020    4.00418
  0.5040    3.93918
  0.5060    3.84690
  0.5080    3.74316
  0.5100    3.62575
  0.5120    3.48284
  0.5140    3.32940
  0.5160    3.15622
  0.5180    2.95121
  0.5200    2.73302
  0.5220    2.49379
  0.5240    2.24068
  0.5260    1.98440
  0.5280    1.72698
  0.5300    1.47216
  0.5320    1.22293
  0.5340    0.99346
  0.5360    0.76979
  0.5380    0.56184
  0.5400    0.36465
  0.5420    0.17094
  0.5440   -0.02860
  0.5460   -0.22590
  0.5480   -0.41689
  0.5500   -0.59831
  0.5520   -0.76847
  0.5540   -0.92691
  0.5560   -1.06946
  0.5580   -1.20247
  0.5600   -1.31450
  0.5620   -1.41725
  0.5640   -1.49644
  0.5660   -1.57509
  0.5680   -1.64726
  0.5700   -1.71455
  0.5720   -1.77283
  0.5740   -1.82856
  0.5760   -1.89054
  0.5780   -1.94295
  0.5800   -1.99181
  0.5820   -2.02844
  0.5840   -2.04940
  0.5860   -2.06441
  0.5880   -2.06519
  0.5900   -2.06031
  0.5920   -2.04503
  0.5940   -2.02065
  0.5960   -1.99801
  0.5980   -1.97516
  0.6000   -1.94145
  0.6020   -1.90408
  0.6040   -1.85960
  0.6060   -1.81359
  0.6080   -1.76764
  0.6100   -1.71946
  0.6120   -1.66166
  0.6140   -1.60818
  0.6160   -1.55172
  0.6180   -1.50318
  0.6200   -1.44591
  0.6220   -1.38924
  0.6240   -1.34180
  0.6260   -1.29777
  0.6280   -1.25714
  0.6300   -1.22025
  0.6320   -1.19013
  0.6340   -1.15521
  0.6360   -1.10787
  0.6380   -1.04924
  0.6400   -0.98269
  0.6420   -0.90439
  0.6440   -0.82721
  0.6460   -0.75760
  0.6480   -0.70052
  0.6500   -0.66073
  0.6520   -0.63690
  0.6540   -0.62492
  0.6560   -0.62781
  0.6580   -0.62333
  0.6600   -0.61091
  0.6620   -0.59303
  0.6640   -0.56603
  0.6660   -0.52509
  0.6680   -0.47068
  0.6700   -0.41105
  0.6720   -0.35329
  0.6740   -0.30292
  0.6760   -0.26421
  0.6780   -0.23567
  0.6800   -0.21706
  0.6820   -0.22894
  0.6840   -0.24671
  0.6860   -0.27114
  0.6880   -0.30277
  0.6900   -0.32409
  0.6920   -0.34240
  0.6940   -0.34467
  0.6960   -0.34062
  0.6980   -0.32312
  0.7000   -0.29822
  0.7020   -0.27010
  0.7040   -0.23800
  0.7060   -0.21573
  0.7080   -0.20760
  0.7100   -0.19528
  0.7120   -0.18979
  0.7140   -0.19415
  0.7160   -0.20352
  0.7180   -0.22045
  0.7200   -0.24173
  0.7220   -0.27218
  0.7240   -0.29784
  0.7260   -0.32594
  0.7280   -0.35803
  0.7300   -0.38786
  0.7320   -0.42154
  0.7340   -0.45497
  0.7360   -0.49310
  0.7380   -0.52619
  0.7400   -0.56175
  0.7420   -0.59868
  0.7440   -0.62762
  0.7460   -0.65544
  0.7480   -0.68509
  0.7500   -0.70104
  0.7520   -0.71825
  0.7540   -0.73281
  0.7560   -0.73848
  0.7580   -0.75152
  0.7600   -0.75987
  0.7620   -0.77058
  0.7640   -0.79208
  0.7660   -0.81569
  0.7680   -0.85138
  0.7700   -0.88880
  0.7720   -0.92577
  0.7740   -0.94878
  0.7760   -0.97604
  0.7780   -0.99180
  0.7800   -1.00417
  0.7820   -1.00744
  0.7840   -1.00177
  0.7860   -0.99806
  0.7880   -0.98904
  0.7900   -0.98170
  0.7920   -0.97652
  0.7940   -0.97536
  0.7960   -0.98773
  0.7980   -0.98949
  0.8000   -1.00325
  0.8020   -1.02088
  0.8040   -1.03751
  0.8060   -1.04655
  0.8080   -1.05037
  0.8100   -1.04621
  0.8120   -1.03735
  0.8140   -1.02657
  0.8160   -1.00830
  0.8180   -0.98993
  0.8200   -0.97483
  0.8220   -0.96101
  0.8240   -0.94740
  0.8260   -0.94238
  0.8280   -0.94410
  0.8300   -0.94549
  0.8320   -0.95142
  0.8340   -0.95966
  0.8360   -0.95263
  0.8380   -0.94908
  0.8400   -0.93855
  0.8420   -0.92173
  0.8440   -0.90622
  0.8460   -0.88498
  0.8480   -0.86567
  0.8500   -0.84671
  0.8520   -0.83701
  0.8540   -0.82693
  0.8560   -0.81406
  0.8580   -0.80164
  0.8600   -0.78962
  0.8620   -0.77701
  0.8640   -0.76215
  0.8660   -0.74398
  0.8680   -0.73018
  0.8700   -0.71477
  0.8720   -0.70484
  0.8740   -0.69186
  0.8760   -0.68338
  0.8780   -0.68112
  0.8800   -0.67826
  0.8820   -0.66437
  0.8840   -0.64688
  0.8860   -0.62896
  0.8880   -0.59799
  0.8900   -0.56296
  0.8920   -0.53068
  0.8940   -0.49045
  0.8960   -0.45185
  0.8980   -0.41037
  0.9000   -0.37137
  0.9020   -0.33823
  0.9040   -0.31796
  0.9060   -0.30018
  0.9080   -0.29640
  0.9100   -0.30098
  0.9120   -0.30828
  0.9140   -0.32163
  0.9160   -0.32677
  0.9180   -0.32962
  0.9200   -0.32784
  0.9220   -0.32015
  0.9240   -0.29894
  0.9260   -0.28040
  0.9280   -0.25104
  0.9300   -0.21561
  0.9320   -0.18888
  0.9340   -0.15819
  0.9360   -0.13181
  0.9380   -0.11338
  0.9400   -0.09892
  0.9420   -0.09906
  0.9440   -0.10172
  0.9460   -0.11072
  0.9480   -0.11720
  0.9500   -0.12172
  0.9520   -0.12645
  0.9540   -0.12447
  0.9560   -0.12309
  0.9580   -0.11728
  0.9600   -0.10856
  0.9620   -0.09826
  0.9640   -0.09441
  0.9660   -0.09250
  0.9680   -0.09159
  0.9700   -0.09077
  0.9720   -0.08835
  0.9740   -0.08385
  0.9760   -0.08141
  0.9780   -0.07869
  0.9800   -0.07352
  0.9820   -0.06966
  0.9840   -0.06375
  0.9860   -0.05901
  0.9880   -0.05955
  0.9900   -0.04653
  0.9920   -0.04538
  0.9940   -0.04121
  0.9960   -0.04047
  0.9980   -0.03571
  1.0000   -0.03374
  1.0020   -0.03758
  1.0040   -0.03922
  1.0060   -0.04465
  1.0080   -0.05042
  1.0100   -0.05737
  1.0120   -0.06537
  1.0140   -0.06984
  1.0160   -0.07451
  1.0180   -0.07963
  1.0200   -0.08202
  1.0220   -0.08567
  1.0240   -0.08555
  1.0260   -0.08986
  1.0280   -0.09914
  1.0300   -0.10529
  1.0320   -0.11161
  1.0340   -0.11874
  1.0360   -0.11758
  1.0380   -0.12012
  1.0400   -0.12264
  1.0420   -0.12254
  1.0440   -0.12502
  1.0460   -0.12101
  1.0480   -0.12068
  1.0500   -0.12392
  1.0520   -0.12669
  1.0540   -0.13159
  1.0560   -0.13285
  1.0580   -0.13415
  1.0600   -0.13171
  1.0620   -0.12335
  1.0640   -0.11650
  1.0660   -0.10928
  1.0680   -0.10068
  1.0700   -0.08009
  1.0720   -0.06252
  1.0740   -0.04082
  1.0760   -0.02485
  1.0780   -0.00622
  1.0800    0.01135
  1.0820    0.02770
  1.0840    0.04259
  1.0860    0.05341
  1.0880    0.05584
  1.0900    0.05403
  1.0920    0.04464
  1.0940    0.03523
  1.0960    0.02442
  1.0980    0.01227
  1.1000    0.01035
  1.1020    0.00651
  1.1040    0.01690
  1.1060    0.04067
  1.1080    0.05983
  1.1100    0.08538
  1.1120    0.10897
  1.1140    0.13213
  1.1160    0.15103
  1.1180    0.16302
  1.1200    0.17508
  1.1220    0.18007
  1.1240    0.18120
  1.1260    0.18897
  1.1280    0.19127
  1.1300    0.19634
  1.1320    0.19593
  1.1340    0.20374
  1.1360    0.21038
  1.1380    0.22068
  1.1400    0.23482
  1.1420    0.24405
  1.1440    0.25587
  1.1460    0.27332
  1.1480    0.28252
  1.1500    0.29342
  1.1520    0.29970
  1.1540    0.30763
  1.1560    0.31316
  1.1580    0.30796
  1.1600    0.29576
  1.1620    0.28447
  1.1640    0.26056
  1.1660    0.24144
  1.1680    0.22262
  1.1700    0.20636
  1.1720    0.19793
  1.1740    0.20007
  1.1760    0.20401
  1.1780    0.21490
  1.1800    0.22342
  1.1820    0.24126
  1.1840    0.25977
  1.1860    0.27612
  1.1880    0.29707
  1.1900    0.31160
  1.1920    0.31596
  1.1940    0.31452
  1.1960    0.30765
  1.1980    0.29277
  1.2000    0.27445
