# z (nm)   (kJ/mol)
  0.2360  318.97927
  0.2380  314.10376
  0.2400  310.70898
  0.2420  306.83048
  0.2440  303.13053
  0.2460  299.29881
  0.2480  295.43244
  0.2500  291.39685
  0.2520  287.16044
  0.2540  282.71819
  0.2560  278.04307
  0.2580  273.08434
  0.2600  267.83423
  0.2620  262.26715
  0.2640  256.36874
  0.2660  250.13955
  0.2680  243.57583
  0.2700  236.69489
  0.2720  229.52671
  0.2740  222.10364
  0.2760  214.47453
  0.2780  206.70694
  0.2800  198.87593
  0.2820  191.07086
  0.2840  183.39145
  0.2860  175.93167
  0.2880  168.77717
  0.2900  161.98128
  0.2920  155.55993
  0.2940  149.51199
  0.2960  143.82398
  0.2980  138.46985
  0.3000  133.42121
  0.3020  128.66659
  0.3040  124.20485
  0.3060  120.03157
  0.3080  116.13800
  0.3100  112.51426
  0.3120  109.13810
  0.3140  105.98391
  0.3160  103.01548
  0.3180  100.20300
  0.3200   97.50815
  0.3220   94.91324
  0.3240   92.40343
  0.3260   89.97098
  0.3280   87.62711
  0.3300   85.37083
  0.3320   83.22780
  0.3340   81.21212
  0.3360   79.33732
  0.3380   77.60404
  0.3400   75.98994
  0.3420   74.46358
  0.3440   72.98781
  0.3460   71.54669
  0.3480   70.13422
  0.3500   68.75086
  0.3520   67.40294
  0.3540   66.09583
  0.3560   64.84810
  0.3580   63.69357
  0.3600   62.65011
  0.3620   61.75115
  0.3640   60.95946
  0.3660   60.20411
  0.3680   59.38266
  0.3700   58.40318
  0.3720   57.31572
  0.3740   56.29464
  0.3760   55.51697
  0.3780   54.99768
  0.3800   54.59265
  0.3820   54.11280
  0.3840   53.48667
  0.3860   52.79625
  0.3880   52.09380
  0.3900   51.46369
  0.3920   50.92884
  0.3940   50.45384
  0.3960   49.99465
  0.3980   49.54962
  0.4000   49.08924
  0.4020   48.59543
  0.4040   48.07489
  0.4060   47.51189
  0.4080   46.89646
  0.4100   46.20577
  0.4120   45.44119
  0.4140   44.59041
  0.4160   43.66218
  0.4180   42.65776
  0.4200   41.59698
  0.4220   40.48171
  0.4240   39.31410
  0.4260   38.10521
  0.4280   36.86600
  0.4300   35.61880
  0.4320   34.38130
  0.4340   33.16913
  0.4360   32.00378
  0.4380   30.89018
  0.4400   29.83227
  0.4420   28.83346
  0.4440   27.89791
  0.4460   27.00800
  0.4480   26.15492
  0.4500   25.33879
  0.4520   24.54114
  0.4540   23.76900
  0.4560   23.02732
  0.4580   22.31260
  0.4600   21.63113
  0.4620   20.97891
  0.4640   20.34951
  0.4660   19.75031
  0.4680   19.17378
  0.4700   18.61885
  0.4720   18.08765
  0.4740   17.58514
  0.4760   17.10011
  0.4780   16.63568
  0.4800   16.18593
  0.4820   15.74567
  0.4840   15.31518
  0.4860   14.88346
  0.4880   14.46249
  0.4900   14.04915
  0.4920   13.65043
  0.4940   13.27496
  0.4960   12.92822
  0.4980   12.60684
  0.5000   12.31936
  0.5020   12.05566
  0.5040   11.81456
  0.5060   11.57719
  0.5080   11.33869
  0.5100   11.08573
  0.5120   10.81207
  0.5140   10.52512
  0.5160   10.22934
  0.5180    9.94105
  0.5200    9.66363
  0.5220    9.39853
  0.5240    9.14959
  0.5260    8.91800
  0.5280    8.70554
  0.5300    8.50988
  0.5320    8.32086
  0.5340    8.13598
  0.5360    7.96155
  0.5380    7.79264
  0.5400    7.62722
  0.5420    7.47089
  0.5440    7.30958
  0.5460    7.15074
  0.5480    6.99418
  0.5500    6.83600
  0.5520    6.68074
  0.5540    6.52738
  0.5560    6.37667
  0.5580    6.22881
  0.5600    6.09172
  0.5620    5.96183
  0.5640    5.84395
  0.5660    5.74236
  0.5680    5.65262
  0.5700    5.56049
  0.5720    5.47862
  0.5740    5.38655
  0.5760    5.28921
  0.5780    5.19755
  0.5800    5.10075
  0.5820    4.99403
  0.5840    4.88417
  0.5860    4.77459
  0.5880    4.66388
  0.5900    4.55503
  0.5920    4.44592
  0.5940    4.34450
  0.5960    4.23613
  0.5980    4.13181
  0.6000    4.01775
  0.6020    3.90031
  0.6040    3.77606
  0.6060    3.64526
  0.6080    3.51337
  0.6100    3.38150
  0.6120    3.24596
  0.6140    3.11866
  0.6160    3.00003
  0.6180    2.88056
  0.6200    2.77319
  0.6220    2.66674
  0.6240    2.56969
  0.6260    2.48651
  0.6280    2.39338
  0.6300    2.29633
  0.6320    2.19781
  0.6340    2.09640
  0.6360    1.99039
  0.6380    1.87504
  0.6400    1.76374
  0.6420    1.66113
  0.6440    1.56441
  0.6460    1.46954
  0.6480    1.37773
  0.6500    1.28782
  0.6520    1.20098
  0.6540    1.11477
  0.6560    1.02288
  0.6580    0.94397
  0.6600    0.87164
  0.6620    0.80356
  0.6640    0.75597
  0.6660    0.70555
  0.6680    0.66392
  0.6700    0.62622
  0.6720    0.58892
  0.6740    0.55499
  0.6760    0.51742
  0.6780    0.47603
  0.6800    0.42842
  0.6820    0.37429
  0.6840    0.31559
  0.6860    0.25501
  0.6880    0.19115
  0.6900    0.13329
  0.6920    0.08336
  0.6940    0.03466
  0.6960    0.00380
  0.6980   -0.01410
  0.7000   -0.01760
  0.7020   -0.01546
  0.7040    0.00012
  0.7060    0.00399
  0.7080    0.01188
  0.7100    0.00474
  0.7120   -0.00435
  0.7140   -0.02672
  0.7160   -0.05558
  0.7180   -0.09231
  0.7200   -0.13252
  0.7220   -0.17498
  0.7240   -0.20613
  0.7260   -0.22974
  0.7280   -0.23784
  0.7300   -0.23917
  0.7320   -0.23119
  0.7340   -0.21617
  0.7360   -0.19769
  0.7380   -0.17779
  0.7400   -0.16068
  0.7420   -0.14966
  0.7440   -0.14763
  0.7460   -0.14965
  0.7480   -0.15872
  0.7500   -0.17193
  0.7520   -0.18278
  0.7540   -0.19869
  0.7560   -0.21157
  0.7580   -0.22450
  0.7600   -0.23712
  0.7620   -0.24672
  0.7640   -0.26134
  0.7660   -0.27634
  0.7680   -0.28958
  0.7700   -0.29971
  0.7720   -0.30621
  0.7740   -0.31407
  0.7760   -0.31387
  0.7780   -0.31107
  0.7800   -0.30704
  0.7820   -0.29272
  0.7840   -0.28569
  0.7860   -0.27857
  0.7880   -0.27612
  0.7900   -0.28247
  0.7920   -0.29549
  0.7940   -0.31142
  0.7960   -0.34066
  0.7980   -0.37149
  0.8000   -0.41052
  0.8020   -0.44540
  0.8040   -0.48363
  0.8060   -0.50481
  0.8080   -0.52277
  0.8100   -0.53252
  0.8120   -0.52601
  0.8140   -0.50990
  0.8160   -0.48425
  0.8180   -0.45565
  0.8200   -0.41704
  0.8220   -0.38502
  0.8240   -0.35157
  0.8260   -0.32703
  0.8280   -0.31321
  0.8300   -0.30156
  0.8320   -0.29743
  0.8340   -0.30199
  0.8360   -0.31642
  0.8380   -0.33486
  0.8400   -0.35240
  0.8420   -0.38365
  0.8440   -0.40187
  0.8460   -0.41593
  0.8480   -0.41774
  0.8500   -0.41261
  0.8520   -0.40005
  0.8540   -0.38737
  0.8560   -0.36763
  0.8580   -0.34121
  0.8600   -0.30122
  0.8620   -0.26341
  0.8640   -0.23225
  0.8660   -0.20161
  0.8680   -0.17194
  0.8700   -0.14892
  0.8720   -0.13179
  0.8740   -0.11492
  0.8760   -0.10202
  0.8780   -0.08889
  0.8800   -0.08140
  0.8820   -0.08042
  0.8840   -0.07974
  0.8860   -0.08209
  0.8880   -0.07987
  0.8900   -0.07618
  0.8920   -0.07417
  0.8940   -0.07102
  0.8960   -0.06976
  0.8980   -0.06908
  0.9000   -0.06831
  0.9020   -0.06876
  0.9040   -0.06962
  0.9060   -0.06553
  0.9080   -0.06274
  0.9100   -0.06320
  0.9120   -0.06390
  0.9140   -0.06117
  0.9160   -0.06143
  0.9180   -0.04972
  0.9200   -0.03796
  0.9220   -0.02440
  0.9240   -0.00530
  0.9260    0.00842
  0.9280    0.01669
  0.9300    0.02255
  0.9320    0.02257
  0.9340    0.01955
  0.9360    0.01394
  0.9380   -0.00221
  0.9400   -0.02301
  0.9420   -0.04364
  0.9440   -0.05606
  0.9460   -0.06819
  0.9480   -0.07538
  0.9500   -0.07899
  0.9520   -0.08342
  0.9540   -0.07383
  0.9560   -0.06113
  0.9580   -0.04809
  0.9600   -0.02902
  0.9620   -0.00735
  0.9640    0.01446
  0.9660    0.03145
  0.9680    0.05008
  0.9700    0.06350
  0.9720    0.07385
  0.9740    0.07474
  0.9760    0.07145
  0.9780    0.06953
  0.9800    0.05931
  0.9820    0.04582
  0.9840    0.03057
  0.9860    0.01393
  0.9880    0.00145
  0.9900   -0.00541
  0.9920   -0.01332
  0.9940   -0.00262
  0.9960    0.00406
  0.9980    0.02413
  1.0000    0.04317
  1.0020    0.06357
  1.0040    0.07154
  1.0060    0.08376
  1.0080    0.09002
  1.0100    0.08539
  1.0120    0.08182
  1.0140    0.06848
  1.0160    0.05348
  1.0180    0.03230
  1.0200    0.00713
  1.0220   -0.01888
  1.0240   -0.03327
  1.0260   -0.04970
  1.0280   -0.06494
  1.0300   -0.06704
  1.0320   -0.06215
  1.0340   -0.04283
  1.0360   -0.02379
  1.0380    0.00024
  1.0400    0.02481
  1.0420    0.05346
  1.0440    0.07159
  1.0460    0.09060
  1.0480    0.09990
  1.0500    0.10351
  1.0520    0.10361
  1.0540    0.10059
  1.0560    0.08935
  1.0580    0.08085
  1.0600    0.05932
  1.0620    0.04154
  1.0640    0.02545
  1.0660    0.01172
  1.0680    0.01319
  1.0700    0.01038
  1.0720    0.01353
  1.0740    0.02000
  1.0760    0.03496
  1.0780    0.05006
  1.0800    0.06386
  1.0820    0.07645
  1.0840    0.08627
  1.0860    0.09182
  1.0880    0.09978
  1.0900    0.10249
  1.0920    0.10427
  1.0940    0.10380
  1.0960    0.09655
  1.0980    0.08990
  1.1000    0.08423
  1.1020    0.07518
  1.1040    0.06748
  1.1060    0.06191
  1.1080    0.05774
  1.1100    0.05485
  1.1120    0.05152
  1.1140    0.04353
  1.1160    0.03879
  1.1180    0.03488
  1.1200    0.02149
  1.1220    0.01232
  1.1240   -0.00163
  1.1260   -0.01483
  1.1280   -0.02645
  1.1300   -0.04368
  1.1320   -0.05855
  1.1340   -0.06967
  1.1360   -0.08133
  1.1380   -0.08929
  1.1400   -0.08857
  1.1420   -0.09555
  1.1440   -0.09781
  1.1460   -0.09235
  1.1480   -0.09606
  1.1500   -0.09368
  1.1520   -0.09674
  1.1540   -0.09277
  1.1560   -0.08757
  1.1580   -0.08227
  1.1600   -0.07683
  1.1620   -0.07078
  1.1640   -0.05980
  1.1660   -0.04893
  1.1680   -0.03551
  1.1700   -0.02765
  1.1720   -0.02022
  1.1740   -0.01148
  1.1760   -0.01424
  1.1780   -0.02213
  1.1800   -0.02599
  1.1820   -0.03465
  1.1840   -0.04688
  1.1860   -0.06286
  1.1880   -0.07087
  1.1900   -0.07647
  1.1920   -0.08077
  1.1940   -0.08098
  1.1960   -0.06858
  1.1980   -0.06205
  1.2000   -0.05604
