# z (nm)   (kJ/mol)
  0.1610    1.39700
  0.1630    1.23700
  0.1650    1.07200
  0.1670    0.90000
  0.1690    0.73300
  0.1710    0.56500
  0.1730    0.39400
  0.1750    0.22600
  0.1770    0.06300
  0.1790   -0.09500
  0.1810   -0.25300
  0.1830   -0.41000
  0.1850   -0.56400
  0.1870   -0.71400
  0.1890   -0.85900
  0.1910   -1.00200
  0.1930   -1.14000
  0.1950   -1.27300
  0.1970   -1.40400
  0.1990   -1.52900
  0.2010   -1.65100
  0.2030   -1.76800
  0.2050   -1.88200
  0.2070   -1.99000
  0.2090   -2.09300
  0.2110   -2.19200
  0.2130   -2.28600
  0.2150   -2.37600
  0.2170   -2.46100
  0.2190   -2.54200
  0.2210   -2.61800
  0.2230   -2.69000
  0.2250   -2.75700
  0.2270   -2.82000
  0.2290   -2.87900
  0.2310   -2.93400
  0.2330   -2.98400
  0.2350   -3.02900
  0.2370   -3.07100
  0.2390   -3.10800
  0.2410   -3.14100
  0.2430   -3.17100
  0.2450   -3.19600
  0.2470   -3.21900
  0.2490   -3.23700
  0.2510   -3.25200
  0.2530   -3.26400
  0.2550   -3.27300
  0.2570   -3.27800
  0.2590   -3.28100
  0.2610   -3.28200
  0.2630   -1.84400
  0.2650   -2.00200
  0.2670   -2.15400
  0.2690   -2.31100
  0.2710   -2.47700
  0.2730   -2.63300
  0.2750   -2.78100
  0.2770   -2.93100
  0.2790   -3.07000
  0.2810   -3.20900
  0.2830   -3.34500
  0.2850   -3.47900
  0.2870   -3.61300
  0.2890   -3.74300
  0.2910   -3.86900
  0.2930   -3.99200
  0.2950   -4.11000
  0.2970   -4.22400
  0.2990   -4.33500
  0.3010   -4.44100
  0.3030   -4.54200
  0.3050   -4.63700
  0.3070   -4.72700
  0.3090   -4.81400
  0.3110   -4.89500
  0.3130   -4.97000
  0.3150   -5.04100
  0.3170   -5.10600
  0.3190   -5.16600
  0.3210   -5.22200
  0.3230   -5.27300
  0.3250   -5.31800
  0.3270   -5.35800
  0.3290   -5.39200
  0.3310   -5.42100
  0.3330   -5.44500
  0.3350   -5.46300
  0.3370   -5.47600
  0.3390   -5.48500
  0.3410   -5.48900
  0.3430   -5.48800
  0.3450   -5.48300
  0.3470   -5.47300
  0.3490   -5.45900
  0.3510   -5.44000
  0.3530   -5.41800
  0.3550   -5.39100
  0.3570   -5.36100
  0.3590   -5.32700
  0.3610   -5.29100
  0.3630   -5.25100
  0.3650   -5.20900
  0.3670   -5.16300
  0.3690   -5.11500
  0.3710   -5.06500
  0.3730   -5.01300
  0.3750   -4.95800
  0.3770   -4.90200
  0.3790   -4.84400
  0.3810   -4.78500
  0.3830   -4.72300
  0.3850   -4.66200
  0.3870   -4.59900
  0.3890   -4.53600
  0.3910   -4.47300
  0.3930   -4.40800
  0.3950   -4.34400
  0.3970   -4.27900
  0.3990   -4.21500
  0.4010   -4.15100
  0.4030   -4.08600
  0.4050   -4.02200
  0.4070   -3.95800
  0.4090   -3.89500
  0.4110   -3.83300
  0.4130   -3.77100
  0.4150   -3.70900
  0.4170   -3.64900
  0.4190   -3.58900
  0.4210   -3.52900
  0.4230   -3.47100
  0.4250   -3.41300
  0.4270   -3.35600
  0.4290   -3.30000
  0.4310   -3.24500
  0.4330   -3.19100
  0.4350   -3.13800
  0.4370   -3.08500
  0.4390   -3.03400
  0.4410   -2.98400
  0.4430   -2.93400
  0.4450   -2.88600
  0.4470   -2.83800
  0.4490   -2.79200
  0.4510   -2.74700
  0.4530   -2.70200
  0.4550   -2.65900
  0.4570   -2.61700
  0.4590   -2.57600
  0.4610   -2.53600
  0.4630   -2.49800
  0.4650   -2.46000
  0.4670   -2.42400
  0.4690   -2.38900
  0.4710   -2.35500
  0.4730   -2.32200
  0.4750   -2.29100
  0.4770   -2.26000
  0.4790   -2.23100
  0.4810   -2.20300
  0.4830   -2.17600
  0.4850   -2.15100
  0.4870   -2.12600
  0.4890   -2.10300
  0.4910   -2.08100
  0.4930   -2.06000
  0.4950   -2.04000
  0.4970   -2.02100
  0.4990   -2.00400
  0.5010   -1.98700
  0.5030   -1.97200
  0.5050   -1.95700
  0.5070   -1.94300
  0.5090   -1.93100
  0.5110   -1.91900
  0.5130   -1.90800
  0.5150   -1.89700
  0.5170   -1.88800
  0.5190   -1.87900
  0.5210   -1.87000
  0.5230   -1.86300
  0.5250   -1.85600
  0.5270   -1.84900
  0.5290   -1.84300
  0.5310   -1.83800
  0.5330   -1.83300
  0.5350   -1.82800
  0.5370   -1.82300
  0.5390   -1.81900
  0.5410   -1.81500
  0.5430   -1.81100
  0.5450   -1.80700
  0.5470   -1.80400
  0.5490   -1.80000
  0.5510   -1.79700
  0.5530   -1.79400
  0.5550   -1.79100
  0.5570   -1.78900
  0.5590   -1.78600
  0.5610   -1.78300
  0.5630   -1.78000
  0.5650   -1.77800
  0.5670   -1.77500
  0.5690   -1.77300
  0.5710   -1.77100
  0.5730   -1.76900
  0.5750   -1.76700
  0.5770   -1.76600
  0.5790   -1.76400
  0.5810   -1.76300
  0.5830   -1.76100
  0.5850   -1.76000
  0.5870   -1.76000
  0.5890   -1.75900
  0.5910   -1.75900
  0.5930   -1.75900
  0.5950   -1.75900
  0.5970   -1.76000
  0.5990   -1.76100
  0.6010   -1.76200
  0.6030   -1.76300
  0.6050   -1.76500
  0.6070   -1.76700
  0.6090   -1.77000
  0.6110   -1.77200
  0.6130   -1.77500
  0.6150   -1.77800
  0.6170   -1.78100
  0.6190   -1.78400
  0.6210   -1.78800
  0.6230   -1.79100
  0.6250   -1.79500
  0.6270   -1.79900
  0.6290   -1.80300
  0.6310   -1.80700
  0.6330   -1.81100
  0.6350   -1.81500
  0.6370   -1.81900
  0.6390   -1.82300
  0.6410   -1.82600
  0.6430   -1.82900
  0.6450   -1.83200
  0.6470   -1.83500
  0.6490   -1.83700
  0.6510   -1.83900
  0.6530   -1.84000
  0.6550   -1.84100
  0.6570   -1.84100
  0.6590   -1.84100
  0.6610   -1.84000
  0.6630   -1.83800
  0.6650   -1.83500
  0.6670   -1.83100
  0.6690   -1.82700
  0.6710   -1.82200
  0.6730   -1.81700
  0.6750   -1.81000
  0.6770   -1.80300
  0.6790   -1.79400
  0.6810   -1.78500
  0.6830   -1.77500
  0.6850   -1.76400
  0.6870   -1.75200
  0.6890   -1.74000
  0.6910   -1.72600
  0.6930   -1.71200
  0.6950   -1.69700
  0.6970   -1.68100
  0.6990   -1.66400
  0.7010   -1.64600
  0.7030   -1.62800
  0.7050   -1.60900
  0.7070   -1.58900
  0.7090   -1.56800
  0.7110   -1.54700
  0.7130   -1.52500
  0.7150   -1.50300
  0.7170   -1.48000
  0.7190   -1.45600
  0.7210   -1.43300
  0.7230   -1.40800
  0.7250   -1.38400
  0.7270   -1.35900
  0.7290   -1.33400
  0.7310   -1.30800
  0.7330   -1.28300
  0.7350   -1.25700
  0.7370   -1.23100
  0.7390   -1.20500
  0.7410   -1.17900
  0.7430   -1.15300
  0.7450   -1.12800
  0.7470   -1.10200
  0.7490   -1.07600
  0.7510   -1.05100
  0.7530   -1.02500
  0.7550   -1.00100
  0.7570   -0.97600
  0.7590   -0.95100
  0.7610   -0.92700
  0.7630   -0.90300
  0.7650   -0.88000
  0.7670   -0.85600
  0.7690   -0.83400
  0.7710   -0.81200
  0.7730   -0.79000
  0.7750   -0.76800
  0.7770   -0.74700
  0.7790   -0.72700
  0.7810   -0.70600
  0.7830   -0.68700
  0.7850   -0.66800
  0.7870   -0.64900
  0.7890   -0.63100
  0.7910   -0.61300
  0.7930   -0.59600
  0.7950   -0.57900
  0.7970   -0.56300
  0.7990   -0.54700
  0.8010   -0.53100
  0.8030   -0.51600
  0.8050   -0.50100
  0.8070   -0.48700
  0.8090   -0.47400
  0.8110   -0.46000
  0.8130   -0.44700
  0.8150   -0.43400
  0.8170   -0.42200
  0.8190   -0.41000
  0.8210   -0.39800
  0.8230   -0.38700
  0.8250   -0.37600
  0.8270   -0.36600
  0.8290   -0.35500
  0.8310   -0.34500
  0.8330   -0.33500
  0.8350   -0.32600
  0.8370   -0.31600
  0.8390   -0.30700
  0.8410   -0.29800
  0.8430   -0.29000
  0.8450   -0.28200
  0.8470   -0.27400
  0.8490   -0.26600
  0.8510   -0.25800
  0.8530   -0.25100
  0.8550   -0.24400
  0.8570   -0.23700
  0.8590   -0.23000
  0.8610   -0.22400
  0.8630   -0.21700
  0.8650   -0.21100
  0.8670   -0.20600
  0.8690   -0.20000
  0.8710   -0.19500
  0.8730   -0.19000
  0.8750   -0.18500
  0.8770   -0.18100
  0.8790   -0.17600
  0.8810   -0.17200
  0.8830    2.32900
  0.8850    2.00300
  0.8870    1.83300
  0.8890    1.66900
  0.8910    1.50000
  0.8930    1.33500
  0.8950    1.17300
  0.8970    1.00600
  0.8990    0.83600
  0.9010    0.66900
  0.9030    0.50200
  0.9050    0.33900
  0.9070    0.17800
  0.9090    0.01800
  0.9110   -0.13900
  0.9130   -0.29500
  0.9150   -0.44800
  0.9170   -0.59600
  0.9190   -0.74000
  0.9210   -0.88200
  0.9230   -1.02000
  0.9250   -1.15200
  0.9270   -1.27900
  0.9290   -1.40300
  0.9310   -1.52300
  0.9330   -1.63800
  0.9350   -1.74800
  0.9370   -1.85300
  0.9390   -1.95200
  0.9410   -2.04600
  0.9430   -2.13700
  0.9450   -2.22200
  0.9470   -2.30300
  0.9490   -2.37900
  0.9510   -2.44900
  0.9530   -2.51500
  0.9550   -2.57600
  0.9570   -2.63200
  0.9590   -2.68300
  0.9610   -2.73000
  0.9630   -2.77100
  0.9650   -2.80800
  0.9670   -2.84100
  0.9690   -2.86900
  0.9710   -2.89200
  0.9730   -2.91100
  0.9750   -2.92600
  0.9770   -2.93600
  0.9790   -2.94200
  0.9810   -2.94500
  0.9830   -2.94300
  0.9850   -2.93800
  0.9870   -2.92900
  0.9890   -2.91700
  0.9910   -2.90100
  0.9930   -2.88300
  0.9950   -2.86200
  0.9970   -2.83900
  0.9990   -2.81200
  1.0010   -2.78400
  1.0030   -2.75300
  1.0050   -2.72100
  1.0070   -2.68600
  1.0090   -2.65100
  1.0110   -2.61500
  1.0130   -2.57700
  1.0150   -2.53900
  1.0170   -2.49900
  1.0190   -2.46000
  1.0210   -2.41900
  1.0230   -2.38000
  1.0250   -2.34000
  1.0270   -2.29900
  1.0290   -2.25900
  1.0310   -2.21900
  1.0330   -2.18000
  1.0350   -2.14100
  1.0370   -2.10300
  1.0390   -2.06600
  1.0410   -2.02900
  1.0430   -1.99400
  1.0450   -1.95900
  1.0470   -1.92500
  1.0490   -1.89100
  1.0510   -1.85900
  1.0530   -1.82700
  1.0550   -1.79700
  1.0570   -1.76800
  1.0590   -1.73900
  1.0610   -1.71100
  1.0630   -1.68400
  1.0650   -1.65800
  1.0670   -1.63300
  1.0690   -1.60900
  1.0710   -1.58500
  1.0730   -1.56200
  1.0750   -1.53900
  1.0770   -1.51700
  1.0790   -1.49600
  1.0810   -1.47500
  1.0830   -1.45500
  1.0850   -1.43500
  1.0870   -1.41500
  1.0890   -1.39500
  1.0910   -1.37600
  1.0930   -1.35700
  1.0950   -1.33800
  1.0970   -1.31900
  1.0990   -1.30000
  1.1010   -1.28100
  1.1030   -1.26200
  1.1050   -1.24300
  1.1070   -1.22500
  1.1090   -1.20600
  1.1110   -1.18700
  1.1130   -1.16700
  1.1150   -1.14800
  1.1170   -1.12900
  1.1190   -1.10900
  1.1210   -1.09000
  1.1230   -1.07000
  1.1250   -1.05000
  1.1270   -1.03000
  1.1290   -1.01000
  1.1310   -0.98900
  1.1330   -0.96900
  1.1350   -0.94800
  1.1370   -0.92800
  1.1390   -0.90700
  1.1410   -0.88700
  1.1430   -0.86700
  1.1450   -0.84600
  1.1470   -0.82600
  1.1490   -0.80500
  1.1510   -0.78500
  1.1530   -0.76500
  1.1550   -0.74600
  1.1570   -0.72600
  1.1590   -0.70700
  1.1610   -0.68800
  1.1630   -0.67000
  1.1650   -0.65200
  1.1670   -0.63400
  1.1690   -0.61700
  1.1710   -0.60100
  1.1730   -0.58500
  1.1750   -0.56900
  1.1770   -0.55500
  1.1790   -0.54100
  1.1810   -0.52800
  1.1830   -0.51500
  1.1850   -0.50300
  1.1870   -0.49200
  1.1890   -0.48200
  1.1910   -0.47300
  1.1930   -0.46400
  1.1950   -0.45700
  1.1970   -0.45100
  1.1990   -0.44500
  1.2010   -0.44100
  1.2030   -0.43700
  1.2050   -0.43500
  1.2070   -0.43300
  1.2090   -0.43300
  1.2110   -0.43300
  1.2130   -0.43500
  1.2150   -0.43700
  1.2170   -0.44000
  1.2190   -0.44500
  1.2210   -0.45000
  1.2230   -0.45700
  1.2250   -0.46400
  1.2270   -0.47200
  1.2290   -0.48000
  1.2310   -0.49000
  1.2330   -0.50000
  1.2350   -0.51200
  1.2370   -0.52400
  1.2390   -0.53600
  1.2410   -0.55000
  1.2430   -0.56400
  1.2450   -0.57800
  1.2470   -0.59300
  1.2490   -0.60800
  1.2510   -0.62300
  1.2530   -0.63900
  1.2550   -0.65600
  1.2570   -0.67200
  1.2590   -0.68900
  1.2610   -0.70600
  1.2630   -0.72300
  1.2650   -0.73900
  1.2670   -0.75600
  1.2690   -0.77300
  1.2710   -0.78900
  1.2730   -0.80500
  1.2750   -0.82100
  1.2770   -0.83700
  1.2790   -0.85200
  1.2810   -0.86700
  1.2830   -0.88100
  1.2850   -0.89400
  1.2870   -0.90700
  1.2890   -0.92000
  1.2910   -0.93100
  1.2930   -0.94300
  1.2950   -0.95300
  1.2970   -0.96300
  1.2990   -0.97100
  1.3010   -0.97900
  1.3030   -0.98600
  1.3050   -0.99300
  1.3070   -0.99800
  1.3090   -1.00300
  1.3110   -1.00700
  1.3130   -1.00900
  1.3150   -1.01100
  1.3170   -1.01200
  1.3190   -1.01300
  1.3210   -1.01200
  1.3230   -1.01000
  1.3250   -1.00800
  1.3270   -1.00500
  1.3290   -1.00100
  1.3310   -0.99600
  1.3330   -0.99000
  1.3350   -0.98400
  1.3370   -0.97700
  1.3390   -0.96900
  1.3410   -0.96000
  1.3430   -0.95100
  1.3450   -0.94200
  1.3470   -0.93100
  1.3490   -0.92000
  1.3510   -0.90900
  1.3530   -0.89800
  1.3550   -0.88500
  1.3570   -0.87300
  1.3590   -0.86000
  1.3610   -0.84600
  1.3630   -0.83200
  1.3650   -0.81900
  1.3670   -0.80400
  1.3690   -0.79000
  1.3710   -0.77500
  1.3730   -0.76000
  1.3750   -0.74500
  1.3770   -0.73000
  1.3790   -0.71500
  1.3810   -0.70000
  1.3830   -0.68400
  1.3850   -0.66900
  1.3870   -0.65400
  1.3890   -0.63900
  1.3910   -0.62400
  1.3930   -0.60900
  1.3950   -0.59400
  1.3970   -0.57900
  1.3990   -0.56400
