# z (nm)   (kJ/mol)
  0.1030   -0.70800
  0.1050   -0.93100
  0.1070   -1.14200
  0.1090   -1.35900
  0.1110   -1.57700
  0.1130   -1.79100
  0.1150   -2.00700
  0.1170   -2.22200
  0.1190   -2.43600
  0.1210   -2.64400
  0.1230   -2.85100
  0.1250   -3.05600
  0.1270   -3.25700
  0.1290   -3.45400
  0.1310   -3.64800
  0.1330   -3.83800
  0.1350   -4.02100
  0.1370   -4.19900
  0.1390   -4.37300
  0.1410   -4.54100
  0.1430   -4.70300
  0.1450   -4.86000
  0.1470   -5.01000
  0.1490   -5.15400
  0.1510   -5.29200
  0.1530   -5.42200
  0.1550   -5.54600
  0.1570   -5.66300
  0.1590   -5.77300
  0.1610   -5.87700
  0.1630   -5.97300
  0.1650   -6.06200
  0.1670   -6.14500
  0.1690   -6.22100
  0.1710   -6.29000
  0.1730   -6.35300
  0.1750   -6.40800
  0.1770   -6.45700
  0.1790   -6.49900
  0.1810   -6.53500
  0.1830   -6.56400
  0.1850   -6.58800
  0.1870   -6.60600
  0.1890   -6.61700
  0.1910   -6.62300
  0.1930   -6.62300
  0.1950   -6.61800
  0.1970   -6.61000
  0.1990   -6.59500
  0.2010   -6.57500
  0.2030   -6.55100
  0.2050   -6.52300
  0.2070   -6.49200
  0.2090   -6.45800
  0.2110   -6.42000
  0.2130   -6.37900
  0.2150   -6.33600
  0.2170   -6.29000
  0.2190   -6.24100
  0.2210   -6.19100
  0.2230   -6.13900
  0.2250   -6.08600
  0.2270   -6.03200
  0.2290   -5.97700
  0.2310   -5.92200
  0.2330   -5.86500
  0.2350   -5.80900
  0.2370   -5.75100
  0.2390   -5.69400
  0.2410   -5.63600
  0.2430   -5.57800
  0.2450   -5.51900
  0.2470   -5.46100
  0.2490   -5.40300
  0.2510   -5.34500
  0.2530   -5.28700
  0.2550   -5.23000
  0.2570   -5.17200
  0.2590   -5.11500
  0.2610   -5.05800
  0.2630   -5.00200
  0.2650   -4.94500
  0.2670   -4.88900
  0.2690   -4.83300
  0.2710   -4.77600
  0.2730   -4.72000
  0.2750   -4.66400
  0.2770   -4.60800
  0.2790   -4.55200
  0.2810   -4.49700
  0.2830   -4.44000
  0.2850   -4.38400
  0.2870   -4.32800
  0.2890   -4.27200
  0.2910   -4.21500
  0.2930   -4.15900
  0.2950   -4.10200
  0.2970   -4.04500
  0.2990   -3.98800
  0.3010   -3.93000
  0.3030   -3.87300
  0.3050   -3.81600
  0.3070   -3.75800
  0.3090   -3.70100
  0.3110   -3.64300
  0.3130   -3.58500
  0.3150   -3.52700
  0.3170   -3.46900
  0.3190   -3.41100
  0.3210   -3.35400
  0.3230   -3.29600
  0.3250   -3.23800
  0.3270   -3.18000
  0.3290   -3.12300
  0.3310   -3.06500
  0.3330   -3.00800
  0.3350   -2.95100
  0.3370   -2.89400
  0.3390   -2.83800
  0.3410   -2.78200
  0.3430   -2.72700
  0.3450   -2.67100
  0.3470   -2.61700
  0.3490   -2.56300
  0.3510   -2.50900
  0.3530   -2.45500
  0.3550   -2.40300
  0.3570   -2.35000
  0.3590   -2.29900
  0.3610   -2.24800
  0.3630   -2.19700
  0.3650   -2.14700
  0.3670   -2.09800
  0.3690   -2.04900
  0.3710   -2.00100
  0.3730   -1.95400
  0.3750   -1.90800
  0.3770   -1.86200
  0.3790   -1.81700
  0.3810   -1.77300
  0.3830   -1.72900
  0.3850   -1.68600
  0.3870   -1.64400
  0.3890   -1.60300
  0.3910   -1.56200
  0.3930   -1.52200
  0.3950   -1.48300
  0.3970   -1.44500
  0.3990   -1.40800
  0.4010   -1.37100
  0.4030   -1.33500
  0.4050   -1.30000
  0.4070   -1.26600
  0.4090   -1.23200
  0.4110   -1.20000
  0.4130   -1.16800
  0.4150   -1.13700
  0.4170   -1.10700
  0.4190   -1.07700
  0.4210   -1.04800
  0.4230   -1.02100
  0.4250   -0.99400
  0.4270   -0.96800
  0.4290   -0.94200
  0.4310   -0.91800
  0.4330   -0.89400
  0.4350   -0.87200
  0.4370   -0.85000
  0.4390   -0.82900
  0.4410   -0.80900
  0.4430   -0.72600
  0.4450   -0.94100
  0.4470   -1.16800
  0.4490   -1.39200
  0.4510   -1.61900
  0.4530   -1.85000
  0.4550   -2.07600
  0.4570   -2.30400
  0.4590   -2.53300
  0.4610   -2.75800
  0.4630   -2.98100
  0.4650   -3.20200
  0.4670   -3.41800
  0.4690   -3.63000
  0.4710   -3.83600
  0.4730   -4.03800
  0.4750   -4.23700
  0.4770   -4.43100
  0.4790   -4.61900
  0.4810   -4.80300
  0.4830   -4.98000
  0.4850   -5.15100
  0.4870   -5.31700
  0.4890   -5.47600
  0.4910   -5.62900
  0.4930   -5.77600
  0.4950   -5.91700
  0.4970   -6.05100
  0.4990   -6.17900
  0.5010   -6.30000
  0.5030   -6.41500
  0.5050   -6.52300
  0.5070   -6.62400
  0.5090   -6.71900
  0.5110   -6.80700
  0.5130   -6.88900
  0.5150   -6.96300
  0.5170   -7.03100
  0.5190   -7.09200
  0.5210   -7.14700
  0.5230   -7.19600
  0.5250   -7.23800
  0.5270   -7.27300
  0.5290   -7.30200
  0.5310   -7.32500
  0.5330   -7.34200
  0.5350   -7.35200
  0.5370   -7.35600
  0.5390   -7.35300
  0.5410   -7.34600
  0.5430   -7.33300
  0.5450   -7.31700
  0.5470   -7.29500
  0.5490   -7.26900
  0.5510   -7.23800
  0.5530   -7.20400
  0.5550   -7.16500
  0.5570   -7.12400
  0.5590   -7.08000
  0.5610   -7.03300
  0.5630   -6.98300
  0.5650   -6.93100
  0.5670   -6.87700
  0.5690   -6.82000
  0.5710   -6.76200
  0.5730   -6.70200
  0.5750   -6.64200
  0.5770   -6.58100
  0.5790   -6.51800
  0.5810   -6.45500
  0.5830   -6.39100
  0.5850   -6.32700
  0.5870   -6.26300
  0.5890   -6.19900
  0.5910   -6.13400
  0.5930   -6.07000
  0.5950   -6.00600
  0.5970   -5.94100
  0.5990   -5.87700
  0.6010   -5.81300
  0.6030   -5.75000
  0.6050   -5.68600
  0.6070   -5.62300
  0.6090   -5.56100
  0.6110   -5.49900
  0.6130   -4.37200
  0.6150   -4.50200
  0.6170   -4.66200
  0.6190   -4.81900
  0.6210   -4.97500
  0.6230   -5.13400
  0.6250   -5.29200
  0.6270   -5.45000
  0.6290   -5.61000
  0.6310   -5.76800
  0.6330   -5.92500
  0.6350   -6.08000
  0.6370   -6.23100
  0.6390   -6.38000
  0.6410   -6.52500
  0.6430   -6.66800
  0.6450   -6.80700
  0.6470   -6.94100
  0.6490   -7.07200
  0.6510   -7.19800
  0.6530   -7.31800
  0.6550   -7.43400
  0.6570   -7.54500
  0.6590   -7.65000
  0.6610   -7.75100
  0.6630   -7.84700
  0.6650   -7.93800
  0.6670   -8.02200
  0.6690   -8.10100
  0.6710   -8.17300
  0.6730   -8.23900
  0.6750   -8.30000
  0.6770   -8.35400
  0.6790   -8.40200
  0.6810   -8.44300
  0.6830   -8.47800
  0.6850   -8.50600
  0.6870   -8.52700
  0.6890   -8.54100
  0.6910   -8.54800
  0.6930   -8.54800
  0.6950   -8.54200
  0.6970   -8.53000
  0.6990   -8.51000
  0.7010   -8.48500
  0.7030   -8.45400
  0.7050   -8.41600
  0.7070   -8.37300
  0.7090   -8.32300
  0.7110   -8.26800
  0.7130   -8.20800
  0.7150   -8.14400
  0.7170   -8.07400
  0.7190   -8.00000
  0.7210   -7.92200
  0.7230   -7.84000
  0.7250   -7.75400
  0.7270   -7.66500
  0.7290   -7.57400
  0.7310   -7.47900
  0.7330   -7.38200
  0.7350   -7.28300
  0.7370   -7.18200
  0.7390   -7.08000
  0.7410   -6.97700
  0.7430   -6.87200
  0.7450   -6.76700
  0.7470   -6.66200
  0.7490   -6.55600
  0.7510   -6.45100
  0.7530   -6.34500
  0.7550   -6.24000
  0.7570   -6.13600
  0.7590   -6.03200
  0.7610   -5.93000
  0.7630   -5.82900
  0.7650   -5.73000
  0.7670   -5.63100
  0.7690   -5.53500
  0.7710   -5.44000
  0.7730   -5.34600
  0.7750   -5.25400
  0.7770   -5.16500
  0.7790   -5.07700
  0.7810   -4.99100
  0.7830   -4.90700
  0.7850   -4.82500
  0.7870   -4.74500
  0.7890   -4.66700
  0.7910   -4.59100
  0.7930   -4.51700
  0.7950   -4.44400
  0.7970   -4.37300
  0.7990   -4.30500
  0.8010   -4.23800
  0.8030   -4.17300
  0.8050   -4.10900
  0.8070   -4.04700
  0.8090   -3.98700
  0.8110   -3.92800
  0.8130   -3.87100
  0.8150   -3.81500
  0.8170   -3.76000
  0.8190   -3.70700
  0.8210   -3.65500
  0.8230   -3.60300
  0.8250   -3.55300
  0.8270   -3.50400
  0.8290   -3.45600
  0.8310   -3.40800
  0.8330   -3.36200
  0.8350   -3.31600
  0.8370   -3.27100
  0.8390   -3.22700
  0.8410   -3.18400
  0.8430   -3.14100
  0.8450   -3.09900
  0.8470   -3.05700
  0.8490   -3.01600
  0.8510   -2.97500
  0.8530   -2.93500
  0.8550   -2.89600
  0.8570   -2.85600
  0.8590   -2.81700
  0.8610   -2.77900
  0.8630   -2.74100
  0.8650   -2.70300
  0.8670   -2.66600
  0.8690   -2.62900
  0.8710   -2.59200
  0.8730   -2.55600
  0.8750   -2.52000
  0.8770   -2.48400
  0.8790   -2.44800
  0.8810   -2.41300
  0.8830   -2.37800
  0.8850   -2.34300
  0.8870   -2.30900
  0.8890   -2.27500
  0.8910   -2.24100
  0.8930   -2.20700
  0.8950   -2.17400
  0.8970   -2.14100
  0.8990   -2.10800
  0.9010   -2.07500
  0.9030   -2.04300
  0.9050   -2.01100
  0.9070   -1.98000
  0.9090   -1.94900
  0.9110   -1.91800
  0.9130   -1.88800
  0.9150   -1.85700
  0.9170   -1.82800
  0.9190   -1.79800
  0.9210   -1.76900
  0.9230   -1.74000
  0.9250   -1.71200
  0.9270   -1.68400
  0.9290   -1.65600
  0.9310   -1.62900
  0.9330   -1.60300
  0.9350   -1.57600
  0.9370   -1.55000
  0.9390   -1.52500
  0.9410   -1.50000
  0.9430   -1.47500
  0.9450   -1.45100
  0.9470   -1.42700
  0.9490   -1.40400
  0.9510   -1.38200
  0.9530   -1.35900
  0.9550   -1.33800
  0.9570   -1.31600
  0.9590   -1.29600
  0.9610   -1.27500
  0.9630   -1.25600
  0.9650   -1.23600
  0.9670   -1.21800
  0.9690   -1.19900
  0.9710   -1.18200
  0.9730   -1.16500
  0.9750   -1.14800
  0.9770   -1.13200
  0.9790   -1.11700
  0.9810   -1.10200
  0.9830   -1.08800
  0.9850   -1.07400
  0.9870   -1.06000
  0.9890   -1.04800
  0.9910   -1.03600
  0.9930   -1.02400
  0.9950   -1.01300
  0.9970   -1.00200
  0.9990   -0.99200
  1.0010   -0.98300
  1.0030   -0.97400
  1.0050   -0.96500
  1.0070   -0.95700
  1.0090   -0.94900
  1.0110   -0.94100
  1.0130   -0.93400
  1.0150   -0.92800
  1.0170   -0.92200
  1.0190   -0.91600
  1.0210   -0.91100
  1.0230   -0.90600
  1.0250   -0.90100
  1.0270   -0.89700
  1.0290   -0.89200
  1.0310   -0.88800
  1.0330   -0.88500
  1.0350   -0.88100
  1.0370   -0.87800
  1.0390   -0.87500
  1.0410   -0.87200
  1.0430   -0.86900
  1.0450   -0.86600
  1.0470   -0.86400
  1.0490   -0.86100
  1.0510   -0.85800
  1.0530   -0.85600
  1.0550   -0.85300
  1.0570   -0.85000
  1.0590   -0.84800
  1.0610   -0.84500
  1.0630   -0.84200
  1.0650   -0.83900
  1.0670   -0.83600
  1.0690   -0.83300
  1.0710   -0.83000
  1.0730   -0.82600
  1.0750   -0.82300
  1.0770   -0.81900
  1.0790   -0.81500
  1.0810   -0.81100
  1.0830   -0.80700
  1.0850   -0.80200
  1.0870   -0.79800
  1.0890   -0.79300
  1.0910   -0.78800
  1.0930   -0.78300
  1.0950   -0.77700
  1.0970   -0.77200
  1.0990   -0.76600
  1.1010   -0.76000
  1.1030   -0.75400
  1.1050   -0.74700
  1.1070   -0.74100
  1.1090   -0.73400
  1.1110   -0.72700
  1.1130   -0.72000
  1.1150   -0.71300
  1.1170   -0.70600
  1.1190   -0.69900
  1.1210   -0.69100
  1.1230   -0.68400
  1.1250   -0.67600
  1.1270   -0.66800
  1.1290   -0.66100
  1.1310   -0.65300
  1.1330   -0.64500
  1.1350   -0.63700
  1.1370   -0.62900
  1.1390   -0.62100
  1.1410   -0.61300
  1.1430   -0.60500
  1.1450   -0.59700
  1.1470   -0.58900
  1.1490   -0.58100
  1.1510   -0.57300
  1.1530   -0.56500
  1.1550   -0.55700
  1.1570   -0.55000
  1.1590   -0.54200
  1.1610   -0.53400
  1.1630   -0.52700
  1.1650   -0.51900
  1.1670   -0.51200
  1.1690   -0.50400
  1.1710   -0.49700
  1.1730   -0.48900
  1.1750   -0.48200
  1.1770   -0.47500
  1.1790   -0.46800
  1.1810   -0.46100
  1.1830   -0.45400
  1.1850   -0.44700
  1.1870   -0.44000
  1.1890   -0.43300
  1.1910   -0.42600
  1.1930   -0.41900
  1.1950   -0.41300
  1.1970   -0.40600
  1.1990   -0.40000
  1.2010   -0.39300
  1.2030   -0.38700
  1.2050   -0.38100
  1.2070   -0.37400
  1.2090   -0.36800
  1.2110   -0.36200
  1.2130   -0.35600
  1.2150   -0.35000
  1.2170   -0.34400
  1.2190   -0.33800
  1.2210   -0.33300
  1.2230   -0.32700
  1.2250   -0.32100
  1.2270   -0.31600
  1.2290   -0.31100
  1.2310   -0.30500
  1.2330   -0.30000
  1.2350   -0.29500
  1.2370   -0.29000
  1.2390   -0.28500
  1.2410   -0.28000
  1.2430   -0.27500
  1.2450   -0.27000
  1.2470   -0.26600
  1.2490   -0.26100
  1.2510   -0.25600
  1.2530   -0.25200
  1.2550   -0.24800
  1.2570   -0.24400
  1.2590   -0.24000
  1.2610   -0.23600
  1.2630   -0.23200
  1.2650   -0.22800
  1.2670   -0.22500
  1.2690   -0.22100
  1.2710   -0.21800
  1.2730   -0.21400
  1.2750   -0.21100
  1.2770   -0.20800
  1.2790   -0.20500
  1.2810   -0.20300
  1.2830   -0.20000
  1.2850   -0.19700
  1.2870   -0.19500
  1.2890   -0.19300
  1.2910   -0.19000
  1.2930   -0.18800
  1.2950   -0.18600
  1.2970   -0.18400
  1.2990   -0.18300
  1.3010   -0.18100
  1.3030   -0.17900
  1.3050   -0.17800
  1.3070   -0.17600
  1.3090   -0.17500
  1.3110   -0.17400
  1.3130   -0.17200
  1.3150   -0.17100
  1.3170   -0.17000
  1.3190   -0.16900
  1.3210   -0.16800
  1.3230   -0.16700
  1.3250   -0.16600
  1.3270   -0.16500
  1.3290   -0.16400
  1.3310   -0.16300
  1.3330   -0.16300
  1.3350   -0.16200
  1.3370   -0.16100
  1.3390   -0.16000
  1.3410   -0.15900
  1.3430   -0.15900
  1.3450   -0.15800
  1.3470   -0.15700
  1.3490   -0.15600
  1.3510   -0.15500
  1.3530   -0.15400
  1.3550   -0.15300
  1.3570   -0.15200
  1.3590   -0.15100
  1.3610   -0.15000
  1.3630   -0.14900
  1.3650   -0.14800
  1.3670   -0.14700
  1.3690   -0.14600
  1.3710   -0.14500
  1.3730   -0.14400
  1.3750   -0.14300
  1.3770   -0.14200
  1.3790   -0.14000
  1.3810   -0.13900
  1.3830   -0.13800
  1.3850   -0.13700
  1.3870   -0.13600
  1.3890   -0.13500
  1.3910   -0.13400
  1.3930   -0.13300
  1.3950   -0.13200
  1.3970   -0.13100
  1.3990   -0.13000
