# z (nm)   (kJ/mol)
  0.1150   -2.95300
  0.1170   -3.25100
  0.1190   -3.54100
  0.1210   -3.82500
  0.1230   -4.10400
  0.1250   -4.37800
  0.1270   -4.64800
  0.1290   -4.91400
  0.1310   -5.17500
  0.1330   -5.42900
  0.1350   -5.67700
  0.1370   -5.91800
  0.1390   -6.15100
  0.1410   -6.37600
  0.1430   -6.59400
  0.1450   -6.80300
  0.1470   -7.00400
  0.1490   -7.19600
  0.1510   -7.37900
  0.1530   -7.55200
  0.1550   -7.71600
  0.1570   -7.86900
  0.1590   -8.01200
  0.1610   -8.14500
  0.1630   -8.26800
  0.1650   -8.38100
  0.1670   -8.48400
  0.1690   -8.57600
  0.1710   -8.65800
  0.1730   -8.73000
  0.1750   -8.79200
  0.1770   -8.84300
  0.1790   -8.88500
  0.1810   -8.91700
  0.1830   -8.94000
  0.1850   -8.95300
  0.1870   -8.95800
  0.1890   -8.95400
  0.1910   -8.94100
  0.1930   -8.92000
  0.1950   -8.89200
  0.1970   -8.85500
  0.1990   -8.81300
  0.2010   -8.76400
  0.2030   -8.70900
  0.2050   -8.64800
  0.2070   -8.58200
  0.2090   -8.51200
  0.2110   -8.43800
  0.2130   -8.36000
  0.2150   -8.27800
  0.2170   -8.19400
  0.2190   -8.10500
  0.2210   -8.01500
  0.2230   -7.92400
  0.2250   -7.83100
  0.2270   -7.73700
  0.2290   -7.64300
  0.2310   -7.54800
  0.2330   -7.45300
  0.2350   -7.35800
  0.2370   -7.26300
  0.2390   -7.16900
  0.2410   -7.07600
  0.2430   -6.98400
  0.2450   -6.89300
  0.2470   -6.80300
  0.2490   -6.71500
  0.2510   -6.62700
  0.2530   -6.54100
  0.2550   -6.45700
  0.2570   -6.37400
  0.2590   -6.29300
  0.2610   -6.21400
  0.2630   -6.13500
  0.2650   -6.05900
  0.2670   -5.98400
  0.2690   -5.91000
  0.2710   -5.83800
  0.2730   -5.76700
  0.2750   -5.69800
  0.2770   -5.62900
  0.2790   -5.56200
  0.2810   -5.49600
  0.2830   -5.43100
  0.2850   -5.36700
  0.2870   -5.30400
  0.2890   -5.24300
  0.2910   -5.18100
  0.2930   -5.12100
  0.2950   -5.06200
  0.2970   -5.00300
  0.2990   -4.94500
  0.3010   -4.88700
  0.3030   -4.83000
  0.3050   -4.77400
  0.3070   -4.71800
  0.3090   -4.66200
  0.3110   -4.60800
  0.3130   -4.55300
  0.3150   -4.49900
  0.3170   -4.44500
  0.3190   -4.39200
  0.3210   -4.33900
  0.3230   -4.28700
  0.3250   -4.23500
  0.3270   -4.18300
  0.3290   -4.13200
  0.3310   -4.08100
  0.3330   -4.03000
  0.3350   -3.98000
  0.3370   -3.93000
  0.3390   -3.88100
  0.3410   -3.83200
  0.3430   -3.78300
  0.3450   -3.73500
  0.3470   -3.68700
  0.3490   -3.63900
  0.3510   -3.59200
  0.3530   -3.54500
  0.3550   -3.49800
  0.3570   -3.45200
  0.3590   -3.40600
  0.3610   -3.36000
  0.3630   -3.31400
  0.3650   -3.26900
  0.3670   -3.22400
  0.3690   -3.17900
  0.3710   -3.13400
  0.3730   -3.08900
  0.3750   -3.04500
  0.3770   -3.00100
  0.3790   -2.95600
  0.3810   -2.91200
  0.3830   -2.86800
  0.3850   -2.82400
  0.3870   -2.78000
  0.3890   -2.73600
  0.3910   -2.69200
  0.3930   -2.64900
  0.3950   -2.60500
  0.3970   -2.56100
  0.3990   -2.51700
  0.4010   -2.47400
  0.4030   -2.43000
  0.4050   -2.38600
  0.4070   -2.34300
  0.4090   -2.29900
  0.4110   -2.25500
  0.4130   -2.21100
  0.4150   -2.16800
  0.4170   -2.12400
  0.4190   -2.08100
  0.4210   -2.03700
  0.4230   -1.99400
  0.4250   -1.95000
  0.4270   -1.90700
  0.4290   -1.86400
  0.4310   -1.82100
  0.4330   -1.77900
  0.4350   -1.73600
  0.4370   -1.69400
  0.4390   -1.65200
  0.4410   -1.61000
  0.4430   -1.56900
  0.4450   -1.52800
  0.4470   -1.48700
  0.4490   -1.44700
  0.4510   -1.40700
  0.4530   -1.36700
  0.4550   -1.32800
  0.4570   -1.29000
  0.4590   -1.25200
  0.4610   -1.21400
  0.4630   -1.17800
  0.4650   -1.14200
  0.4670   -1.10600
  0.4690   -1.07200
  0.4710   -1.03800
  0.4730   -1.00500
  0.4750   -0.97300
  0.4770   -0.94200
  0.4790   -0.91100
  0.4810   -0.88200
  0.4830   -0.85400
  0.4850   -0.82700
  0.4870   -2.32600
  0.4890   -2.57400
  0.4910   -2.84400
  0.4930   -3.10800
  0.4950   -3.38300
  0.4970   -3.65700
  0.4990   -3.92900
  0.5010   -4.20200
  0.5030   -4.47000
  0.5050   -4.73300
  0.5070   -4.99700
  0.5090   -5.25700
  0.5110   -5.51100
  0.5130   -5.76200
  0.5150   -6.00700
  0.5170   -6.24800
  0.5190   -6.48200
  0.5210   -6.70600
  0.5230   -6.92400
  0.5250   -7.13400
  0.5270   -7.33600
  0.5290   -7.53000
  0.5310   -7.71600
  0.5330   -7.89400
  0.5350   -8.06500
  0.5370   -8.22700
  0.5390   -8.38000
  0.5410   -8.52200
  0.5430   -8.65600
  0.5450   -8.78100
  0.5470   -8.89500
  0.5490   -9.00100
  0.5510   -9.09700
  0.5530   -9.18300
  0.5550   -9.26000
  0.5570   -9.32700
  0.5590   -9.38400
  0.5610   -9.43300
  0.5630   -9.47100
  0.5650   -9.50100
  0.5670   -9.52200
  0.5690   -9.53300
  0.5710   -9.53600
  0.5730   -9.53200
  0.5750   -9.51900
  0.5770   -9.49900
  0.5790   -9.47200
  0.5810   -9.43800
  0.5830   -9.39800
  0.5850   -9.35100
  0.5870   -9.29900
  0.5890   -9.24200
  0.5910   -9.18000
  0.5930   -9.11400
  0.5950   -9.37600
  0.5970   -9.56700
  0.5990   -9.72800
  0.6010   -9.87800
  0.6030  -10.03100
  0.6050  -10.19100
  0.6070  -10.37100
  0.6090  -10.54300
  0.6110  -10.70300
  0.6130  -10.86000
  0.6150  -11.01700
  0.6170  -11.17200
  0.6190  -11.32100
  0.6210  -11.46600
  0.6230  -11.60800
  0.6250  -11.74500
  0.6270  -11.87900
  0.6290  -12.00800
  0.6310  -12.13300
  0.6330  -12.25300
  0.6350  -12.36700
  0.6370  -12.47600
  0.6390  -12.57800
  0.6410  -12.67700
  0.6430  -12.76900
  0.6450  -12.85400
  0.6470  -12.93400
  0.6490  -13.00700
  0.6510  -13.07300
  0.6530  -13.13200
  0.6550  -13.18400
  0.6570  -13.22800
  0.6590  -13.26400
  0.6610  -13.29400
  0.6630  -13.31500
  0.6650  -13.32900
  0.6670  -13.33500
  0.6690  -13.33400
  0.6710  -13.32400
  0.6730  -13.30700
  0.6750  -13.28200
  0.6770  -13.24900
  0.6790  -13.20900
  0.6810  -13.16200
  0.6830  -13.10700
  0.6850  -13.04500
  0.6870  -12.97600
  0.6890  -12.90000
  0.6910  -12.81900
  0.6930  -12.73100
  0.6950  -12.63800
  0.6970  -12.54000
  0.6990  -12.43500
  0.7010  -12.32600
  0.7030  -12.21300
  0.7050  -12.09600
  0.7070  -11.97600
  0.7090  -11.85300
  0.7110  -11.72600
  0.7130  -11.59600
  0.7150  -11.46500
  0.7170  -11.33300
  0.7190  -11.19800
  0.7210  -11.06300
  0.7230  -10.92600
  0.7250  -10.78900
  0.7270  -10.65100
  0.7290  -10.51400
  0.7310  -10.37700
  0.7330  -10.24100
  0.7350  -10.10600
  0.7370   -9.97200
  0.7390   -9.83800
  0.7410   -9.70600
  0.7430   -9.57500
  0.7450   -9.44500
  0.7470   -9.31700
  0.7490   -9.19100
  0.7510   -9.06600
  0.7530   -8.94300
  0.7550   -8.82200
  0.7570   -8.70200
  0.7590   -8.58500
  0.7610   -8.46800
  0.7630   -8.35400
  0.7650   -8.24100
  0.7670   -8.13000
  0.7690   -8.02000
  0.7710   -7.91200
  0.7730   -7.80600
  0.7750   -7.70000
  0.7770   -7.59600
  0.7790   -7.49400
  0.7810   -7.39200
  0.7830   -7.29200
  0.7850   -7.19300
  0.7870   -7.09400
  0.7890   -6.99700
  0.7910   -6.90000
  0.7930   -6.80500
  0.7950   -6.71000
  0.7970   -6.61600
  0.7990   -6.52300
  0.8010   -6.43000
  0.8030   -6.33800
  0.8050   -6.24700
  0.8070   -6.15600
  0.8090   -6.06600
  0.8110   -5.97600
  0.8130   -5.88700
  0.8150   -5.79800
  0.8170   -5.71000
  0.8190   -5.62300
  0.8210   -5.53600
  0.8230   -5.44900
  0.8250   -5.36400
  0.8270   -5.27800
  0.8290   -5.19300
  0.8310   -5.11000
  0.8330   -5.02700
  0.8350   -4.94400
  0.8370   -4.86300
  0.8390   -4.78100
  0.8410   -4.70100
  0.8430   -4.62200
  0.8450   -4.54300
  0.8470   -4.46500
  0.8490   -4.38800
  0.8510   -4.31100
  0.8530   -4.23600
  0.8550   -4.16200
  0.8570   -4.08800
  0.8590   -4.01500
  0.8610   -3.94400
  0.8630   -3.87300
  0.8650   -3.80400
  0.8670   -3.73500
  0.8690   -3.66800
  0.8710   -3.60200
  0.8730   -3.53600
  0.8750   -3.47200
  0.8770   -3.40900
  0.8790   -3.34700
  0.8810   -3.28600
  0.8830   -3.22600
  0.8850   -3.16800
  0.8870   -3.11000
  0.8890   -3.05400
  0.8910   -2.99800
  0.8930   -2.94400
  0.8950   -2.89100
  0.8970   -2.84000
  0.8990   -2.78900
  0.9010   -2.73900
  0.9030   -2.69000
  0.9050   -2.64300
  0.9070   -2.59600
  0.9090   -2.55000
  0.9110   -2.50600
  0.9130   -2.46200
  0.9150   -2.41900
  0.9170   -2.37800
  0.9190   -2.33700
  0.9210   -2.29700
  0.9230   -2.25800
  0.9250   -2.22000
  0.9270   -2.18300
  0.9290   -2.14700
  0.9310   -2.11200
  0.9330   -2.07700
  0.9350   -2.04400
  0.9370   -2.01100
  0.9390   -1.97900
  0.9410   -1.94900
  0.9430   -1.91800
  0.9450   -1.88900
  0.9470   -1.86100
  0.9490   -1.83300
  0.9510   -1.80600
  0.9530   -1.78000
  0.9550   -1.75500
  0.9570   -1.73000
  0.9590   -1.70600
  0.9610   -1.68300
  0.9630   -1.66100
  0.9650   -1.63900
  0.9670   -1.61800
  0.9690   -1.59800
  0.9710   -1.57800
  0.9730   -1.55900
  0.9750   -1.54100
  0.9770   -1.52400
  0.9790   -1.50700
  0.9810   -1.49000
  0.9830   -1.47500
  0.9850   -1.45900
  0.9870   -1.44500
  0.9890   -1.43100
  0.9910   -1.41700
  0.9930   -1.40400
  0.9950   -1.39200
  0.9970   -1.38000
  0.9990   -1.36900
  1.0010   -1.35800
  1.0030   -1.34700
  1.0050   -1.33800
  1.0070   -1.32800
  1.0090   -1.31900
  1.0110   -1.31000
  1.0130   -1.30100
  1.0150   -1.29300
  1.0170   -1.28500
  1.0190   -1.27700
  1.0210   -1.27000
  1.0230   -1.26300
  1.0250   -1.25600
  1.0270   -1.24900
  1.0290   -1.24300
  1.0310   -1.23600
  1.0330   -1.23000
  1.0350   -1.22400
  1.0370   -1.21800
  1.0390   -1.21200
  1.0410   -1.20500
  1.0430   -1.19900
  1.0450   -1.19300
  1.0470   -1.18700
  1.0490   -1.18200
  1.0510   -1.17600
  1.0530   -1.17000
  1.0550   -1.16300
  1.0570   -1.15700
  1.0590   -1.15100
  1.0610   -1.14400
  1.0630   -1.13800
  1.0650   -1.13100
  1.0670   -1.12400
  1.0690   -1.11700
  1.0710   -1.11100
  1.0730   -1.10400
  1.0750   -1.09600
  1.0770   -1.08900
  1.0790   -1.08100
  1.0810   -1.07400
  1.0830   -1.06600
  1.0850   -1.05800
  1.0870   -1.04900
  1.0890   -1.04100
  1.0910   -1.03200
  1.0930   -1.02400
  1.0950   -1.01500
  1.0970   -1.00600
  1.0990   -0.99700
  1.1010   -0.98700
  1.1030   -0.97800
  1.1050   -0.96800
  1.1070   -0.95800
  1.1090   -0.94800
  1.1110   -0.93800
  1.1130   -0.92800
  1.1150   -0.91800
  1.1170   -0.90800
  1.1190   -0.89700
  1.1210   -0.88600
  1.1230   -0.87600
  1.1250   -0.86500
  1.1270   -0.85400
  1.1290   -0.84400
  1.1310   -0.83300
  1.1330   -0.82200
  1.1350   -0.81100
  1.1370   -0.80000
  1.1390   -0.78900
  1.1410   -0.77700
  1.1430   -0.76600
  1.1450   -0.75500
  1.1470   -0.74400
  1.1490   -0.73300
  1.1510   -0.72200
  1.1530   -0.71100
  1.1550   -0.70000
  1.1570   -0.68900
  1.1590   -0.67800
  1.1610   -0.66700
  1.1630   -0.65600
  1.1650   -0.64600
  1.1670   -0.63500
  1.1690   -0.62400
  1.1710   -0.61400
  1.1730   -0.60300
  1.1750   -0.59300
  1.1770   -0.58200
  1.1790   -0.57200
  1.1810   -0.56200
  1.1830   -0.55200
  1.1850   -0.54200
  1.1870   -0.53200
  1.1890   -0.52300
  1.1910   -0.51300
  1.1930   -0.50400
  1.1950   -0.49400
  1.1970   -0.48500
  1.1990   -0.47600
  1.2010   -0.46700
  1.2030   -0.45800
  1.2050   -0.45000
  1.2070   -0.44100
  1.2090   -0.43300
  1.2110   -0.42500
  1.2130   -0.41700
  1.2150   -0.40900
  1.2170   -0.40100
  1.2190   -0.39300
  1.2210   -0.38600
  1.2230   -0.37800
  1.2250   -0.37100
  1.2270   -0.36400
  1.2290   -0.35700
  1.2310   -0.35000
  1.2330   -0.34300
  1.2350   -0.33600
  1.2370   -0.33000
  1.2390   -0.32300
  1.2410   -0.31700
  1.2430   -0.31100
  1.2450   -0.30500
  1.2470   -0.29900
  1.2490   -0.29400
  1.2510   -0.28800
  1.2530   -0.28300
  1.2550   -0.27800
  1.2570   -0.27300
  1.2590   -0.26800
  1.2610   -0.26300
  1.2630   -0.25800
  1.2650   -0.25400
  1.2670   -0.25000
  1.2690   -0.24600
  1.2710   -0.24200
  1.2730   -0.23800
  1.2750   -0.23400
  1.2770   -0.23100
  1.2790   -0.22800
  1.2810   -0.22500
  1.2830   -0.22200
  1.2850   -0.21900
  1.2870   -0.21600
  1.2890   -0.21300
  1.2910   -0.21100
  1.2930   -0.20900
  1.2950   -0.20700
  1.2970   -0.20500
  1.2990   -0.20300
  1.3010   -0.20100
  1.3030   -0.19900
  1.3050   -0.19800
  1.3070   -0.19700
  1.3090   -0.19500
  1.3110   -0.19400
  1.3130   -0.19300
  1.3150   -0.19200
  1.3170   -0.19100
  1.3190   -0.19000
  1.3210   -0.18900
  1.3230   -0.18900
  1.3250   -0.18800
  1.3270   -0.18700
  1.3290   -0.18700
  1.3310   -0.18600
  1.3330   -0.18600
  1.3350   -0.18500
  1.3370   -0.18400
  1.3390   -0.18400
  1.3410   -0.18300
  1.3430   -0.18200
  1.3450   -0.18200
  1.3470   -0.18100
  1.3490   -0.18000
  1.3510   -0.17900
  1.3530   -0.17800
  1.3550   -0.17700
  1.3570   -0.17600
  1.3590   -0.17500
  1.3610   -0.17400
  1.3630   -0.17300
  1.3650   -0.17100
  1.3670   -0.17000
  1.3690   -0.16900
  1.3710   -0.16700
  1.3730   -0.16600
  1.3750   -0.16400
  1.3770   -0.16200
  1.3790   -0.16100
  1.3810   -0.15900
  1.3830   -0.15700
  1.3850   -0.15500
  1.3870   -0.15300
  1.3890   -0.15100
  1.3910   -0.14900
  1.3930   -0.14800
  1.3950   -0.14600
  1.3970   -0.14400
  1.3990   -0.14200
