# z (nm)   (kJ/mol)
  0.1430    0.72500
  0.1450    0.48800
  0.1470    0.25600
  0.1490    0.03500
  0.1510   -0.18100
  0.1530   -0.40400
  0.1550   -0.62300
  0.1570   -0.84000
  0.1590   -1.05900
  0.1610   -1.27500
  0.1630   -1.49200
  0.1650   -1.70600
  0.1670   -1.91600
  0.1690   -2.12200
  0.1710   -2.32100
  0.1730   -2.51500
  0.1750   -2.70500
  0.1770   -2.89300
  0.1790   -3.07500
  0.1810   -3.25100
  0.1830   -3.41900
  0.1850   -3.58100
  0.1870   -3.73700
  0.1890   -3.88600
  0.1910   -4.03000
  0.1930   -4.16700
  0.1950   -4.29700
  0.1970   -4.42200
  0.1990   -4.54100
  0.2010   -4.65300
  0.2030   -4.75800
  0.2050   -4.85700
  0.2070   -4.94800
  0.2090   -5.03300
  0.2110   -5.11200
  0.2130   -5.18500
  0.2150   -5.25100
  0.2170   -5.31100
  0.2190   -5.36400
  0.2210   -5.41100
  0.2230   -5.45200
  0.2250   -5.48700
  0.2270   -5.51600
  0.2290   -5.53900
  0.2310   -5.55700
  0.2330   -5.57000
  0.2350   -5.57600
  0.2370   -5.57900
  0.2390   -5.57700
  0.2410   -5.56900
  0.2430   -5.55800
  0.2450   -5.54200
  0.2470   -5.52300
  0.2490   -5.49900
  0.2510   -5.47300
  0.2530   -5.44500
  0.2550   -5.41400
  0.2570   -5.37800
  0.2590   -5.34100
  0.2610   -5.30200
  0.2630   -5.26300
  0.2650   -5.22100
  0.2670   -5.17700
  0.2690   -5.13200
  0.2710   -5.08600
  0.2730   -5.04000
  0.2750   -4.99300
  0.2770   -4.94600
  0.2790   -4.89800
  0.2810   -4.85100
  0.2830   -4.80300
  0.2850   -4.75600
  0.2870   -4.70900
  0.2890   -4.66300
  0.2910   -4.61700
  0.2930   -4.57100
  0.2950   -4.52600
  0.2970   -4.48100
  0.2990   -4.43600
  0.3010   -4.39200
  0.3030   -4.34900
  0.3050   -4.30600
  0.3070   -4.26400
  0.3090   -4.22200
  0.3110   -4.18000
  0.3130   -4.13900
  0.3150   -4.09900
  0.3170   -4.05900
  0.3190   -4.01900
  0.3210   -3.98000
  0.3230   -3.94100
  0.3250   -3.90200
  0.3270   -3.86400
  0.3290   -3.82500
  0.3310   -3.78700
  0.3330   -3.74900
  0.3350   -3.71100
  0.3370   -3.67400
  0.3390   -3.63600
  0.3410   -3.59800
  0.3430   -3.56000
  0.3450   -3.52200
  0.3470   -3.48400
  0.3490   -3.44600
  0.3510   -3.40800
  0.3530   -3.36900
  0.3550   -3.33100
  0.3570   -3.29200
  0.3590   -3.25400
  0.3610   -3.21500
  0.3630   -3.17600
  0.3650   -3.13700
  0.3670   -3.09800
  0.3690   -3.05800
  0.3710   -3.01900
  0.3730   -2.97900
  0.3750   -2.93900
  0.3770   -2.89900
  0.3790   -2.85900
  0.3810   -2.81900
  0.3830   -2.77900
  0.3850   -2.73800
  0.3870   -2.69800
  0.3890   -2.65800
  0.3910   -2.61700
  0.3930   -2.57700
  0.3950   -2.53600
  0.3970   -2.49500
  0.3990   -2.45500
  0.4010   -2.41400
  0.4030   -2.37400
  0.4050   -2.33300
  0.4070   -2.29200
  0.4090   -2.25200
  0.4110   -2.21100
  0.4130   -2.17100
  0.4150   -2.13000
  0.4170   -2.09000
  0.4190   -2.05000
  0.4210   -2.01000
  0.4230   -1.97000
  0.4250   -1.93000
  0.4270   -1.89000
  0.4290   -1.85100
  0.4310   -1.81100
  0.4330   -1.77300
  0.4350   -1.73400
  0.4370   -1.69500
  0.4390   -1.65700
  0.4410   -1.61900
  0.4430   -1.58100
  0.4450   -1.54400
  0.4470   -1.50800
  0.4490   -1.47200
  0.4510   -1.43700
  0.4530   -1.40200
  0.4550   -1.36700
  0.4570   -1.33300
  0.4590   -1.30000
  0.4610   -1.26800
  0.4630   -1.23600
  0.4650   -1.20500
  0.4670   -0.06800
  0.4690   -0.25500
  0.4710   -0.43400
  0.4730   -0.61000
  0.4750   -0.79200
  0.4770   -0.96900
  0.4790   -1.14300
  0.4810   -1.32100
  0.4830   -1.49800
  0.4850   -1.67500
  0.4870   -1.85200
  0.4890   -2.02900
  0.4910   -2.20500
  0.4930   -2.37800
  0.4950   -2.55000
  0.4970   -2.71700
  0.4990   -2.88100
  0.5010   -3.04000
  0.5030   -3.19500
  0.5050   -3.34800
  0.5070   -3.49800
  0.5090   -3.64400
  0.5110   -3.78600
  0.5130   -3.92300
  0.5150   -4.05700
  0.5170   -4.18600
  0.5190   -4.31100
  0.5210   -4.43000
  0.5230   -4.54500
  0.5250   -4.65500
  0.5270   -4.76100
  0.5290   -4.86000
  0.5310   -4.95600
  0.5330   -5.04700
  0.5350   -5.13200
  0.5370   -5.21200
  0.5390   -5.28700
  0.5410   -5.35600
  0.5430   -5.42100
  0.5450   -5.48100
  0.5470   -5.53500
  0.5490   -5.58500
  0.5510   -5.62900
  0.5530   -5.66800
  0.5550   -5.70200
  0.5570   -5.73200
  0.5590   -5.75700
  0.5610   -5.77800
  0.5630   -5.79400
  0.5650   -5.80500
  0.5670   -5.81200
  0.5690   -5.81400
  0.5710   -5.81300
  0.5730   -5.80700
  0.5750   -5.79700
  0.5770   -5.78500
  0.5790   -5.76900
  0.5810   -5.75000
  0.5830   -5.72800
  0.5850   -5.70300
  0.5870   -5.67600
  0.5890   -5.64700
  0.5910   -5.61500
  0.5930   -5.58100
  0.5950   -5.54500
  0.5970   -5.50700
  0.5990   -5.46800
  0.6010   -5.42800
  0.6030   -5.38700
  0.6050   -5.34400
  0.6070   -5.30100
  0.6090   -5.25800
  0.6110   -5.21400
  0.6130   -5.16900
  0.6150   -5.12400
  0.6170   -5.07800
  0.6190   -5.03300
  0.6210   -4.98700
  0.6230   -4.94100
  0.6250   -4.89500
  0.6270   -4.84900
  0.6290   -4.80300
  0.6310   -4.75600
  0.6330   -4.71000
  0.6350   -4.66400
  0.6370   -4.61800
  0.6390   -4.57100
  0.6410   -4.52500
  0.6430   -4.47900
  0.6450   -4.43300
  0.6470   -4.38800
  0.6490   -4.34200
  0.6510   -4.29600
  0.6530   -4.25000
  0.6550   -4.20400
  0.6570   -4.15800
  0.6590   -4.11200
  0.6610   -4.06600
  0.6630   -4.01900
  0.6650   -3.97200
  0.6670   -3.92500
  0.6690   -3.87900
  0.6710   -3.83100
  0.6730   -3.78400
  0.6750   -3.73700
  0.6770   -3.68900
  0.6790   -3.64100
  0.6810   -2.66700
  0.6830   -2.84800
  0.6850   -3.02800
  0.6870   -3.20200
  0.6890   -3.37900
  0.6910   -3.55000
  0.6930   -3.72200
  0.6950   -3.89100
  0.6970   -4.05800
  0.6990   -4.22900
  0.7010   -4.39700
  0.7030   -4.56100
  0.7050   -4.72300
  0.7070   -4.88200
  0.7090   -5.03600
  0.7110   -5.18800
  0.7130   -5.33600
  0.7150   -5.47800
  0.7170   -5.61600
  0.7190   -5.74900
  0.7210   -5.87500
  0.7230   -5.99600
  0.7250   -6.11000
  0.7270   -6.21700
  0.7290   -6.32000
  0.7310   -6.41600
  0.7330   -6.50600
  0.7350   -6.58900
  0.7370   -6.66800
  0.7390   -6.74000
  0.7410   -6.80500
  0.7430   -6.86600
  0.7450   -6.92000
  0.7470   -6.96800
  0.7490   -7.01000
  0.7510   -7.04600
  0.7530   -7.07600
  0.7550   -7.10200
  0.7570   -7.12200
  0.7590   -7.13500
  0.7610   -7.14300
  0.7630   -7.14500
  0.7650   -7.14200
  0.7670   -7.13400
  0.7690   -7.12000
  0.7710   -7.10300
  0.7730   -7.08100
  0.7750   -7.05400
  0.7770   -7.02200
  0.7790   -6.98600
  0.7810   -6.94600
  0.7830   -6.90300
  0.7850   -6.85700
  0.7870   -6.80700
  0.7890   -6.75400
  0.7910   -6.69900
  0.7930   -6.64100
  0.7950   -6.58200
  0.7970   -6.52100
  0.7990   -6.45900
  0.8010   -6.39500
  0.8030   -6.32900
  0.8050   -6.26200
  0.8070   -6.19600
  0.8090   -6.12800
  0.8110   -6.06000
  0.8130   -5.99300
  0.8150   -5.92600
  0.8170   -5.85900
  0.8190   -5.79200
  0.8210   -5.72600
  0.8230   -5.66100
  0.8250   -5.59600
  0.8270   -5.53200
  0.8290   -5.46900
  0.8310   -5.40800
  0.8330   -5.34700
  0.8350   -5.28800
  0.8370   -5.23000
  0.8390   -5.17300
  0.8410   -5.11700
  0.8430   -5.06300
  0.8450   -5.00900
  0.8470   -4.95600
  0.8490   -4.90500
  0.8510   -4.85500
  0.8530   -4.80600
  0.8550   -4.75800
  0.8570   -4.71100
  0.8590   -4.66400
  0.8610   -4.62000
  0.8630   -4.57500
  0.8650   -4.53200
  0.8670   -4.48900
  0.8690   -4.44700
  0.8710   -4.40500
  0.8730   -4.36400
  0.8750   -4.32400
  0.8770   -4.28400
  0.8790   -4.24400
  0.8810   -4.20500
  0.8830   -4.16600
  0.8850   -4.12800
  0.8870   -4.08900
  0.8890   -4.05100
  0.8910   -4.01300
  0.8930   -3.97400
  0.8950   -3.93600
  0.8970   -3.89700
  0.8990   -3.85900
  0.9010   -3.82000
  0.9030   -3.78100
  0.9050   -3.74300
  0.9070   -3.70400
  0.9090   -3.66500
  0.9110   -3.62500
  0.9130   -3.58500
  0.9150   -3.54500
  0.9170   -3.50600
  0.9190   -3.46500
  0.9210   -3.42500
  0.9230   -3.38400
  0.9250   -3.34300
  0.9270   -3.30200
  0.9290   -3.26000
  0.9310   -3.21900
  0.9330   -3.17700
  0.9350   -3.13400
  0.9370   -3.09200
  0.9390   -3.04900
  0.9410   -3.00700
  0.9430   -2.96400
  0.9450   -2.92000
  0.9470   -2.87700
  0.9490   -2.83400
  0.9510   -2.79000
  0.9530   -2.74600
  0.9550   -2.70200
  0.9570   -2.65800
  0.9590   -2.61400
  0.9610   -2.56900
  0.9630   -2.52500
  0.9650   -2.48100
  0.9670   -2.43700
  0.9690   -2.39300
  0.9710   -2.34900
  0.9730   -2.30500
  0.9750   -2.26200
  0.9770   -2.21900
  0.9790   -2.17600
  0.9810   -2.13300
  0.9830   -2.09000
  0.9850   -2.04800
  0.9870   -2.00600
  0.9890   -1.96400
  0.9910   -1.92300
  0.9930   -1.88200
  0.9950   -1.84100
  0.9970   -1.80100
  0.9990   -1.76200
  1.0010   -1.72300
  1.0030   -1.68500
  1.0050   -1.64800
  1.0070   -1.61100
  1.0090   -1.57500
  1.0110   -1.54000
  1.0130   -1.50500
  1.0150   -1.47100
  1.0170   -1.43800
  1.0190   -1.40500
  1.0210   -1.37300
  1.0230   -1.34200
  1.0250   -1.31200
  1.0270   -1.28300
  1.0290   -1.25500
  1.0310   -1.22800
  1.0330   -1.20200
  1.0350   -1.17600
  1.0370   -1.15200
  1.0390   -1.12800
  1.0410   -1.10600
  1.0430   -1.08400
  1.0450   -1.06300
  1.0470   -1.04300
  1.0490   -1.02300
  1.0510   -1.00500
  1.0530   -0.98700
  1.0550   -0.97100
  1.0570   -0.95500
  1.0590   -0.94000
  1.0610   -0.92600
  1.0630   -0.91300
  1.0650   -0.90000
  1.0670   -0.88800
  1.0690   -0.87700
  1.0710   -0.86600
  1.0730   -0.85600
  1.0750   -0.84700
  1.0770   -0.83800
  1.0790   -0.83000
  1.0810   -0.82300
  1.0830   -0.81600
  1.0850   -0.80900
  1.0870   -0.80300
  1.0890   -0.79700
  1.0910   -0.79100
  1.0930   -0.78600
  1.0950   -0.78100
  1.0970   -0.77700
  1.0990   -0.77300
  1.1010   -0.76900
  1.1030   -0.76500
  1.1050   -0.76100
  1.1070   -0.75700
  1.1090   -0.75400
  1.1110   -0.75100
  1.1130   -0.74700
  1.1150   -0.74400
  1.1170   -0.74100
  1.1190   -0.73800
  1.1210   -0.73500
  1.1230   -0.73200
  1.1250   -0.72900
  1.1270   -0.72600
  1.1290   -0.72300
  1.1310   -0.72000
  1.1330   -0.71700
  1.1350   -0.71300
  1.1370   -0.71000
  1.1390   -0.70600
  1.1410   -0.70300
  1.1430   -0.69900
  1.1450   -0.69500
  1.1470   -0.69100
  1.1490   -0.68700
  1.1510   -0.68300
  1.1530   -0.67900
  1.1550   -0.67500
  1.1570   -0.67100
  1.1590   -0.66600
  1.1610   -0.66100
  1.1630   -0.65700
  1.1650   -0.65200
  1.1670   -0.64700
  1.1690   -0.64200
  1.1710   -0.63600
  1.1730   -0.63100
  1.1750   -0.62600
  1.1770   -0.62100
  1.1790   -0.61500
  1.1810   -0.61000
  1.1830   -0.60400
  1.1850   -0.59900
  1.1870   -0.59400
  1.1890   -0.58800
  1.1910   -0.58300
  1.1930   -0.57700
  1.1950   -0.57200
  1.1970   -0.56600
  1.1990   -0.56100
  1.2010   -0.55500
  1.2030   -0.55000
  1.2050   -0.54400
  1.2070   -0.53900
  1.2090   -0.53300
  1.2110   -0.52800
  1.2130   -0.52300
  1.2150   -0.51700
  1.2170   -0.51200
  1.2190   -0.50600
  1.2210   -0.50100
  1.2230   -0.49500
  1.2250   -0.49000
  1.2270   -0.48500
  1.2290   -0.47900
  1.2310   -0.47400
  1.2330   -0.46900
  1.2350   -0.46300
  1.2370   -0.45800
  1.2390   -0.45300
  1.2410   -0.44700
  1.2430   -0.44200
  1.2450   -0.43600
  1.2470   -0.43100
  1.2490   -0.42500
  1.2510   -0.42000
  1.2530   -0.41400
  1.2550   -0.40800
  1.2570   -0.40200
  1.2590   -0.39600
  1.2610   -0.39000
  1.2630   -0.38400
  1.2650   -0.37800
  1.2670   -0.37200
  1.2690   -0.36600
  1.2710   -0.36000
  1.2730   -0.35400
  1.2750   -0.34800
  1.2770   -0.34100
  1.2790   -0.33500
  1.2810   -0.32800
  1.2830   -0.32200
  1.2850   -0.31500
  1.2870   -0.30900
  1.2890   -0.30200
  1.2910   -0.29600
  1.2930   -0.28900
  1.2950   -0.28300
  1.2970   -0.27600
  1.2990   -0.26900
  1.3010   -0.26300
  1.3030   -0.25600
  1.3050   -0.25000
  1.3070   -0.24300
  1.3090   -0.23700
  1.3110   -0.23100
  1.3130   -0.22500
  1.3150   -0.21800
  1.3170   -0.21200
  1.3190   -0.20600
  1.3210   -0.20000
  1.3230   -0.19500
  1.3250   -0.18900
  1.3270   -0.18300
  1.3290   -0.17800
  1.3310   -0.17200
  1.3330   -0.16700
  1.3350   -0.16200
  1.3370   -0.15700
  1.3390   -0.15300
  1.3410   -0.14800
  1.3430   -0.14400
  1.3450   -0.14000
  1.3470   -0.13500
  1.3490   -0.13200
  1.3510   -0.12800
  1.3530   -0.12500
  1.3550   -0.12100
  1.3570   -0.11800
  1.3590   -0.11500
  1.3610   -0.11200
  1.3630   -0.10900
  1.3650   -0.10600
  1.3670   -0.10400
  1.3690   -0.10100
  1.3710   -0.09900
  1.3730   -0.09700
  1.3750   -0.09500
  1.3770   -0.09300
  1.3790   -0.09100
  1.3810   -0.09000
  1.3830   -0.08800
  1.3850   -0.08700
  1.3870   -0.08600
  1.3890   -0.08500
  1.3910   -0.08400
  1.3930   -0.08300
  1.3950   -0.08300
  1.3970   -0.08200
  1.3990   -0.08200
