# z (nm)   (kJ/mol)
  0.0990    2.84300
  0.1010    2.71000
  0.1030    2.57900
  0.1050    2.44000
  0.1070    2.30400
  0.1090    2.16300
  0.1110    2.02200
  0.1130    1.88400
  0.1150    1.74100
  0.1170    1.59500
  0.1190    1.44900
  0.1210    1.30700
  0.1230    1.16600
  0.1250    1.02100
  0.1270    0.87500
  0.1290    0.73100
  0.1310    0.58900
  0.1330    0.44900
  0.1350    0.31000
  0.1370    0.17100
  0.1390    0.03200
  0.1410   -0.10500
  0.1430   -0.24000
  0.1450   -0.37300
  0.1470   -0.50400
  0.1490   -0.63400
  0.1510   -0.76100
  0.1530   -0.88400
  0.1550   -1.00400
  0.1570   -1.12300
  0.1590   -1.23900
  0.1610   -1.35200
  0.1630   -1.46200
  0.1650   -1.57000
  0.1670   -1.67500
  0.1690   -1.77600
  0.1710   -1.87600
  0.1730   -1.97200
  0.1750   -2.06500
  0.1770   -2.15400
  0.1790   -2.24000
  0.1810   -2.32300
  0.1830   -2.40300
  0.1850   -2.47900
  0.1870   -2.55200
  0.1890   -2.62100
  0.1910   -2.68700
  0.1930   -2.74900
  0.1950   -2.80800
  0.1970   -2.86300
  0.1990   -2.91400
  0.2010   -2.96200
  0.2030   -3.00600
  0.2050   -3.04700
  0.2070   -3.08400
  0.2090   -3.11700
  0.2110   -3.14700
  0.2130   -3.17400
  0.2150   -3.19700
  0.2170   -3.21700
  0.2190   -3.23400
  0.2210   -3.24700
  0.2230   -3.25800
  0.2250   -3.26500
  0.2270   -3.26900
  0.2290   -3.27000
  0.2310   -3.26900
  0.2330   -3.26400
  0.2350   -3.25700
  0.2370   -3.24700
  0.2390   -3.23500
  0.2410   -3.22100
  0.2430   -3.20500
  0.2450   -3.18600
  0.2470   -3.16600
  0.2490   -3.14300
  0.2510   -3.11800
  0.2530   -3.09200
  0.2550   -3.06400
  0.2570   -3.03400
  0.2590   -3.00300
  0.2610   -2.97000
  0.2630    0.29300
  0.2650    0.19400
  0.2670    0.08500
  0.2690   -0.02700
  0.2710   -0.14000
  0.2730   -0.25200
  0.2750   -0.36700
  0.2770   -0.48100
  0.2790   -0.59500
  0.2810   -0.71200
  0.2830   -0.82900
  0.2850   -0.94200
  0.2870   -1.05500
  0.2890   -1.16700
  0.2910   -1.27700
  0.2930   -1.38900
  0.2950   -1.50100
  0.2970   -1.61100
  0.2990   -1.71800
  0.3010   -1.82400
  0.3030   -1.92900
  0.3050   -2.03300
  0.3070   -2.13400
  0.3090   -2.23300
  0.3110   -2.32900
  0.3130   -2.42300
  0.3150   -2.51400
  0.3170   -2.60400
  0.3190   -2.69200
  0.3210   -2.77500
  0.3230   -2.85400
  0.3250   -2.93000
  0.3270   -3.00200
  0.3290   -3.07100
  0.3310   -3.13700
  0.3330   -3.19900
  0.3350   -3.25800
  0.3370   -3.31300
  0.3390   -3.36500
  0.3410   -3.41300
  0.3430   -3.45600
  0.3450   -3.49600
  0.3470   -3.53200
  0.3490   -3.56500
  0.3510   -3.59500
  0.3530   -3.62000
  0.3550   -3.64200
  0.3570   -3.65900
  0.3590   -3.67400
  0.3610   -3.68400
  0.3630   -3.69100
  0.3650   -3.69500
  0.3670   -3.69500
  0.3690   -3.69100
  0.3710   -3.68400
  0.3730   -3.67400
  0.3750   -3.66000
  0.3770   -3.64400
  0.3790   -3.62500
  0.3810   -3.60200
  0.3830   -3.57700
  0.3850   -3.54900
  0.3870   -3.51900
  0.3890   -3.48600
  0.3910   -3.45100
  0.3930   -3.41400
  0.3950   -3.37500
  0.3970   -3.33500
  0.3990   -3.29400
  0.4010   -3.25100
  0.4030   -3.20700
  0.4050   -3.16200
  0.4070   -3.11500
  0.4090   -3.06900
  0.4110   -3.02100
  0.4130   -2.97300
  0.4150   -2.92500
  0.4170   -2.87700
  0.4190   -2.82900
  0.4210   -2.78200
  0.4230   -2.73400
  0.4250   -2.68700
  0.4270   -2.64100
  0.4290   -2.59500
  0.4310   -2.55000
  0.4330   -2.50500
  0.4350   -2.46200
  0.4370   -2.42000
  0.4390   -2.37900
  0.4410   -2.33900
  0.4430   -2.30000
  0.4450   -2.26200
  0.4470   -2.22600
  0.4490   -2.19100
  0.4510   -2.15700
  0.4530   -2.12500
  0.4550   -2.09400
  0.4570   -2.06400
  0.4590   -2.03600
  0.4610   -2.00800
  0.4630   -1.98300
  0.4650   -1.95800
  0.4670   -1.93500
  0.4690   -1.91300
  0.4710   -1.89200
  0.4730   -1.87200
  0.4750   -1.85300
  0.4770   -1.83500
  0.4790   -1.81700
  0.4810   -1.80100
  0.4830   -1.78500
  0.4850   -1.77000
  0.4870   -1.75600
  0.4890   -1.74200
  0.4910   -1.72800
  0.4930   -1.71500
  0.4950   -1.70300
  0.4970   -1.69000
  0.4990   -1.67800
  0.5010   -1.66600
  0.5030   -1.65400
  0.5050   -1.64200
  0.5070   -1.63000
  0.5090   -1.61800
  0.5110   -1.60500
  0.5130   -1.59200
  0.5150   -1.57900
  0.5170   -1.56600
  0.5190   -1.55200
  0.5210   -1.53800
  0.5230   -1.52300
  0.5250   -1.50800
  0.5270   -1.49300
  0.5290   -1.47600
  0.5310   -1.46000
  0.5330   -1.44300
  0.5350   -1.42500
  0.5370   -1.40600
  0.5390   -1.38700
  0.5410   -1.36700
  0.5430   -1.34700
  0.5450   -1.32600
  0.5470   -1.30400
  0.5490   -1.28200
  0.5510   -1.25900
  0.5530   -1.23600
  0.5550   -1.21200
  0.5570   -1.18800
  0.5590   -1.16300
  0.5610   -1.13700
  0.5630   -1.11200
  0.5650   -1.08500
  0.5670   -1.05900
  0.5690   -1.03200
  0.5710   -1.00500
  0.5730   -0.97800
  0.5750   -0.95000
  0.5770   -0.92300
  0.5790   -0.89500
  0.5810   -0.86700
  0.5830   -0.83900
  0.5850   -0.81100
  0.5870   -0.78300
  0.5890   -0.75600
  0.5910   -0.72800
  0.5930   -0.70100
  0.5950   -0.67400
  0.5970   -0.64700
  0.5990   -0.62100
  0.6010   -0.59500
  0.6030   -0.56900
  0.6050   -0.54400
  0.6070   -0.51900
  0.6090   -0.49500
  0.6110   -0.47200
  0.6130   -0.44900
  0.6150   -0.42600
  0.6170   -0.40500
  0.6190   -0.38400
  0.6210   -0.36300
  0.6230   -0.34400
  0.6250   -0.32500
  0.6270   -0.30700
  0.6290   -0.29000
  0.6310   -0.27300
  0.6330   -0.25800
  0.6350   -0.24300
  0.6370   -0.22800
  0.6390   -0.21500
  0.6410   -0.20300
  0.6430   -0.19100
  0.6450   -0.18000
  0.6470   -0.17000
  0.6490   -0.16100
  0.6510   -0.15300
  0.6530   -0.14500
  0.6550   -0.13800
  0.6570   -0.13200
  0.6590   -0.12700
  0.6610   -0.12200
  0.6630   -0.11800
  0.6650   -0.11500
  0.6670   -0.11300
  0.6690   -0.11100
  0.6710   -0.11000
  0.6730   -0.10900
  0.6750   -0.10900
  0.6770   -0.10900
  0.6790   -0.11000
  0.6810   -0.11100
  0.6830   -0.11300
  0.6850   -0.11500
  0.6870   -0.11800
  0.6890   -0.12000
  0.6910   -0.12400
  0.6930   -0.12700
  0.6950   -0.13100
  0.6970   -0.13500
  0.6990   -0.14000
  0.7010   -0.14400
  0.7030   -0.14900
  0.7050   -0.15300
  0.7070   -0.15800
  0.7090   -0.16300
  0.7110   -0.16800
  0.7130   -0.17300
  0.7150   -0.17800
  0.7170   -0.18300
  0.7190   -0.18800
  0.7210   -0.19400
  0.7230   -0.19900
  0.7250   -0.20400
  0.7270   -0.20800
  0.7290   -0.21300
  0.7310   -0.21800
  0.7330   -0.22300
  0.7350   -0.22700
  0.7370   -0.23200
  0.7390   -0.23600
  0.7410   -0.24000
  0.7430   -0.24500
  0.7450   -0.24900
  0.7470   -0.25300
  0.7490   -0.25600
  0.7510   -0.26000
  0.7530   -0.26400
  0.7550   -0.26700
  0.7570   -0.27100
  0.7590   -0.27400
  0.7610   -0.27700
  0.7630   -0.28000
  0.7650   -0.28300
  0.7670   -0.28600
  0.7690    1.74400
  0.7710    1.57900
  0.7730    1.41200
  0.7750    1.25800
  0.7770    1.10300
  0.7790    0.93700
  0.7810    0.77400
  0.7830    0.61400
  0.7850    0.45300
  0.7870    0.29300
  0.7890    0.13600
  0.7910   -0.01800
  0.7930   -0.17100
  0.7950   -0.32400
  0.7970   -0.47200
  0.7990   -0.62000
  0.8010   -0.76500
  0.8030   -0.90600
  0.8050   -1.04500
  0.8070   -1.18000
  0.8090   -1.31200
  0.8110   -1.43900
  0.8130   -1.56400
  0.8150   -1.68600
  0.8170   -1.80400
  0.8190   -1.91900
  0.8210   -2.02900
  0.8230   -2.13500
  0.8250   -2.23800
  0.8270   -2.33600
  0.8290   -2.43000
  0.8310   -2.52100
  0.8330   -2.60800
  0.8350   -2.69100
  0.8370   -2.76900
  0.8390   -2.84400
  0.8410   -2.91500
  0.8430   -2.98200
  0.8450   -3.04500
  0.8470   -3.10400
  0.8490   -3.15900
  0.8510   -3.21000
  0.8530   -3.25700
  0.8550   -3.30000
  0.8570   -3.33900
  0.8590   -3.37500
  0.8610   -3.40700
  0.8630   -3.43500
  0.8650   -3.45900
  0.8670   -3.48000
  0.8690   -3.49800
  0.8710   -3.51300
  0.8730   -3.52400
  0.8750   -3.53200
  0.8770   -3.53800
  0.8790   -3.54100
  0.8810   -3.54000
  0.8830   -3.53800
  0.8850   -3.53300
  0.8870   -3.52500
  0.8890   -3.51600
  0.8910   -3.50400
  0.8930   -3.49000
  0.8950   -3.47400
  0.8970   -3.45700
  0.8990   -3.43800
  0.9010   -3.41700
  0.9030   -3.39500
  0.9050   -3.37300
  0.9070   -3.34900
  0.9090   -3.32400
  0.9110   -3.29800
  0.9130   -3.27100
  0.9150   -3.24300
  0.9170   -3.21400
  0.9190   -3.18500
  0.9210   -3.15500
  0.9230   -3.12500
  0.9250   -3.09400
  0.9270   -3.06300
  0.9290   -3.03100
  0.9310   -2.99900
  0.9330   -2.96700
  0.9350   -2.93400
  0.9370   -2.90200
  0.9390   -2.86900
  0.9410   -2.83500
  0.9430   -2.80200
  0.9450   -2.76900
  0.9470   -2.73500
  0.9490   -2.70100
  0.9510   -2.66800
  0.9530   -2.63400
  0.9550   -2.60100
  0.9570   -2.56700
  0.9590   -2.53300
  0.9610   -2.50000
  0.9630   -2.46600
  0.9650   -2.43200
  0.9670   -2.39900
  0.9690   -2.36500
  0.9710   -2.33200
  0.9730   -2.29800
  0.9750   -2.26500
  0.9770   -2.23200
  0.9790   -2.19800
  0.9810   -2.16500
  0.9830   -2.13200
  0.9850   -2.09900
  0.9870   -2.06700
  0.9890   -2.03400
  0.9910   -2.00100
  0.9930   -1.96900
  0.9950   -1.93700
  0.9970   -1.90500
  0.9990   -1.87300
  1.0010   -1.84100
  1.0030   -1.81000
  1.0050   -1.77900
  1.0070   -1.74800
  1.0090   -1.71700
  1.0110   -1.68600
  1.0130   -1.65600
  1.0150   -1.62600
  1.0170   -1.59600
  1.0190   -1.56700
  1.0210   -1.53700
  1.0230   -1.50800
  1.0250   -1.48000
  1.0270   -1.45100
  1.0290   -1.42300
  1.0310   -1.39500
  1.0330   -1.36700
  1.0350   -1.33900
  1.0370   -1.31100
  1.0390   -1.28400
  1.0410   -1.25700
  1.0430   -1.23000
  1.0450   -1.20300
  1.0470   -1.17600
  1.0490   -1.15000
  1.0510   -1.12300
  1.0530   -1.09700
  1.0550   -1.07100
  1.0570   -1.04500
  1.0590   -1.02000
  1.0610   -0.99400
  1.0630   -0.96900
  1.0650   -0.94300
  1.0670   -0.91800
  1.0690   -0.89300
  1.0710   -0.86800
  1.0730   -0.84400
  1.0750   -0.81900
  1.0770   -0.79500
  1.0790   -0.77000
  1.0810   -0.74600
  1.0830   -0.72200
  1.0850   -0.69800
  1.0870   -0.67500
  1.0890   -0.65100
  1.0910   -0.62800
  1.0930   -0.60500
  1.0950   -0.58300
  1.0970   -0.56000
  1.0990   -0.53800
  1.1010   -0.51600
  1.1030   -0.49500
  1.1050   -0.47300
  1.1070   -0.45300
  1.1090   -0.43200
  1.1110   -0.41300
  1.1130   -0.39300
  1.1150   -0.37400
  1.1170   -0.35600
  1.1190   -0.33800
  1.1210   -0.32000
  1.1230   -0.30400
  1.1250   -0.28800
  1.1270   -0.27200
  1.1290   -0.25700
  1.1310   -0.24200
  1.1330   -0.22900
  1.1350   -0.21600
  1.1370   -0.20400
  1.1390   -0.19200
  1.1410   -0.18100
  1.1430   -0.17100
  1.1450   -0.16200
  1.1470   -0.15300
  1.1490   -0.14500
  1.1510   -0.13800
  1.1530   -0.13100
  1.1550   -0.12600
  1.1570   -0.12100
  1.1590   -0.11700
  1.1610   -0.11300
  1.1630   -0.11000
  1.1650   -0.10800
  1.1670   -0.10700
  1.1690   -0.10600
  1.1710   -0.10600
  1.1730   -0.10700
  1.1750   -0.10800
  1.1770   -0.10900
  1.1790   -0.11200
  1.1810   -0.11400
  1.1830   -0.11700
  1.1850   -0.12100
  1.1870   -0.12500
  1.1890   -0.12900
  1.1910   -0.13400
  1.1930   -0.13900
  1.1950   -0.14500
  1.1970   -0.15100
  1.1990   -0.15700
  1.2010   -0.16300
  1.2030   -0.16900
  1.2050   -0.17500
  1.2070   -0.18200
  1.2090   -0.18800
  1.2110   -0.19500
  1.2130   -0.20200
  1.2150   -0.20800
  1.2170   -0.21500
  1.2190   -0.22200
  1.2210   -0.22800
  1.2230   -0.23500
  1.2250   -0.24100
  1.2270   -0.24800
  1.2290   -0.25400
  1.2310   -0.26000
  1.2330   -0.26600
  1.2350   -0.27200
  1.2370   -0.27700
  1.2390   -0.28200
  1.2410   -0.28700
  1.2430   -0.29100
  1.2450   -0.29600
  1.2470   -0.30000
  1.2490   -0.30400
  1.2510   -0.30700
  1.2530   -0.31100
  1.2550   -0.31400
  1.2570   -0.31700
  1.2590   -0.31900
  1.2610   -0.32100
  1.2630   -0.32300
  1.2650   -0.32500
  1.2670   -0.32700
  1.2690   -0.32800
  1.2710   -0.32900
  1.2730   -0.32900
  1.2750   -0.33000
  1.2770   -0.33000
  1.2790   -0.32900
  1.2810   -0.32900
  1.2830   -0.32800
  1.2850   -0.32800
  1.2870   -0.32700
  1.2890   -0.32500
  1.2910   -0.32400
  1.2930   -0.32200
  1.2950   -0.32000
  1.2970   -0.31800
  1.2990   -0.31500
  1.3010   -0.31200
  1.3030   -0.31000
  1.3050   -0.30700
  1.3070   -0.30400
  1.3090   -0.30000
  1.3110   -0.29700
  1.3130   -0.29300
  1.3150   -0.28900
  1.3170   -0.28500
  1.3190   -0.28100
  1.3210   -0.27700
  1.3230   -0.27200
  1.3250   -0.26800
  1.3270   -0.26300
  1.3290   -0.25900
  1.3310   -0.25400
  1.3330   -0.24800
  1.3350   -0.24300
  1.3370   -0.23800
  1.3390   -0.23200
  1.3410   -0.22700
  1.3430   -0.22100
  1.3450   -0.21600
  1.3470   -0.21000
  1.3490   -0.20400
  1.3510   -0.19800
  1.3530   -0.19200
  1.3550   -0.18600
  1.3570   -0.18000
  1.3590   -0.17400
  1.3610   -0.16800
  1.3630   -0.16200
  1.3650   -0.15500
  1.3670   -0.14900
  1.3690   -0.14300
  1.3710   -0.13700
  1.3730   -0.13100
  1.3750   -0.12400
  1.3770   -0.11900
  1.3790   -0.11300
  1.3810   -0.10700
  1.3830   -0.10100
  1.3850   -0.09500
  1.3870   -0.09000
  1.3890   -0.08500
  1.3910   -0.07900
  1.3930   -0.07400
  1.3950   -0.07000
  1.3970   -0.06500
  1.3990   -0.06100
