# z (nm)   (kJ/mol)
  0.4990   39.94770
  0.5050   39.07120
  0.5070   38.13150
  0.5090   37.15460
  0.5110   36.19830
  0.5130   35.24360
  0.5150   34.27130
  0.5170   33.28930
  0.5190   32.32270
  0.5210   31.36490
  0.5230   30.40910
  0.5250   29.44330
  0.5270   28.48540
  0.5290   27.53450
  0.5310   26.58620
  0.5330   25.65130
  0.5350   24.72800
  0.5370   23.82110
  0.5390   22.93810
  0.5410   22.07260
  0.5430   21.22200
  0.5450   20.39300
  0.5470   19.58820
  0.5490   18.80590
  0.5510   18.04710
  0.5530   17.31630
  0.5550   16.61310
  0.5570   15.93320
  0.5590   15.27610
  0.5610   14.63890
  0.5630   14.02430
  0.5650   13.43580
  0.5670   12.86850
  0.5690   12.32130
  0.5710   11.80010
  0.5730   11.29790
  0.5750   10.81330
  0.5770   10.35040
  0.5790    9.90700
  0.5810    9.48200
  0.5830    9.07410
  0.5850    8.68260
  0.5870    8.31020
  0.5890    7.95750
  0.5910    7.61930
  0.5930    7.29680
  0.5950    6.99070
  0.5970    6.70150
  0.5990    6.42930
  0.6010    6.17050
  0.6030    5.92690
  0.6050    5.69750
  0.6070    5.48120
  0.6090    5.27970
  0.6110    5.09080
  0.6130    4.91550
  0.6150    4.75280
  0.6170    4.60000
  0.6190    4.45910
  0.6210    4.32990
  0.6230    4.21280
  0.6250    4.10550
  0.6270    4.00660
  0.6290    3.91780
  0.6310    3.83590
  0.6330    3.76050
  0.6350    3.69310
  0.6370    3.63150
  0.6390    3.57580
  0.6410    3.52580
  0.6430    3.48070
  0.6450    3.44050
  0.6470    3.40170
  0.6490    3.36110
  0.6510    3.32130
  0.6530    3.28490
  0.6550    3.25050
  0.6570    3.21760
  0.6590    3.18380
  0.6610    3.14660
  0.6630    3.10600
  0.6650    3.06110
  0.6670    3.01240
  0.6690    2.96130
  0.6710    2.90750
  0.6730    2.85050
  0.6750    2.78910
  0.6770    2.72320
  0.6790    2.65350
  0.6810    2.58120
  0.6830    2.50470
  0.6850    2.42370
  0.6870    2.33940
  0.6890    2.25150
  0.6910    2.16030
  0.6930    2.06570
  0.6950    1.96820
  0.6970    1.86960
  0.6990    1.76940
  0.7010    1.66680
  0.7030    1.56280
  0.7050    1.45860
  0.7070    1.35380
  0.7090    1.24840
  0.7110    1.14410
  0.7130    1.04060
  0.7150    0.93770
  0.7170    0.83540
  0.7190    0.73460
  0.7210    0.63530
  0.7230    0.53810
  0.7250    0.44350
  0.7270    0.35100
  0.7290    0.26100
  0.7310    0.17380
  0.7330    0.08920
  0.7350    0.00770
  0.7370   -0.07050
  0.7390   -0.14520
  0.7410   -0.21600
  0.7430   -0.28330
  0.7450   -0.34700
  0.7470   -0.40620
  0.7490   -0.46180
  0.7510   -0.51430
  0.7530   -0.56300
  0.7550   -0.60770
  0.7570   -0.64830
  0.7590   -0.68550
  0.7610   -0.71920
  0.7630   -0.74950
  0.7650   -0.77660
  0.7670   -0.80000
  0.7690   -0.82030
  0.7710   -0.83720
  0.7730   -0.85110
  0.7750   -0.86250
  0.7770   -0.87140
  0.7790   -0.87790
  0.7810   -0.88190
  0.7830   -0.88370
  0.7850   -0.88370
  0.7870   -0.88170
  0.7890   -0.87800
  0.7910   -0.87300
  0.7930   -0.86660
  0.7950   -0.85860
  0.7970   -0.84940
  0.7990   -0.83940
  0.8010   -0.82860
  0.8030   -0.81680
  0.8050   -0.80430
  0.8070   -0.79130
  0.8090   -0.77780
  0.8110   -0.76360
  0.8130   -0.74880
  0.8150   -0.73390
  0.8170   -0.71870
  0.8190   -0.70350
  0.8210   -0.68800
  0.8230   -0.67210
  0.8250   -0.65610
  0.8270   -0.64010
  0.8290   -0.62420
  0.8310   -0.60810
  0.8330   -0.59190
  0.8350   -0.57560
  0.8370   -0.55910
  0.8390   -0.54250
  0.8410   -0.52600
  0.8430   -0.50920
  0.8450   -0.49240
  0.8470   -0.47550
  0.8490   -0.45830
  0.8510   -0.44110
  0.8530   -0.42350
  0.8550   -0.40590
  0.8570   -0.38840
  0.8590   -0.37060
  0.8610   -0.35250
  0.8630   -0.33420
  0.8650   -0.31570
  0.8670   -0.29710
  0.8690   -0.27830
  0.8710   -0.25930
  0.8730   -0.24040
  0.8750   -0.22140
  0.8770   -0.20210
  0.8790   -0.18270
  0.8810   -0.16320
  0.8830   -0.14360
  0.8850   -0.12400
  0.8870   -0.10430
  0.8890   -0.08470
  0.8910   -0.06510
  0.8930   -0.04550
  0.8950   -0.02600
  0.8970   -0.00640
  0.8990    0.01280
  0.9010    0.03190
  0.9030    0.05090
  0.9050    0.06960
  0.9070    0.08810
  0.9090    0.10650
  0.9110    0.12450
  0.9130    0.14200
  0.9150    0.15880
  0.9170    0.17530
  0.9190    0.19160
  0.9210    0.20740
  0.9230    0.22280
  0.9250    0.23750
  0.9270    0.25180
  0.9290    0.26580
  0.9310    0.27910
  0.9330    0.29180
  0.9350    0.30390
  0.9370    0.31540
  0.9390    0.32600
  0.9410    0.33600
  0.9430    0.34550
  0.9450    0.35430
  0.9470    0.36240
  0.9490    0.36980
  0.9510    0.37650
  0.9530    0.38250
  0.9550    0.38780
  0.9570    0.39250
  0.9590    0.39650
  0.9610    0.39990
  0.9630    0.40270
  0.9650    0.40480
  0.9670    0.40640
  0.9690    0.40750
  0.9710    0.40780
  0.9730    0.40770
  0.9750    0.40700
  0.9770    0.40570
  0.9790    0.40390
  0.9810    0.40170
  0.9830    0.39900
  0.9850    0.39590
  0.9870    0.39230
  0.9890    0.38840
  0.9910    0.38420
  0.9930    0.37970
  0.9950    0.37480
  0.9970    0.36970
  0.9990    0.36440
  1.0010    0.35870
  1.0030    0.35280
  1.0050    0.34680
  1.0070    0.34070
  1.0090    0.33440
  1.0110    0.32800
  1.0130    0.32150
  1.0150    0.31500
  1.0170    0.30820
  1.0190    0.30140
  1.0210    0.29480
  1.0230    0.28790
  1.0250    0.28110
  1.0270    0.27440
  1.0290    0.26770
  1.0310    0.26090
  1.0330    0.25410
  1.0350    0.24710
  1.0370    0.24010
  1.0390    0.23310
  1.0410    0.22600
  1.0430    0.21910
  1.0450    0.21240
  1.0470    0.20570
  1.0490    0.19900
  1.0510    0.19210
  1.0530    0.18530
  1.0550    0.17850
  1.0570    0.17160
  1.0590    0.16460
  1.0610    0.15770
  1.0630    0.15090
  1.0650    0.14410
  1.0670    0.13720
  1.0690    0.13040
  1.0710    0.12360
  1.0730    0.11690
  1.0750    0.11020
  1.0770    0.10330
  1.0790    0.09660
  1.0810    0.08980
  1.0830    0.08310
  1.0850    0.07650
  1.0870    0.06980
  1.0890    0.06320
  1.0910    0.05660
  1.0930    0.05020
  1.0950    0.04360
  1.0970    0.03700
  1.0990    0.03050
  1.1010    0.02410
  1.1030    0.01780
  1.1050    0.01170
  1.1070    0.00550
  1.1090   -0.00060
  1.1110   -0.00660
  1.1130   -0.01240
  1.1150   -0.01810
  1.1170   -0.02360
  1.1190   -0.02900
  1.1210   -0.03430
  1.1230   -0.03940
  1.1250   -0.04430
  1.1270   -0.04910
  1.1290   -0.05370
  1.1310   -0.05800
  1.1330   -0.06220
  1.1350   -0.06610
  1.1370   -0.06990
  1.1390   -0.07350
  1.1410   -0.07680
  1.1430   -0.07980
  1.1450   -0.08280
  1.1470   -0.08560
  1.1490   -0.08800
  1.1510   -0.09010
  1.1530   -0.09220
  1.1550   -0.09410
  1.1570   -0.09590
  1.1590   -0.09760
  1.1610   -0.09880
  1.1630   -0.09970
  1.1650   -0.10060
  1.1670   -0.10130
  1.1690   -0.10180
  1.1710   -0.10210
  1.1730   -0.10240
  1.1750   -0.10260
  1.1770   -0.10250
  1.1790   -0.10230
  1.1810   -0.10200
  1.1830   -0.10150
  1.1850   -0.10090
  1.1870   -0.10020
  1.1890   -0.09950
  1.1910   -0.09860
  1.1930   -0.09770
  1.1950   -0.09670
  1.1970   -0.09540
  1.1990   -0.09400
  1.2010   -0.09260
  1.2030   -0.09110
  1.2050   -0.08930
  1.2070   -0.08770
  1.2090   -0.08590
  1.2110   -0.08400
  1.2130   -0.08200
  1.2150   -0.08000
  1.2170   -0.07800
  1.2190   -0.07580
  1.2210   -0.07360
  1.2230   -0.07140
  1.2250   -0.06900
  1.2270   -0.06650
  1.2290   -0.06380
  1.2310   -0.06100
  1.2330   -0.05820
  1.2350   -0.05530
  1.2370   -0.05230
  1.2390   -0.04910
  1.2410   -0.04570
  1.2430   -0.04220
  1.2450   -0.03870
  1.2470   -0.03520
  1.2490   -0.03160
  1.2510   -0.02790
  1.2530   -0.02410
  1.2550   -0.02020
  1.2570   -0.01620
  1.2590   -0.01210
  1.2610   -0.00810
  1.2630   -0.00400
  1.2650    0.00030
  1.2670    0.00470
  1.2690    0.00900
  1.2710    0.01330
  1.2730    0.01760
  1.2750    0.02180
  1.2770    0.02580
  1.2790    0.02970
  1.2810    0.03360
  1.2830    0.03740
  1.2850    0.04110
  1.2870    0.04470
  1.2890    0.04800
  1.2910    0.05120
  1.2930    0.05420
  1.2950    0.05710
  1.2970    0.05980
  1.2990    0.06210
  1.3010    0.06410
  1.3030    0.06580
  1.3050    0.06730
  1.3070    0.06850
  1.3090    0.06930
  1.3110    0.06960
  1.3130    0.06950
  1.3150    0.06910
  1.3170    0.06830
  1.3190    0.06710
  1.3210    0.06560
  1.3230    0.06390
  1.3250    0.06170
  1.3270    0.05920
  1.3290    0.05620
  1.3310    0.05300
  1.3330    0.04960
  1.3350    0.04590
  1.3370    0.04180
  1.3390    0.03740
  1.3410    0.03290
  1.3430    0.02830
  1.3450    0.02350
  1.3470    0.01870
  1.3490    0.01380
  1.3510    0.00890
  1.3530    0.00410
  1.3550   -0.00060
  1.3570   -0.00490
  1.3590   -0.00930
  1.3610   -0.01330
  1.3630   -0.01660
  1.3650   -0.01920
  1.3670   -0.02160
  1.3690   -0.02360
  1.3710   -0.02460
  1.3730   -0.02460
  1.3750   -0.02400
  1.3770   -0.02300
  1.3790   -0.02120
  1.3810   -0.01820
  1.3830   -0.01420
  1.3850   -0.00930
  1.3870   -0.00330
  1.3890    0.00380
  1.3910    0.01210
  1.3930    0.02130
  1.3950    0.03160
  1.3970    0.04290
  1.3990    0.05520
