# z (nm)   (kJ/mol)
  0.5230   25.43110
  0.5250   25.05430
  0.5270   24.66660
  0.5290   24.28780
  0.5310   23.90490
  0.5330   23.50470
  0.5350   23.10170
  0.5370   22.69300
  0.5390   22.26640
  0.5410   21.83090
  0.5430   21.39190
  0.5450   20.94950
  0.5470   20.50490
  0.5490   20.06420
  0.5510   19.62520
  0.5530   19.18660
  0.5550   18.75460
  0.5570   18.31880
  0.5590   17.87430
  0.5610   17.43260
  0.5630   17.00150
  0.5650   16.57670
  0.5670   16.15350
  0.5690   15.73150
  0.5710   15.32170
  0.5730   14.92170
  0.5750   14.52060
  0.5770   14.12520
  0.5790   13.73630
  0.5810   13.35830
  0.5830   12.99380
  0.5850   12.63870
  0.5870   12.28920
  0.5890   11.94720
  0.5910   11.61660
  0.5930   11.29480
  0.5950   10.98340
  0.5970   10.68130
  0.5990   10.38680
  0.6010   10.10050
  0.6030    9.82480
  0.6050    9.56040
  0.6070    9.30460
  0.6090    9.05610
  0.6110    8.81630
  0.6130    8.58480
  0.6150    8.36030
  0.6170    8.14390
  0.6190    7.93370
  0.6210    7.73220
  0.6230    7.53910
  0.6250    7.35070
  0.6270    7.16820
  0.6290    6.99250
  0.6310    6.82290
  0.6330    6.65790
  0.6350    6.49750
  0.6370    6.34260
  0.6390    6.19220
  0.6410    6.04460
  0.6430    5.90090
  0.6450    5.76200
  0.6470    5.62640
  0.6490    5.49410
  0.6510    5.36410
  0.6530    5.23650
  0.6550    5.11180
  0.6570    4.98910
  0.6590    4.86830
  0.6610    4.74930
  0.6630    4.63110
  0.6650    4.51440
  0.6670    4.40000
  0.6690    4.28600
  0.6710    4.17200
  0.6730    4.05820
  0.6750    3.94400
  0.6770    3.82950
  0.6790    3.71460
  0.6810    3.59980
  0.6830    3.48470
  0.6850    3.36970
  0.6870    3.25440
  0.6890    3.13770
  0.6910    3.02070
  0.6930    2.90360
  0.6950    2.78590
  0.6970    2.66790
  0.6990    2.54980
  0.7010    2.43180
  0.7030    2.31350
  0.7050    2.19480
  0.7070    2.07590
  0.7090    1.95720
  0.7110    1.83940
  0.7130    1.72210
  0.7150    1.60560
  0.7170    1.49000
  0.7190    1.37540
  0.7210    1.26260
  0.7230    1.15170
  0.7250    1.04240
  0.7270    0.93440
  0.7290    0.82860
  0.7310    0.72500
  0.7330    0.62350
  0.7350    0.52490
  0.7370    0.42880
  0.7390    0.33530
  0.7410    0.24500
  0.7430    0.15730
  0.7450    0.07250
  0.7470   -0.00890
  0.7490   -0.08700
  0.7510   -0.16170
  0.7530   -0.23320
  0.7550   -0.30150
  0.7570   -0.36660
  0.7590   -0.42820
  0.7610   -0.48660
  0.7630   -0.54160
  0.7650   -0.59330
  0.7670   -0.64150
  0.7690   -0.68660
  0.7710   -0.72830
  0.7730   -0.76700
  0.7750   -0.80260
  0.7770   -0.83510
  0.7790   -0.86450
  0.7810   -0.89090
  0.7830   -0.91470
  0.7850   -0.93600
  0.7870   -0.95480
  0.7890   -0.97080
  0.7910   -0.98460
  0.7930   -0.99600
  0.7950   -1.00520
  0.7970   -1.01210
  0.7990   -1.01710
  0.8010   -1.02010
  0.8030   -1.02130
  0.8050   -1.02090
  0.8070   -1.01890
  0.8090   -1.01560
  0.8110   -1.01070
  0.8130   -1.00440
  0.8150   -0.99690
  0.8170   -0.98820
  0.8190   -0.97830
  0.8210   -0.96720
  0.8230   -0.95530
  0.8250   -0.94260
  0.8270   -0.92890
  0.8290   -0.91450
  0.8310   -0.89920
  0.8330   -0.88310
  0.8350   -0.86650
  0.8370   -0.84920
  0.8390   -0.83140
  0.8410   -0.81310
  0.8430   -0.79440
  0.8450   -0.77520
  0.8470   -0.75550
  0.8490   -0.73530
  0.8510   -0.71460
  0.8530   -0.69350
  0.8550   -0.67210
  0.8570   -0.65040
  0.8590   -0.62840
  0.8610   -0.60600
  0.8630   -0.58340
  0.8650   -0.56050
  0.8670   -0.53740
  0.8690   -0.51410
  0.8710   -0.49060
  0.8730   -0.46690
  0.8750   -0.44300
  0.8770   -0.41910
  0.8790   -0.39500
  0.8810   -0.37080
  0.8830   -0.34650
  0.8850   -0.32220
  0.8870   -0.29780
  0.8890   -0.27350
  0.8910   -0.24920
  0.8930   -0.22490
  0.8950   -0.20070
  0.8970   -0.17650
  0.8990   -0.15240
  0.9010   -0.12840
  0.9030   -0.10470
  0.9050   -0.08110
  0.9070   -0.05780
  0.9090   -0.03470
  0.9110   -0.01190
  0.9130    0.01070
  0.9150    0.03290
  0.9170    0.05480
  0.9190    0.07640
  0.9210    0.09750
  0.9230    0.11820
  0.9250    0.13840
  0.9270    0.15830
  0.9290    0.17770
  0.9310    0.19660
  0.9330    0.21490
  0.9350    0.23260
  0.9370    0.24960
  0.9390    0.26620
  0.9410    0.28210
  0.9430    0.29740
  0.9450    0.31200
  0.9470    0.32600
  0.9490    0.33940
  0.9510    0.35220
  0.9530    0.36430
  0.9550    0.37570
  0.9570    0.38640
  0.9590    0.39610
  0.9610    0.40510
  0.9630    0.41350
  0.9650    0.42110
  0.9670    0.42790
  0.9690    0.43410
  0.9710    0.43960
  0.9730    0.44440
  0.9750    0.44860
  0.9770    0.45180
  0.9790    0.45440
  0.9810    0.45620
  0.9830    0.45740
  0.9850    0.45780
  0.9870    0.45750
  0.9890    0.45660
  0.9910    0.45510
  0.9930    0.45280
  0.9950    0.44970
  0.9970    0.44590
  0.9990    0.44160
  1.0010    0.43670
  1.0030    0.43110
  1.0050    0.42490
  1.0070    0.41800
  1.0090    0.41070
  1.0110    0.40280
  1.0130    0.39420
  1.0150    0.38510
  1.0170    0.37560
  1.0190    0.36560
  1.0210    0.35520
  1.0230    0.34430
  1.0250    0.33290
  1.0270    0.32110
  1.0290    0.30910
  1.0310    0.29640
  1.0330    0.28350
  1.0350    0.27040
  1.0370    0.25700
  1.0390    0.24340
  1.0410    0.22940
  1.0430    0.21520
  1.0450    0.20060
  1.0470    0.18570
  1.0490    0.17080
  1.0510    0.15580
  1.0530    0.14060
  1.0550    0.12540
  1.0570    0.11010
  1.0590    0.09490
  1.0610    0.07970
  1.0630    0.06450
  1.0650    0.04940
  1.0670    0.03430
  1.0690    0.01920
  1.0710    0.00410
  1.0730   -0.01070
  1.0750   -0.02530
  1.0770   -0.03980
  1.0790   -0.05420
  1.0810   -0.06840
  1.0830   -0.08230
  1.0850   -0.09590
  1.0870   -0.10930
  1.0890   -0.12230
  1.0910   -0.13510
  1.0930   -0.14750
  1.0950   -0.15950
  1.0970   -0.17130
  1.0990   -0.18270
  1.1010   -0.19370
  1.1030   -0.20440
  1.1050   -0.21470
  1.1070   -0.22460
  1.1090   -0.23410
  1.1110   -0.24330
  1.1130   -0.25200
  1.1150   -0.26030
  1.1170   -0.26810
  1.1190   -0.27560
  1.1210   -0.28260
  1.1230   -0.28910
  1.1250   -0.29520
  1.1270   -0.30080
  1.1290   -0.30600
  1.1310   -0.31080
  1.1330   -0.31520
  1.1350   -0.31920
  1.1370   -0.32290
  1.1390   -0.32610
  1.1410   -0.32880
  1.1430   -0.33110
  1.1450   -0.33300
  1.1470   -0.33450
  1.1490   -0.33550
  1.1510   -0.33620
  1.1530   -0.33650
  1.1550   -0.33640
  1.1570   -0.33610
  1.1590   -0.33530
  1.1610   -0.33410
  1.1630   -0.33250
  1.1650   -0.33060
  1.1670   -0.32830
  1.1690   -0.32560
  1.1710   -0.32250
  1.1730   -0.31910
  1.1750   -0.31540
  1.1770   -0.31140
  1.1790   -0.30700
  1.1810   -0.30240
  1.1830   -0.29760
  1.1850   -0.29250
  1.1870   -0.28700
  1.1890   -0.28120
  1.1910   -0.27530
  1.1930   -0.26910
  1.1950   -0.26270
  1.1970   -0.25600
  1.1990   -0.24920
  1.2010   -0.24230
  1.2030   -0.23520
  1.2050   -0.22790
  1.2070   -0.22030
  1.2090   -0.21270
  1.2110   -0.20500
  1.2130   -0.19720
  1.2150   -0.18930
  1.2170   -0.18140
  1.2190   -0.17330
  1.2210   -0.16530
  1.2230   -0.15730
  1.2250   -0.14920
  1.2270   -0.14120
  1.2290   -0.13310
  1.2310   -0.12510
  1.2330   -0.11710
  1.2350   -0.10920
  1.2370   -0.10140
  1.2390   -0.09370
  1.2410   -0.08610
  1.2430   -0.07870
  1.2450   -0.07130
  1.2470   -0.06410
  1.2490   -0.05700
  1.2510   -0.05010
  1.2530   -0.04340
  1.2550   -0.03680
  1.2570   -0.03050
  1.2590   -0.02450
  1.2610   -0.01870
  1.2630   -0.01300
  1.2650   -0.00780
  1.2670   -0.00270
  1.2690    0.00220
  1.2710    0.00680
  1.2730    0.01130
  1.2750    0.01540
  1.2770    0.01930
  1.2790    0.02300
  1.2810    0.02640
  1.2830    0.02950
  1.2850    0.03240
  1.2870    0.03510
  1.2890    0.03750
  1.2910    0.03970
  1.2930    0.04170
  1.2950    0.04340
  1.2970    0.04500
  1.2990    0.04630
  1.3010    0.04750
  1.3030    0.04850
  1.3050    0.04940
  1.3070    0.05000
  1.3090    0.05050
  1.3110    0.05100
  1.3130    0.05130
  1.3150    0.05150
  1.3170    0.05160
  1.3190    0.05170
  1.3210    0.05180
  1.3230    0.05180
  1.3250    0.05180
  1.3270    0.05180
  1.3290    0.05190
  1.3310    0.05210
  1.3330    0.05230
  1.3350    0.05260
  1.3370    0.05290
  1.3390    0.05330
  1.3410    0.05390
  1.3430    0.05450
  1.3450    0.05540
  1.3470    0.05650
  1.3490    0.05780
  1.3510    0.05920
  1.3530    0.06080
  1.3550    0.06270
  1.3570    0.06470
  1.3590    0.06690
  1.3610    0.06930
  1.3630    0.07190
  1.3650    0.07480
  1.3670    0.07790
  1.3690    0.08120
  1.3710    0.08470
  1.3730    0.08840
  1.3750    0.09220
  1.3770    0.09620
  1.3790    0.10040
  1.3810    0.10490
  1.3830    0.10940
  1.3850    0.11400
  1.3870    0.11850
  1.3890    0.12290
  1.3910    0.12730
  1.3930    0.13170
  1.3950    0.13590
  1.3970    0.13990
  1.3990    0.14330
