# z (nm)   (kJ/mol)
  0.3560  304.10656
  0.3580  302.06184
  0.3600  298.56101
  0.3620  296.24536
  0.3640  293.45858
  0.3660  290.88488
  0.3680  288.32417
  0.3700  285.70685
  0.3720  283.05492
  0.3740  280.25388
  0.3760  277.25536
  0.3780  274.00339
  0.3800  270.42476
  0.3820  266.45710
  0.3840  262.01238
  0.3860  257.02440
  0.3880  251.41053
  0.3900  245.09934
  0.3920  238.03435
  0.3940  230.17827
  0.3960  221.54743
  0.3980  212.21546
  0.4000  202.33530
  0.4020  192.12034
  0.4040  181.80568
  0.4060  171.55700
  0.4080  161.45944
  0.4100  151.58824
  0.4120  142.02853
  0.4140  132.84520
  0.4160  124.08665
  0.4180  115.84103
  0.4200  108.21125
  0.4220  101.21577
  0.4240   94.67495
  0.4260   88.30697
  0.4280   81.95752
  0.4300   75.78415
  0.4320   70.04372
  0.4340   64.82149
  0.4360   59.99643
  0.4380   55.44203
  0.4400   51.11804
  0.4420   47.09346
  0.4440   43.43688
  0.4460   40.11940
  0.4480   37.00510
  0.4500   33.99323
  0.4520   31.16884
  0.4540   28.67208
  0.4560   26.47108
  0.4580   24.35488
  0.4600   22.14510
  0.4620   19.87919
  0.4640   17.75230
  0.4660   15.87994
  0.4680   14.18037
  0.4700   12.54051
  0.4720   10.96313
  0.4740    9.52979
  0.4760    8.20716
  0.4780    6.89281
  0.4800    5.54768
  0.4820    4.31248
  0.4840    3.32454
  0.4860    2.52451
  0.4880    1.70659
  0.4900    0.79771
  0.4920   -0.10610
  0.4940   -0.85477
  0.4960   -1.41264
  0.4980   -1.86631
  0.5000   -2.33214
  0.5020   -2.87733
  0.5040   -3.44920
  0.5060   -3.95908
  0.5080   -4.37548
  0.5100   -4.73752
  0.5120   -5.11816
  0.5140   -5.53963
  0.5160   -5.98802
  0.5180   -6.42259
  0.5200   -6.82091
  0.5220   -7.19625
  0.5240   -7.57316
  0.5260   -7.96263
  0.5280   -8.31241
  0.5300   -8.57252
  0.5320   -8.76778
  0.5340   -8.98730
  0.5360   -9.27907
  0.5380   -9.60501
  0.5400   -9.88930
  0.5420  -10.07567
  0.5440  -10.19308
  0.5460  -10.28697
  0.5480  -10.37115
  0.5500  -10.42689
  0.5520  -10.43608
  0.5540  -10.42155
  0.5560  -10.37970
  0.5580  -10.28023
  0.5600  -10.10739
  0.5620   -9.86885
  0.5640   -9.58451
  0.5660   -9.29800
  0.5680   -9.01907
  0.5700   -8.73831
  0.5720   -8.43085
  0.5740   -8.07454
  0.5760   -7.69240
  0.5780   -7.31557
  0.5800   -6.97416
  0.5820   -6.69009
  0.5840   -6.44728
  0.5860   -6.23731
  0.5880   -6.06316
  0.5900   -5.92232
  0.5920   -5.77040
  0.5940   -5.59907
  0.5960   -5.40842
  0.5980   -5.21285
  0.6000   -5.01261
  0.6020   -4.81087
  0.6040   -4.61054
  0.6060   -4.40109
  0.6080   -4.17392
  0.6100   -3.91321
  0.6120   -3.62256
  0.6140   -3.31229
  0.6160   -3.01442
  0.6180   -2.72446
  0.6200   -2.46115
  0.6220   -2.22327
  0.6240   -1.99930
  0.6260   -1.81025
  0.6280   -1.65335
  0.6300   -1.53302
  0.6320   -1.44484
  0.6340   -1.36900
  0.6360   -1.31340
  0.6380   -1.26936
  0.6400   -1.24344
  0.6420   -1.27307
  0.6440   -1.34718
  0.6460   -1.45074
  0.6480   -1.57490
  0.6500   -1.68175
  0.6520   -1.75950
  0.6540   -1.83298
  0.6560   -1.91875
  0.6580   -2.03731
  0.6600   -2.19352
  0.6620   -2.36851
  0.6640   -2.53427
  0.6660   -2.65936
  0.6680   -2.74578
  0.6700   -2.81980
  0.6720   -2.89046
  0.6740   -2.98316
  0.6760   -3.09660
  0.6780   -3.20810
  0.6800   -3.30157
  0.6820   -3.36807
  0.6840   -3.41819
  0.6860   -3.46527
  0.6880   -3.50300
  0.6900   -3.54215
  0.6920   -3.58717
  0.6940   -3.63028
  0.6960   -3.66598
  0.6980   -3.69730
  0.7000   -3.69689
  0.7020   -3.67851
  0.7040   -3.63502
  0.7060   -3.58988
  0.7080   -3.55299
  0.7100   -3.54229
  0.7120   -3.57107
  0.7140   -3.60852
  0.7160   -3.64790
  0.7180   -3.65344
  0.7200   -3.62420
  0.7220   -3.55044
  0.7240   -3.45547
  0.7260   -3.35728
  0.7280   -3.28037
  0.7300   -3.23156
  0.7320   -3.22325
  0.7340   -3.24388
  0.7360   -3.27740
  0.7380   -3.30984
  0.7400   -3.32881
  0.7420   -3.31618
  0.7440   -3.25528
  0.7460   -3.16746
  0.7480   -3.07655
  0.7500   -2.99610
  0.7520   -2.95235
  0.7540   -2.95642
  0.7560   -2.98977
  0.7580   -3.04096
  0.7600   -3.08645
  0.7620   -3.11053
  0.7640   -3.09752
  0.7660   -3.04758
  0.7680   -2.97161
  0.7700   -2.87802
  0.7720   -2.80106
  0.7740   -2.73907
  0.7760   -2.70727
  0.7780   -2.71211
  0.7800   -2.74081
  0.7820   -2.77729
  0.7840   -2.80410
  0.7860   -2.80704
  0.7880   -2.77044
  0.7900   -2.70645
  0.7920   -2.62873
  0.7940   -2.54984
  0.7960   -2.48720
  0.7980   -2.45010
  0.8000   -2.43639
  0.8020   -2.44521
  0.8040   -2.46084
  0.8060   -2.46634
  0.8080   -2.46183
  0.8100   -2.44007
  0.8120   -2.38696
  0.8140   -2.33653
  0.8160   -2.27139
  0.8180   -2.21344
  0.8200   -2.17035
  0.8220   -2.14972
  0.8240   -2.15557
  0.8260   -2.17016
  0.8280   -2.20103
  0.8300   -2.21907
  0.8320   -2.21651
  0.8340   -2.19086
  0.8360   -2.15041
  0.8380   -2.10635
  0.8400   -2.05379
  0.8420   -2.00874
  0.8440   -1.97479
  0.8460   -1.93946
  0.8480   -1.90100
  0.8500   -1.86501
  0.8520   -1.82993
  0.8540   -1.78969
  0.8560   -1.76238
  0.8580   -1.73814
  0.8600   -1.71286
  0.8620   -1.67363
  0.8640   -1.62248
  0.8660   -1.55647
  0.8680   -1.48962
  0.8700   -1.41945
  0.8720   -1.36075
  0.8740   -1.31909
  0.8760   -1.29273
  0.8780   -1.27212
  0.8800   -1.24909
  0.8820   -1.21784
  0.8840   -1.17740
  0.8860   -1.13120
  0.8880   -1.07218
  0.8900   -1.02380
  0.8920   -0.98380
  0.8940   -0.96931
  0.8960   -0.97549
  0.8980   -0.99405
  0.9000   -1.02000
  0.9020   -1.03625
  0.9040   -1.03318
  0.9060   -1.00608
  0.9080   -0.95907
  0.9100   -0.89870
  0.9120   -0.83712
  0.9140   -0.78645
  0.9160   -0.74890
  0.9180   -0.73123
  0.9200   -0.73462
  0.9220   -0.75978
  0.9240   -0.78167
  0.9260   -0.80406
  0.9280   -0.82399
  0.9300   -0.82746
  0.9320   -0.81625
  0.9340   -0.78735
  0.9360   -0.74340
  0.9380   -0.70354
  0.9400   -0.67307
  0.9420   -0.65772
  0.9440   -0.64940
  0.9460   -0.65447
  0.9480   -0.67279
  0.9500   -0.68549
  0.9520   -0.70206
  0.9540   -0.70955
  0.9560   -0.70346
  0.9580   -0.69562
  0.9600   -0.68222
  0.9620   -0.65903
  0.9640   -0.64302
  0.9660   -0.63108
  0.9680   -0.61864
  0.9700   -0.60664
  0.9720   -0.59349
  0.9740   -0.56881
  0.9760   -0.54388
  0.9780   -0.50560
  0.9800   -0.47676
  0.9820   -0.45449
  0.9840   -0.44904
  0.9860   -0.44048
  0.9880   -0.43530
  0.9900   -0.41992
  0.9920   -0.39649
  0.9940   -0.36610
  0.9960   -0.34423
  0.9980   -0.33816
  1.0000   -0.34316
  1.0020   -0.36979
  1.0040   -0.40360
  1.0060   -0.43420
  1.0080   -0.45041
  1.0100   -0.43826
  1.0120   -0.42043
  1.0140   -0.38084
  1.0160   -0.33595
  1.0180   -0.28921
  1.0200   -0.25185
  1.0220   -0.21865
  1.0240   -0.20823
  1.0260   -0.20851
  1.0280   -0.23236
  1.0300   -0.27259
  1.0320   -0.30714
  1.0340   -0.32363
  1.0360   -0.30485
  1.0380   -0.25280
  1.0400   -0.18102
  1.0420   -0.09966
  1.0440   -0.02345
  1.0460    0.02729
  1.0480    0.04254
  1.0500    0.04000
  1.0520    0.01738
  1.0540   -0.01228
  1.0560   -0.04725
  1.0580   -0.07404
  1.0600   -0.08527
  1.0620   -0.08497
  1.0640   -0.07009
  1.0660   -0.03952
  1.0680   -0.00529
  1.0700    0.02966
  1.0720    0.05902
  1.0740    0.09068
  1.0760    0.12398
  1.0780    0.14623
  1.0800    0.16224
  1.0820    0.17522
  1.0840    0.17999
  1.0860    0.18013
  1.0880    0.17909
  1.0900    0.17876
  1.0920    0.17957
  1.0940    0.19414
  1.0960    0.22526
  1.0980    0.26428
  1.1000    0.31048
  1.1020    0.35936
  1.1040    0.40277
  1.1060    0.44152
  1.1080    0.46417
  1.1100    0.47595
  1.1120    0.47149
  1.1140    0.45742
  1.1160    0.44334
  1.1180    0.43977
  1.1200    0.45537
  1.1220    0.47493
  1.1240    0.50122
  1.1260    0.52986
  1.1280    0.55779
  1.1300    0.57982
  1.1320    0.59458
  1.1340    0.61718
  1.1360    0.63864
  1.1380    0.67166
  1.1400    0.69970
  1.1420    0.72945
  1.1440    0.76171
  1.1460    0.79283
  1.1480    0.81364
  1.1500    0.82920
  1.1520    0.83224
  1.1540    0.83206
  1.1560    0.83555
  1.1580    0.85277
  1.1600    0.87189
  1.1620    0.90073
  1.1640    0.92141
  1.1660    0.94115
  1.1680    0.94938
  1.1700    0.95418
  1.1720    0.95182
  1.1740    0.94003
  1.1760    0.92734
  1.1780    0.90966
  1.1800    0.90071
  1.1820    0.89920
  1.1840    0.91691
  1.1860    0.92571
  1.1880    0.94541
  1.1900    0.96473
  1.1920    0.97844
  1.1940    0.97642
  1.1960    0.96951
  1.1980    0.94419
  1.2000    0.91466
