# z (nm)   (kJ/mol)
  0.2180  307.81047
  0.2200  303.32960
  0.2220  299.53623
  0.2240  296.13440
  0.2260  292.85883
  0.2280  289.62297
  0.2300  286.24859
  0.2320  282.72578
  0.2340  278.99577
  0.2360  274.99996
  0.2380  270.69344
  0.2400  266.02774
  0.2420  260.94993
  0.2440  255.40775
  0.2460  249.35757
  0.2480  242.75847
  0.2500  235.58422
  0.2520  227.82527
  0.2540  219.49178
  0.2560  210.64650
  0.2580  201.36989
  0.2600  191.78108
  0.2620  182.04580
  0.2640  172.35350
  0.2660  162.92480
  0.2680  153.96213
  0.2700  145.61245
  0.2720  137.89953
  0.2740  130.73332
  0.2760  123.98468
  0.2780  117.54175
  0.2800  111.37780
  0.2820  105.58606
  0.2840  100.31720
  0.2860   95.62998
  0.2880   91.44621
  0.2900   87.64492
  0.2920   84.16678
  0.2940   80.93031
  0.2960   77.76589
  0.2980   74.53376
  0.3000   71.28675
  0.3020   68.21270
  0.3040   65.43940
  0.3060   62.95959
  0.3080   60.68363
  0.3100   58.49262
  0.3120   56.29870
  0.3140   54.08401
  0.3160   51.84693
  0.3180   49.63158
  0.3200   47.41196
  0.3220   45.09743
  0.3240   42.58289
  0.3260   39.83480
  0.3280   36.94579
  0.3300   34.00935
  0.3320   30.96737
  0.3340   27.80119
  0.3360   24.72650
  0.3380   21.98499
  0.3400   19.55286
  0.3420   17.23527
  0.3440   15.07210
  0.3460   13.18430
  0.3480   11.56635
  0.3500   10.18074
  0.3520    9.05978
  0.3540    8.22632
  0.3560    7.63193
  0.3580    7.22968
  0.3600    6.99256
  0.3620    6.86684
  0.3640    6.78867
  0.3660    6.71465
  0.3680    6.66345
  0.3700    6.67811
  0.3720    6.80115
  0.3740    7.04486
  0.3760    7.35533
  0.3780    7.64125
  0.3800    7.85363
  0.3820    8.02971
  0.3840    8.24357
  0.3860    8.59277
  0.3880    9.10687
  0.3900    9.76264
  0.3920   10.49732
  0.3940   11.26740
  0.3960   12.04611
  0.3980   12.81386
  0.4000   13.55392
  0.4020   14.23283
  0.4040   14.79465
  0.4060   15.20563
  0.4080   15.43931
  0.4100   15.49735
  0.4120   15.38938
  0.4140   15.14435
  0.4160   14.77392
  0.4180   14.26590
  0.4200   13.61507
  0.4220   12.81667
  0.4240   11.89515
  0.4260   10.89827
  0.4280    9.87505
  0.4300    8.88992
  0.4320    7.94148
  0.4340    7.03359
  0.4360    6.17104
  0.4380    5.33262
  0.4400    4.52776
  0.4420    3.76085
  0.4440    3.03326
  0.4460    2.32367
  0.4480    1.63320
  0.4500    0.96869
  0.4520    0.32389
  0.4540   -0.28915
  0.4560   -0.86605
  0.4580   -1.39986
  0.4600   -1.86426
  0.4620   -2.27283
  0.4640   -2.62576
  0.4660   -2.92237
  0.4680   -3.16786
  0.4700   -3.35885
  0.4720   -3.50279
  0.4740   -3.59997
  0.4760   -3.64614
  0.4780   -3.64781
  0.4800   -3.61785
  0.4820   -3.55056
  0.4840   -3.45311
  0.4860   -3.32964
  0.4880   -3.18867
  0.4900   -3.02166
  0.4920   -2.83223
  0.4940   -2.61579
  0.4960   -2.37453
  0.4980   -2.08798
  0.5000   -1.75649
  0.5020   -1.36571
  0.5040   -0.93296
  0.5060   -0.46009
  0.5080    0.03058
  0.5100    0.52453
  0.5120    1.00428
  0.5140    1.47044
  0.5160    1.91585
  0.5180    2.32508
  0.5200    2.69932
  0.5220    3.03833
  0.5240    3.31284
  0.5260    3.51119
  0.5280    3.62721
  0.5300    3.63808
  0.5320    3.55095
  0.5340    3.36606
  0.5360    3.08406
  0.5380    2.75195
  0.5400    2.39013
  0.5420    2.02673
  0.5440    1.68024
  0.5460    1.34282
  0.5480    1.02462
  0.5500    0.71362
  0.5520    0.42376
  0.5540    0.15710
  0.5560   -0.08265
  0.5580   -0.29084
  0.5600   -0.47353
  0.5620   -0.63621
  0.5640   -0.78842
  0.5660   -0.93457
  0.5680   -1.07029
  0.5700   -1.19455
  0.5720   -1.30190
  0.5740   -1.39246
  0.5760   -1.45920
  0.5780   -1.51555
  0.5800   -1.54405
  0.5820   -1.55323
  0.5840   -1.54811
  0.5860   -1.52780
  0.5880   -1.50981
  0.5900   -1.48941
  0.5920   -1.46963
  0.5940   -1.43409
  0.5960   -1.39280
  0.5980   -1.34369
  0.6000   -1.28540
  0.6020   -1.22148
  0.6040   -1.13796
  0.6060   -1.04402
  0.6080   -0.93890
  0.6100   -0.82425
  0.6120   -0.71398
  0.6140   -0.60177
  0.6160   -0.49917
  0.6180   -0.40119
  0.6200   -0.30858
  0.6220   -0.21989
  0.6240   -0.12992
  0.6260   -0.03707
  0.6280    0.05593
  0.6300    0.14616
  0.6320    0.22634
  0.6340    0.29497
  0.6360    0.34838
  0.6380    0.38500
  0.6400    0.41491
  0.6420    0.44385
  0.6440    0.46727
  0.6460    0.49221
  0.6480    0.52729
  0.6500    0.55966
  0.6520    0.58578
  0.6540    0.60952
  0.6560    0.60935
  0.6580    0.60541
  0.6600    0.59851
  0.6620    0.57218
  0.6640    0.53976
  0.6660    0.51260
  0.6680    0.48581
  0.6700    0.46150
  0.6720    0.44293
  0.6740    0.42748
  0.6760    0.40377
  0.6780    0.37938
  0.6800    0.35212
  0.6820    0.32534
  0.6840    0.28284
  0.6860    0.24410
  0.6880    0.20776
  0.6900    0.17279
  0.6920    0.15371
  0.6940    0.15145
  0.6960    0.15720
  0.6980    0.15721
  0.7000    0.15117
  0.7020    0.14544
  0.7040    0.13373
  0.7060    0.11109
  0.7080    0.08900
  0.7100    0.07024
  0.7120    0.04317
  0.7140    0.02399
  0.7160    0.01587
  0.7180    0.01441
  0.7200    0.01495
  0.7220    0.01481
  0.7240    0.00817
  0.7260   -0.00063
  0.7280   -0.01533
  0.7300   -0.02549
  0.7320   -0.03727
  0.7340   -0.05286
  0.7360   -0.06004
  0.7380   -0.06198
  0.7400   -0.06217
  0.7420   -0.06366
  0.7440   -0.06937
  0.7460   -0.07838
  0.7480   -0.09271
  0.7500   -0.11201
  0.7520   -0.13277
  0.7540   -0.14776
  0.7560   -0.15848
  0.7580   -0.16681
  0.7600   -0.16616
  0.7620   -0.15957
  0.7640   -0.15112
  0.7660   -0.14594
  0.7680   -0.15144
  0.7700   -0.16242
  0.7720   -0.18243
  0.7740   -0.21429
  0.7760   -0.25451
  0.7780   -0.30610
  0.7800   -0.34901
  0.7820   -0.39414
  0.7840   -0.42584
  0.7860   -0.44414
  0.7880   -0.45980
  0.7900   -0.45631
  0.7920   -0.43672
  0.7940   -0.41047
  0.7960   -0.37968
  0.7980   -0.35676
  0.8000   -0.34778
  0.8020   -0.34853
  0.8040   -0.36312
  0.8060   -0.37561
  0.8080   -0.36934
  0.8100   -0.33212
  0.8120   -0.24698
  0.8140   -0.13909
  0.8160   -0.04348
  0.8180   -0.02130
  0.8200   -0.14051
  0.8220   -0.40168
  0.8240   -0.75301
  0.8260   -1.03417
  0.8280   -1.10397
  0.8300   -0.90788
  0.8320   -0.53520
  0.8340   -0.13059
  0.8360    0.15913
  0.8380    0.27174
  0.8400    0.22322
  0.8420    0.07547
  0.8440   -0.09983
  0.8460   -0.25258
  0.8480   -0.36269
  0.8500   -0.41978
  0.8520   -0.43177
  0.8540   -0.41277
  0.8560   -0.36206
  0.8580   -0.28995
  0.8600   -0.21170
  0.8620   -0.12843
  0.8640   -0.05984
  0.8660    0.00137
  0.8680    0.04875
  0.8700    0.08052
  0.8720    0.10434
  0.8740    0.10301
  0.8760    0.08952
  0.8780    0.06979
  0.8800    0.04447
  0.8820    0.01586
  0.8840   -0.00788
  0.8860   -0.03043
  0.8880   -0.03979
  0.8900   -0.04408
  0.8920   -0.04201
  0.8940   -0.03276
  0.8960   -0.01494
  0.8980    0.00976
  0.9000    0.02798
  0.9020    0.04831
  0.9040    0.06811
  0.9060    0.08465
  0.9080    0.08777
  0.9100    0.08837
  0.9120    0.08652
  0.9140    0.08903
  0.9160    0.08737
  0.9180    0.08631
  0.9200    0.08897
  0.9220    0.10154
  0.9240    0.11473
  0.9260    0.12414
  0.9280    0.14428
  0.9300    0.16090
  0.9320    0.17795
  0.9340    0.19363
  0.9360    0.19851
  0.9380    0.20227
  0.9400    0.20242
  0.9420    0.20178
  0.9440    0.20656
  0.9460    0.20982
  0.9480    0.20865
  0.9500    0.20999
  0.9520    0.22146
  0.9540    0.23623
  0.9560    0.25224
  0.9580    0.26528
  0.9600    0.27933
  0.9620    0.28595
  0.9640    0.28788
  0.9660    0.28685
  0.9680    0.27498
  0.9700    0.26817
  0.9720    0.25771
  0.9740    0.24657
  0.9760    0.23676
  0.9780    0.22690
  0.9800    0.21961
  0.9820    0.22139
  0.9840    0.22358
  0.9860    0.22644
  0.9880    0.22930
  0.9900    0.23712
  0.9920    0.23434
  0.9940    0.23329
  0.9960    0.23360
  0.9980    0.23229
  1.0000    0.22809
  1.0020    0.22737
  1.0040    0.22254
  1.0060    0.21583
  1.0080    0.20901
  1.0100    0.19002
  1.0120    0.17494
  1.0140    0.15287
  1.0160    0.12719
  1.0180    0.09423
  1.0200    0.06186
  1.0220    0.03025
  1.0240    0.00194
  1.0260   -0.01702
  1.0280   -0.02107
  1.0300   -0.02351
  1.0320   -0.01199
  1.0340    0.00515
  1.0360    0.02395
  1.0380    0.04206
  1.0400    0.05916
  1.0420    0.06856
  1.0440    0.07501
  1.0460    0.07344
  1.0480    0.06120
  1.0500    0.03816
  1.0520    0.00782
  1.0540   -0.02269
  1.0560   -0.06049
  1.0580   -0.09716
  1.0600   -0.12859
  1.0620   -0.15252
  1.0640   -0.17041
  1.0660   -0.17668
  1.0680   -0.17655
  1.0700   -0.17040
  1.0720   -0.15730
  1.0740   -0.14571
  1.0760   -0.13980
  1.0780   -0.12986
  1.0800   -0.13525
  1.0820   -0.15250
  1.0840   -0.17523
  1.0860   -0.20705
  1.0880   -0.24463
  1.0900   -0.27413
  1.0920   -0.30480
  1.0940   -0.32036
  1.0960   -0.32576
  1.0980   -0.31664
  1.1000   -0.29796
  1.1020   -0.26916
  1.1040   -0.23342
  1.1060   -0.19605
  1.1080   -0.16080
  1.1100   -0.14290
  1.1120   -0.13205
  1.1140   -0.12901
  1.1160   -0.13842
  1.1180   -0.15713
  1.1200   -0.18251
  1.1220   -0.20828
  1.1240   -0.22998
  1.1260   -0.25008
  1.1280   -0.26738
  1.1300   -0.27213
  1.1320   -0.26955
  1.1340   -0.26744
  1.1360   -0.24841
  1.1380   -0.21945
  1.1400   -0.18962
  1.1420   -0.15466
  1.1440   -0.12226
  1.1460   -0.09813
  1.1480   -0.07844
  1.1500   -0.07059
  1.1520   -0.07237
  1.1540   -0.09248
  1.1560   -0.11108
  1.1580   -0.14125
  1.1600   -0.16242
  1.1620   -0.17139
  1.1640   -0.17677
  1.1660   -0.16814
  1.1680   -0.15043
  1.1700   -0.13175
  1.1720   -0.11283
  1.1740   -0.09954
  1.1760   -0.08935
  1.1780   -0.07947
  1.1800   -0.07779
  1.1820   -0.07556
  1.1840   -0.06935
  1.1860   -0.06771
  1.1880   -0.06218
  1.1900   -0.06065
  1.1920   -0.06023
  1.1940   -0.06611
  1.1960   -0.07025
  1.1980   -0.07903
  1.2000   -0.08844
