# z (nm)   (kJ/mol)
  0.2320  315.98954
  0.2340  311.94634
  0.2360  307.98856
  0.2380  304.46120
  0.2400  301.06339
  0.2420  297.77058
  0.2440  294.54057
  0.2460  291.23626
  0.2480  287.80006
  0.2500  284.19637
  0.2520  280.41475
  0.2540  276.42762
  0.2560  272.21066
  0.2580  267.74390
  0.2600  263.00572
  0.2620  257.98140
  0.2640  252.65813
  0.2660  247.02739
  0.2680  241.09107
  0.2700  234.86624
  0.2720  228.38602
  0.2740  221.70401
  0.2760  214.90257
  0.2780  208.08486
  0.2800  201.36917
  0.2820  194.88022
  0.2840  188.73165
  0.2860  183.00369
  0.2880  177.74471
  0.2900  172.95003
  0.2920  168.57671
  0.2940  164.57300
  0.2960  160.89335
  0.2980  157.51195
  0.3000  154.41602
  0.3020  151.58584
  0.3040  148.99441
  0.3060  146.60528
  0.3080  144.35361
  0.3100  142.16179
  0.3120  139.94972
  0.3140  137.69815
  0.3160  135.44986
  0.3180  133.25499
  0.3200  131.15647
  0.3220  129.16192
  0.3240  127.27238
  0.3260  125.49075
  0.3280  123.84284
  0.3300  122.30989
  0.3320  120.82607
  0.3340  119.31334
  0.3360  117.75023
  0.3380  116.15172
  0.3400  114.59409
  0.3420  113.15370
  0.3440  111.83266
  0.3460  110.57178
  0.3480  109.29110
  0.3500  107.92017
  0.3520  106.46944
  0.3540  105.00800
  0.3560  103.58947
  0.3580  102.20350
  0.3600  100.69368
  0.3620   98.81873
  0.3640   96.40683
  0.3660   93.52477
  0.3680   90.48679
  0.3700   87.57073
  0.3720   84.82785
  0.3740   82.10109
  0.3760   79.28013
  0.3780   76.35610
  0.3800   73.45824
  0.3820   70.68297
  0.3840   67.97290
  0.3860   65.29339
  0.3880   62.72705
  0.3900   60.40039
  0.3920   58.37268
  0.3940   56.62570
  0.3960   55.09390
  0.3980   53.66567
  0.4000   52.26791
  0.4020   50.93526
  0.4040   49.76778
  0.4060   48.81906
  0.4080   48.08672
  0.4100   47.53908
  0.4120   47.11446
  0.4140   46.80489
  0.4160   46.58173
  0.4180   46.40914
  0.4200   46.24489
  0.4220   46.06832
  0.4240   45.87025
  0.4260   45.66016
  0.4280   45.44904
  0.4300   45.22070
  0.4320   44.95571
  0.4340   44.58629
  0.4360   44.06069
  0.4380   43.30413
  0.4400   42.29712
  0.4420   41.03488
  0.4440   39.58383
  0.4460   38.03258
  0.4480   36.46670
  0.4500   34.95759
  0.4520   33.51890
  0.4540   32.12463
  0.4560   30.72722
  0.4580   29.32110
  0.4600   27.93739
  0.4620   26.59644
  0.4640   25.34418
  0.4660   24.19872
  0.4680   23.15046
  0.4700   22.18635
  0.4720   21.28729
  0.4740   20.41426
  0.4760   19.56282
  0.4780   18.73002
  0.4800   17.92806
  0.4820   17.18069
  0.4840   16.48718
  0.4860   15.85539
  0.4880   15.28509
  0.4900   14.75952
  0.4920   14.26314
  0.4940   13.78461
  0.4960   13.31827
  0.4980   12.86368
  0.5000   12.43801
  0.5020   12.05357
  0.5040   11.71597
  0.5060   11.42884
  0.5080   11.18606
  0.5100   10.97559
  0.5120   10.77490
  0.5140   10.57331
  0.5160   10.35900
  0.5180   10.12992
  0.5200    9.90956
  0.5220    9.69093
  0.5240    9.49723
  0.5260    9.33488
  0.5280    9.19307
  0.5300    9.06468
  0.5320    8.93031
  0.5340    8.76554
  0.5360    8.55378
  0.5380    8.29727
  0.5400    8.01504
  0.5420    7.70520
  0.5440    7.41694
  0.5460    7.15459
  0.5480    6.92689
  0.5500    6.73995
  0.5520    6.57844
  0.5540    6.42478
  0.5560    6.26666
  0.5580    6.09036
  0.5600    5.89153
  0.5620    5.66464
  0.5640    5.43073
  0.5660    5.18373
  0.5680    4.94809
  0.5700    4.72108
  0.5720    4.50737
  0.5740    4.30900
  0.5760    4.12537
  0.5780    3.94525
  0.5800    3.77083
  0.5820    3.58556
  0.5840    3.39804
  0.5860    3.20378
  0.5880    2.99744
  0.5900    2.78148
  0.5920    2.56309
  0.5940    2.34908
  0.5960    2.14330
  0.5980    1.94609
  0.6000    1.76816
  0.6020    1.61588
  0.6040    1.47462
  0.6060    1.35377
  0.6080    1.24581
  0.6100    1.14463
  0.6120    1.04433
  0.6140    0.94501
  0.6160    0.85533
  0.6180    0.77500
  0.6200    0.69836
  0.6220    0.62532
  0.6240    0.56571
  0.6260    0.51371
  0.6280    0.47774
  0.6300    0.44338
  0.6320    0.42102
  0.6340    0.40682
  0.6360    0.39941
  0.6380    0.38776
  0.6400    0.38082
  0.6420    0.37778
  0.6440    0.37703
  0.6460    0.37828
  0.6480    0.39387
  0.6500    0.41761
  0.6520    0.44924
  0.6540    0.48541
  0.6560    0.53531
  0.6580    0.58212
  0.6600    0.61904
  0.6620    0.63563
  0.6640    0.64811
  0.6660    0.63775
  0.6680    0.62793
  0.6700    0.62156
  0.6720    0.60984
  0.6740    0.59738
  0.6760    0.58189
  0.6780    0.55888
  0.6800    0.52695
  0.6820    0.48344
  0.6840    0.43245
  0.6860    0.37926
  0.6880    0.33669
  0.6900    0.29166
  0.6920    0.24660
  0.6940    0.21130
  0.6960    0.18590
  0.6980    0.14927
  0.7000    0.10682
  0.7020    0.05650
  0.7040    0.00092
  0.7060   -0.07216
  0.7080   -0.16572
  0.7100   -0.25834
  0.7120   -0.35560
  0.7140   -0.44884
  0.7160   -0.53353
  0.7180   -0.59357
  0.7200   -0.62943
  0.7220   -0.65438
  0.7240   -0.66967
  0.7260   -0.67648
  0.7280   -0.68597
  0.7300   -0.69755
  0.7320   -0.73599
  0.7340   -0.79711
  0.7360   -0.86673
  0.7380   -0.94824
  0.7400   -1.02866
  0.7420   -1.10386
  0.7440   -1.17148
  0.7460   -1.22096
  0.7480   -1.25962
  0.7500   -1.27477
  0.7520   -1.28274
  0.7540   -1.27728
  0.7560   -1.27028
  0.7580   -1.26009
  0.7600   -1.26335
  0.7620   -1.27455
  0.7640   -1.29710
  0.7660   -1.32124
  0.7680   -1.34936
  0.7700   -1.37782
  0.7720   -1.40269
  0.7740   -1.42279
  0.7760   -1.43237
  0.7780   -1.43814
  0.7800   -1.43126
  0.7820   -1.42473
  0.7840   -1.42531
  0.7860   -1.42216
  0.7880   -1.41785
  0.7900   -1.42180
  0.7920   -1.42065
  0.7940   -1.41381
  0.7960   -1.40981
  0.7980   -1.39279
  0.8000   -1.36791
  0.8020   -1.34053
  0.8040   -1.31277
  0.8060   -1.28463
  0.8080   -1.25841
  0.8100   -1.24311
  0.8120   -1.24165
  0.8140   -1.24008
  0.8160   -1.24265
  0.8180   -1.24860
  0.8200   -1.26053
  0.8220   -1.27119
  0.8240   -1.27756
  0.8260   -1.27873
  0.8280   -1.27508
  0.8300   -1.26976
  0.8320   -1.25809
  0.8340   -1.24100
  0.8360   -1.21836
  0.8380   -1.18301
  0.8400   -1.14488
  0.8420   -1.09947
  0.8440   -1.04484
  0.8460   -0.99132
  0.8480   -0.94686
  0.8500   -0.91091
  0.8520   -0.88782
  0.8540   -0.87846
  0.8560   -0.87979
  0.8580   -0.88758
  0.8600   -0.89643
  0.8620   -0.90492
  0.8640   -0.90273
  0.8660   -0.89099
  0.8680   -0.86972
  0.8700   -0.85166
  0.8720   -0.82896
  0.8740   -0.81008
  0.8760   -0.78507
  0.8780   -0.75855
  0.8800   -0.72778
  0.8820   -0.68969
  0.8840   -0.65299
  0.8860   -0.61763
  0.8880   -0.58217
  0.8900   -0.55379
  0.8920   -0.52041
  0.8940   -0.48807
  0.8960   -0.46657
  0.8980   -0.44994
  0.9000   -0.43856
  0.9020   -0.43284
  0.9040   -0.42944
  0.9060   -0.42291
  0.9080   -0.41295
  0.9100   -0.39719
  0.9120   -0.38652
  0.9140   -0.36580
  0.9160   -0.33451
  0.9180   -0.30064
  0.9200   -0.27345
  0.9220   -0.23276
  0.9240   -0.19948
  0.9260   -0.16937
  0.9280   -0.14722
  0.9300   -0.12655
  0.9320   -0.11585
  0.9340   -0.10356
  0.9360   -0.09116
  0.9380   -0.08033
  0.9400   -0.06586
  0.9420   -0.04649
  0.9440   -0.01690
  0.9460   -0.00107
  0.9480    0.01683
  0.9500    0.02979
  0.9520    0.04610
  0.9540    0.05233
  0.9560    0.05493
  0.9580    0.05676
  0.9600    0.05643
  0.9620    0.06269
  0.9640    0.06616
  0.9660    0.06969
  0.9680    0.07303
  0.9700    0.07198
  0.9720    0.07254
  0.9740    0.07368
  0.9760    0.07196
  0.9780    0.06516
  0.9800    0.05970
  0.9820    0.05719
  0.9840    0.05527
  0.9860    0.04880
  0.9880    0.04627
  0.9900    0.05369
  0.9920    0.05481
  0.9940    0.05341
  0.9960    0.05240
  0.9980    0.04519
  1.0000    0.03828
  1.0020    0.03171
  1.0040    0.01646
  1.0060    0.00449
  1.0080   -0.00617
  1.0100   -0.02008
  1.0120   -0.02867
  1.0140   -0.03588
  1.0160   -0.03713
  1.0180   -0.03291
  1.0200   -0.01994
  1.0220   -0.00975
  1.0240    0.00141
  1.0260    0.00711
  1.0280    0.01426
  1.0300    0.01604
  1.0320    0.01400
  1.0340    0.00482
  1.0360   -0.00926
  1.0380   -0.02168
  1.0400   -0.03004
  1.0420   -0.03934
  1.0440   -0.04410
  1.0460   -0.04359
  1.0480   -0.04219
  1.0500   -0.03517
  1.0520   -0.02641
  1.0540   -0.01080
  1.0560    0.00133
  1.0580    0.00583
  1.0600    0.00908
  1.0620    0.01574
  1.0640    0.01586
  1.0660    0.01187
  1.0680    0.00249
  1.0700   -0.00628
  1.0720   -0.01866
  1.0740   -0.02713
  1.0760   -0.04390
  1.0780   -0.05756
  1.0800   -0.06593
  1.0820   -0.07553
  1.0840   -0.08080
  1.0860   -0.08100
  1.0880   -0.07842
  1.0900   -0.07050
  1.0920   -0.06676
  1.0940   -0.06170
  1.0960   -0.05052
  1.0980   -0.04303
  1.1000   -0.04128
  1.1020   -0.03649
  1.1040   -0.03309
  1.1060   -0.02473
  1.1080   -0.02151
  1.1100   -0.01874
  1.1120   -0.01612
  1.1140   -0.01275
  1.1160   -0.01336
  1.1180   -0.01313
  1.1200   -0.01047
  1.1220   -0.00947
  1.1240   -0.00688
  1.1260    0.00657
  1.1280    0.01959
  1.1300    0.02874
  1.1320    0.04395
  1.1340    0.05886
  1.1360    0.06782
  1.1380    0.07970
  1.1400    0.08998
  1.1420    0.09341
  1.1440    0.09614
  1.1460    0.09311
  1.1480    0.09352
  1.1500    0.09198
  1.1520    0.09130
  1.1540    0.09260
  1.1560    0.09561
  1.1580    0.10623
  1.1600    0.11898
  1.1620    0.13582
  1.1640    0.15244
  1.1660    0.16781
  1.1680    0.18545
  1.1700    0.18962
  1.1720    0.19682
  1.1740    0.19590
  1.1760    0.19272
  1.1780    0.18732
  1.1800    0.18256
  1.1820    0.17751
  1.1840    0.17671
  1.1860    0.17554
  1.1880    0.17735
  1.1900    0.18099
  1.1920    0.18898
  1.1940    0.19515
  1.1960    0.19840
  1.1980    0.21015
  1.2000    0.21881
