# z (nm)   (kJ/mol)
  0.2440  311.85567
  0.2460  303.54342
  0.2480  299.66727
  0.2500  295.77660
  0.2520  292.06921
  0.2540  288.34286
  0.2560  284.48636
  0.2580  280.48993
  0.2600  276.33178
  0.2620  271.98280
  0.2640  267.44137
  0.2660  262.68634
  0.2680  257.70699
  0.2700  252.49397
  0.2720  247.02715
  0.2740  241.30619
  0.2760  235.31875
  0.2780  229.06854
  0.2800  222.58783
  0.2820  215.93846
  0.2840  209.21951
  0.2860  202.54100
  0.2880  196.01537
  0.2900  189.73106
  0.2920  183.73951
  0.2940  178.08099
  0.2960  172.78269
  0.2980  167.87597
  0.3000  163.36696
  0.3020  159.26214
  0.3040  155.55244
  0.3060  152.21300
  0.3080  149.20896
  0.3100  146.49280
  0.3120  144.00998
  0.3140  141.71385
  0.3160  139.56558
  0.3180  137.53527
  0.3200  135.60208
  0.3220  133.76662
  0.3240  132.03941
  0.3260  130.44893
  0.3280  129.01934
  0.3300  127.74544
  0.3320  126.58063
  0.3340  125.44726
  0.3360  124.26450
  0.3380  123.02562
  0.3400  121.78508
  0.3420  120.62877
  0.3440  119.63805
  0.3460  118.83778
  0.3480  118.20929
  0.3500  117.67180
  0.3520  117.14148
  0.3540  116.58660
  0.3560  116.03623
  0.3580  115.52113
  0.3600  115.02303
  0.3620  114.46062
  0.3640  113.78646
  0.3660  113.05525
  0.3680  112.42701
  0.3700  112.03735
  0.3720  111.87040
  0.3740  111.67035
  0.3760  111.23286
  0.3780  110.52454
  0.3800  109.70350
  0.3820  109.01831
  0.3840  108.62775
  0.3860  108.40873
  0.3880  108.05782
  0.3900  107.26801
  0.3920  105.95796
  0.3940  104.29816
  0.3960  102.50125
  0.3980  100.61038
  0.4000   98.50147
  0.4020   96.04788
  0.4040   93.23071
  0.4060   90.18228
  0.4080   87.02731
  0.4100   83.84154
  0.4120   80.66431
  0.4140   77.51846
  0.4160   74.45273
  0.4180   71.47139
  0.4200   68.55458
  0.4220   65.68117
  0.4240   62.83044
  0.4260   59.95589
  0.4280   57.06332
  0.4300   54.19760
  0.4320   51.41155
  0.4340   48.76689
  0.4360   46.27346
  0.4380   43.92493
  0.4400   41.68695
  0.4420   39.56746
  0.4440   37.58014
  0.4460   35.74405
  0.4480   34.04235
  0.4500   32.46704
  0.4520   31.00033
  0.4540   29.62854
  0.4560   28.33067
  0.4580   27.07678
  0.4600   25.86064
  0.4620   24.67132
  0.4640   23.50666
  0.4660   22.37842
  0.4680   21.30218
  0.4700   20.29702
  0.4720   19.36161
  0.4740   18.48759
  0.4760   17.65570
  0.4780   16.84998
  0.4800   16.07326
  0.4820   15.30341
  0.4840   14.57192
  0.4860   13.87908
  0.4880   13.24273
  0.4900   12.65993
  0.4920   12.12065
  0.4940   11.61822
  0.4960   11.13204
  0.4980   10.65596
  0.5000   10.20492
  0.5020    9.77627
  0.5040    9.37871
  0.5060    9.00094
  0.5080    8.65535
  0.5100    8.31585
  0.5120    7.99274
  0.5140    7.67655
  0.5160    7.37372
  0.5180    7.09058
  0.5200    6.83509
  0.5220    6.60306
  0.5240    6.37717
  0.5260    6.13937
  0.5280    5.87601
  0.5300    5.59170
  0.5320    5.29889
  0.5340    5.01429
  0.5360    4.75714
  0.5380    4.53140
  0.5400    4.34215
  0.5420    4.16887
  0.5440    4.01939
  0.5460    3.88305
  0.5480    3.80820
  0.5500    3.80940
  0.5520    3.89248
  0.5540    4.02860
  0.5560    4.18247
  0.5580    4.33436
  0.5600    4.49721
  0.5620    4.70691
  0.5640    4.98394
  0.5660    5.34096
  0.5680    5.76694
  0.5700    6.24478
  0.5720    6.73246
  0.5740    7.20260
  0.5760    7.62837
  0.5780    7.99306
  0.5800    8.27828
  0.5820    8.48391
  0.5840    8.61129
  0.5860    8.65855
  0.5880    8.64254
  0.5900    8.56625
  0.5920    8.43936
  0.5940    8.26981
  0.5960    8.07387
  0.5980    7.85827
  0.6000    7.64400
  0.6020    7.42302
  0.6040    7.21199
  0.6060    7.01166
  0.6080    6.82404
  0.6100    6.61970
  0.6120    6.40040
  0.6140    6.15831
  0.6160    5.90036
  0.6180    5.62668
  0.6200    5.35483
  0.6220    5.10165
  0.6240    4.87344
  0.6260    4.67413
  0.6280    4.49882
  0.6300    4.33545
  0.6320    4.18418
  0.6340    4.03707
  0.6360    3.87388
  0.6380    3.71110
  0.6400    3.53024
  0.6420    3.34233
  0.6440    3.14938
  0.6460    2.96388
  0.6480    2.78470
  0.6500    2.61591
  0.6520    2.47072
  0.6540    2.34100
  0.6560    2.23228
  0.6580    2.12844
  0.6600    2.04273
  0.6620    1.95894
  0.6640    1.88660
  0.6660    1.81496
  0.6680    1.75245
  0.6700    1.67882
  0.6720    1.59075
  0.6740    1.47985
  0.6760    1.36385
  0.6780    1.23148
  0.6800    1.09728
  0.6820    0.98087
  0.6840    0.88375
  0.6860    0.82266
  0.6880    0.78064
  0.6900    0.75783
  0.6920    0.73540
  0.6940    0.70946
  0.6960    0.65663
  0.6980    0.57239
  0.7000    0.47734
  0.7020    0.36794
  0.7040    0.26122
  0.7060    0.16976
  0.7080    0.08548
  0.7100    0.02074
  0.7120   -0.04115
  0.7140   -0.09067
  0.7160   -0.14154
  0.7180   -0.19198
  0.7200   -0.24650
  0.7220   -0.30119
  0.7240   -0.34715
  0.7260   -0.39678
  0.7280   -0.43357
  0.7300   -0.46076
  0.7320   -0.48718
  0.7340   -0.50694
  0.7360   -0.52782
  0.7380   -0.56187
  0.7400   -0.60976
  0.7420   -0.66788
  0.7440   -0.73546
  0.7460   -0.79671
  0.7480   -0.84902
  0.7500   -0.88090
  0.7520   -0.88181
  0.7540   -0.86795
  0.7560   -0.83909
  0.7580   -0.80255
  0.7600   -0.76546
  0.7620   -0.75891
  0.7640   -0.76783
  0.7660   -0.78554
  0.7680   -0.81436
  0.7700   -0.84232
  0.7720   -0.87276
  0.7740   -0.89304
  0.7760   -0.91075
  0.7780   -0.91701
  0.7800   -0.90831
  0.7820   -0.88727
  0.7840   -0.85934
  0.7860   -0.81576
  0.7880   -0.76698
  0.7900   -0.71160
  0.7920   -0.65709
  0.7940   -0.59945
  0.7960   -0.54647
  0.7980   -0.49911
  0.8000   -0.46811
  0.8020   -0.44442
  0.8040   -0.42502
  0.8060   -0.41504
  0.8080   -0.40668
  0.8100   -0.39466
  0.8120   -0.37407
  0.8140   -0.35154
  0.8160   -0.32804
  0.8180   -0.30329
  0.8200   -0.27618
  0.8220   -0.23937
  0.8240   -0.20643
  0.8260   -0.16767
  0.8280   -0.12833
  0.8300   -0.09146
  0.8320   -0.05218
  0.8340   -0.01875
  0.8360   -0.00060
  0.8380    0.00758
  0.8400    0.00215
  0.8420   -0.01840
  0.8440   -0.03489
  0.8460   -0.05825
  0.8480   -0.07373
  0.8500   -0.07836
  0.8520   -0.06775
  0.8540   -0.04624
  0.8560   -0.01728
  0.8580    0.02495
  0.8600    0.07413
  0.8620    0.12119
  0.8640    0.16241
  0.8660    0.19623
  0.8680    0.21888
  0.8700    0.23088
  0.8720    0.22840
  0.8740    0.21508
  0.8760    0.19353
  0.8780    0.16826
  0.8800    0.14512
  0.8820    0.13083
  0.8840    0.12242
  0.8860    0.12332
  0.8880    0.13199
  0.8900    0.15057
  0.8920    0.16870
  0.8940    0.19274
  0.8960    0.21303
  0.8980    0.22404
  0.9000    0.23196
  0.9020    0.22587
  0.9040    0.21368
  0.9060    0.19872
  0.9080    0.18582
  0.9100    0.16735
  0.9120    0.14707
  0.9140    0.13403
  0.9160    0.12688
  0.9180    0.11715
  0.9200    0.10904
  0.9220    0.10188
  0.9240    0.09747
  0.9260    0.08959
  0.9280    0.08082
  0.9300    0.06515
  0.9320    0.05057
  0.9340    0.03656
  0.9360    0.02803
  0.9380    0.02466
  0.9400    0.01661
  0.9420    0.00967
  0.9440    0.00425
  0.9460    0.00140
  0.9480    0.00043
  0.9500   -0.00436
  0.9520   -0.00811
  0.9540   -0.01136
  0.9560   -0.01885
  0.9580   -0.02261
  0.9600   -0.03260
  0.9620   -0.03635
  0.9640   -0.04606
  0.9660   -0.05958
  0.9680   -0.07579
  0.9700   -0.07815
  0.9720   -0.08821
  0.9740   -0.09621
  0.9760   -0.09948
  0.9780   -0.09726
  0.9800   -0.09127
  0.9820   -0.09031
  0.9840   -0.08690
  0.9860   -0.08186
  0.9880   -0.08372
  0.9900   -0.08750
  0.9920   -0.08859
  0.9940   -0.09550
  0.9960   -0.10997
  0.9980   -0.12247
  1.0000   -0.13384
  1.0020   -0.14494
  1.0040   -0.15447
  1.0060   -0.16510
  1.0080   -0.17478
  1.0100   -0.18993
  1.0120   -0.19903
  1.0140   -0.20674
  1.0160   -0.20796
  1.0180   -0.19807
  1.0200   -0.17438
  1.0220   -0.13537
  1.0240   -0.09805
  1.0260   -0.04854
  1.0280   -0.00327
  1.0300    0.01813
  1.0320    0.01187
  1.0340   -0.02404
  1.0360   -0.08583
  1.0380   -0.16941
  1.0400   -0.24603
  1.0420   -0.30814
  1.0440   -0.32590
  1.0460   -0.29526
  1.0480   -0.22037
  1.0500   -0.12178
  1.0520   -0.00106
  1.0540    0.09835
  1.0560    0.16267
  1.0580    0.18553
  1.0600    0.15765
  1.0620    0.10197
  1.0640    0.03356
  1.0660   -0.03026
  1.0680   -0.08179
  1.0700   -0.10717
  1.0720   -0.09957
  1.0740   -0.06783
  1.0760   -0.02140
  1.0780    0.03756
  1.0800    0.08144
  1.0820    0.10598
  1.0840    0.11812
  1.0860    0.11979
  1.0880    0.10953
  1.0900    0.08839
  1.0920    0.06618
  1.0940    0.05122
  1.0960    0.03368
  1.0980    0.02321
  1.1000    0.01711
  1.1020    0.01538
  1.1040    0.02106
  1.1060    0.02428
  1.1080    0.02507
  1.1100    0.02919
  1.1120    0.03512
  1.1140    0.04443
  1.1160    0.05282
  1.1180    0.06389
  1.1200    0.07424
  1.1220    0.07716
  1.1240    0.08920
  1.1260    0.08804
  1.1280    0.07243
  1.1300    0.06476
  1.1320    0.05008
  1.1340    0.03270
  1.1360    0.02169
  1.1380    0.00943
  1.1400    0.00201
  1.1420    0.00279
  1.1440    0.00675
  1.1460    0.02297
  1.1480    0.04116
  1.1500    0.06524
  1.1520    0.09822
  1.1540    0.11987
  1.1560    0.13480
  1.1580    0.14225
  1.1600    0.13377
  1.1620    0.11251
  1.1640    0.07815
  1.1660    0.04335
  1.1680    0.00496
  1.1700   -0.03179
  1.1720   -0.05358
  1.1740   -0.05952
  1.1760   -0.05484
  1.1780   -0.04080
  1.1800   -0.01451
  1.1820    0.01141
  1.1840    0.04458
  1.1860    0.06756
  1.1880    0.08992
  1.1900    0.09675
  1.1920    0.10408
  1.1940    0.09486
  1.1960    0.07350
  1.1980    0.05106
  1.2000    0.02030
