# z (nm)   (kJ/mol)
  0.0820  276.48107
  0.0840  274.25493
  0.0860  270.36205
  0.0880  267.95133
  0.0900  265.53737
  0.0920  263.19567
  0.0940  260.87635
  0.0960  258.54496
  0.0980  256.16118
  0.1000  253.71557
  0.1020  251.17899
  0.1040  248.53551
  0.1060  245.75713
  0.1080  242.82094
  0.1100  239.70714
  0.1120  236.40532
  0.1140  232.91696
  0.1160  229.25246
  0.1180  225.42340
  0.1200  221.46461
  0.1220  217.40559
  0.1240  213.27262
  0.1260  209.08174
  0.1280  204.84224
  0.1300  200.55417
  0.1320  196.21490
  0.1340  191.82345
  0.1360  187.37886
  0.1380  182.90050
  0.1400  178.41075
  0.1420  173.95790
  0.1440  169.59049
  0.1460  165.34312
  0.1480  161.24779
  0.1500  157.30332
  0.1520  153.50463
  0.1540  149.81414
  0.1560  146.20761
  0.1580  142.65872
  0.1600  139.15810
  0.1620  135.68634
  0.1640  132.24426
  0.1660  128.82660
  0.1680  125.42538
  0.1700  122.03095
  0.1720  118.63813
  0.1740  115.26190
  0.1760  111.91129
  0.1780  108.59973
  0.1800  105.34321
  0.1820  102.16182
  0.1840   99.06078
  0.1860   96.04140
  0.1880   93.09189
  0.1900   90.20041
  0.1920   87.34472
  0.1940   84.50888
  0.1960   81.68940
  0.1980   78.88902
  0.2000   76.11581
  0.2020   73.38886
  0.2040   70.72881
  0.2060   68.13907
  0.2080   65.61906
  0.2100   63.15330
  0.2120   60.72442
  0.2140   58.34297
  0.2160   56.00270
  0.2180   53.70236
  0.2200   51.45648
  0.2220   49.26583
  0.2240   47.13625
  0.2260   45.06570
  0.2280   43.05746
  0.2300   41.10478
  0.2320   39.20327
  0.2340   37.34735
  0.2360   35.54124
  0.2380   33.78431
  0.2400   32.07954
  0.2420   30.43002
  0.2440   28.82516
  0.2460   27.26119
  0.2480   25.74415
  0.2500   24.25489
  0.2520   22.80999
  0.2540   21.40937
  0.2560   20.05703
  0.2580   18.75991
  0.2600   17.51642
  0.2620   16.31903
  0.2640   15.18032
  0.2660   14.08817
  0.2680   13.03847
  0.2700   12.03406
  0.2720   11.07248
  0.2740   10.14647
  0.2760    9.26023
  0.2780    8.41195
  0.2800    7.59404
  0.2820    6.81496
  0.2840    6.07345
  0.2860    5.36549
  0.2880    4.70543
  0.2900    4.08223
  0.2920    3.49323
  0.2940    2.94412
  0.2960    2.42393
  0.2980    1.93078
  0.3000    1.45692
  0.3020    1.00284
  0.3040    0.57696
  0.3060    0.17125
  0.3080   -0.20944
  0.3100   -0.56795
  0.3120   -0.90397
  0.3140   -1.21555
  0.3160   -1.50902
  0.3180   -1.77715
  0.3200   -2.02685
  0.3220   -2.26266
  0.3240   -2.47724
  0.3260   -2.66575
  0.3280   -2.83503
  0.3300   -2.98641
  0.3320   -3.12379
  0.3340   -3.24124
  0.3360   -3.33956
  0.3380   -3.42993
  0.3400   -3.51272
  0.3420   -3.58465
  0.3440   -3.65164
  0.3460   -3.72558
  0.3480   -3.79604
  0.3500   -3.86374
  0.3520   -3.91679
  0.3540   -3.96019
  0.3560   -3.98481
  0.3580   -4.00712
  0.3600   -4.01276
  0.3620   -4.01026
  0.3640   -3.99766
  0.3660   -3.97570
  0.3680   -3.95569
  0.3700   -3.92972
  0.3720   -3.90350
  0.3740   -3.86558
  0.3760   -3.83275
  0.3780   -3.79267
  0.3800   -3.74289
  0.3820   -3.67952
  0.3840   -3.61334
  0.3860   -3.54892
  0.3880   -3.47848
  0.3900   -3.40160
  0.3920   -3.33011
  0.3940   -3.25585
  0.3960   -3.18905
  0.3980   -3.12390
  0.4000   -3.06949
  0.4020   -3.02209
  0.4040   -2.98533
  0.4060   -2.94832
  0.4080   -2.92154
  0.4100   -2.88340
  0.4120   -2.85780
  0.4140   -2.82423
  0.4160   -2.79053
  0.4180   -2.75953
  0.4200   -2.73438
  0.4220   -2.71307
  0.4240   -2.69752
  0.4260   -2.69558
  0.4280   -2.69668
  0.4300   -2.70401
  0.4320   -2.71645
  0.4340   -2.73714
  0.4360   -2.75943
  0.4380   -2.77578
  0.4400   -2.80151
  0.4420   -2.82370
  0.4440   -2.83343
  0.4460   -2.84486
  0.4480   -2.85810
  0.4500   -2.87418
  0.4520   -2.89313
  0.4540   -2.91486
  0.4560   -2.94211
  0.4580   -2.97413
  0.4600   -3.00509
  0.4620   -3.04333
  0.4640   -3.07311
  0.4660   -3.09522
  0.4680   -3.10721
  0.4700   -3.11913
  0.4720   -3.12821
  0.4740   -3.13083
  0.4760   -3.14683
  0.4780   -3.16973
  0.4800   -3.19657
  0.4820   -3.22581
  0.4840   -3.25433
  0.4860   -3.28495
  0.4880   -3.30601
  0.4900   -3.32429
  0.4920   -3.31914
  0.4940   -3.29657
  0.4960   -3.25844
  0.4980   -3.20242
  0.5000   -3.14359
  0.5020   -3.07703
  0.5040   -3.00712
  0.5060   -2.93462
  0.5080   -2.87054
  0.5100   -2.80890
  0.5120   -2.74907
  0.5140   -2.69461
  0.5160   -2.63611
  0.5180   -2.57303
  0.5200   -2.50282
  0.5220   -2.43253
  0.5240   -2.34289
  0.5260   -2.25611
  0.5280   -2.16226
  0.5300   -2.05666
  0.5320   -1.94822
  0.5340   -1.83381
  0.5360   -1.72757
  0.5380   -1.61560
  0.5400   -1.50725
  0.5420   -1.40390
  0.5440   -1.29777
  0.5460   -1.19752
  0.5480   -1.09737
  0.5500   -1.00563
  0.5520   -0.91677
  0.5540   -0.83290
  0.5560   -0.76089
  0.5580   -0.69606
  0.5600   -0.63835
  0.5620   -0.58470
  0.5640   -0.53876
  0.5660   -0.49468
  0.5680   -0.44929
  0.5700   -0.40735
  0.5720   -0.35991
  0.5740   -0.30914
  0.5760   -0.26038
  0.5780   -0.20896
  0.5800   -0.15150
  0.5820   -0.10142
  0.5840   -0.05049
  0.5860   -0.00205
  0.5880    0.03833
  0.5900    0.05737
  0.5920    0.06418
  0.5940    0.06214
  0.5960    0.03675
  0.5980    0.00587
  0.6000   -0.03582
  0.6020   -0.07599
  0.6040   -0.11106
  0.6060   -0.13538
  0.6080   -0.14877
  0.6100   -0.15135
  0.6120   -0.13925
  0.6140   -0.11778
  0.6160   -0.09044
  0.6180   -0.06998
  0.6200   -0.05485
  0.6220   -0.05073
  0.6240   -0.04991
  0.6260   -0.07098
  0.6280   -0.09409
  0.6300   -0.12961
  0.6320   -0.16933
  0.6340   -0.20431
  0.6360   -0.23994
  0.6380   -0.26964
  0.6400   -0.28455
  0.6420   -0.29579
  0.6440   -0.29857
  0.6460   -0.28842
  0.6480   -0.27553
  0.6500   -0.25729
  0.6520   -0.24126
  0.6540   -0.23344
  0.6560   -0.23033
  0.6580   -0.23347
  0.6600   -0.23920
  0.6620   -0.23772
  0.6640   -0.23171
  0.6660   -0.20715
  0.6680   -0.17535
  0.6700   -0.12945
  0.6720   -0.07861
  0.6740   -0.04048
  0.6760   -0.01106
  0.6780    0.00477
  0.6800    0.00955
  0.6820   -0.00667
  0.6840   -0.02984
  0.6860   -0.05022
  0.6880   -0.06932
  0.6900   -0.07793
  0.6920   -0.08074
  0.6940   -0.07885
  0.6960   -0.06156
  0.6980   -0.03535
  0.7000   -0.00119
  0.7020    0.03546
  0.7040    0.07684
  0.7060    0.11572
  0.7080    0.15021
  0.7100    0.17582
  0.7120    0.19198
  0.7140    0.19735
  0.7160    0.19120
  0.7180    0.16564
  0.7200    0.13867
  0.7220    0.10921
  0.7240    0.06870
  0.7260    0.03755
  0.7280    0.01354
  0.7300   -0.00019
  0.7320   -0.00041
  0.7340    0.01259
  0.7360    0.03369
  0.7380    0.05457
  0.7400    0.08215
  0.7420    0.10158
  0.7440    0.11671
  0.7460    0.12498
  0.7480    0.12007
  0.7500    0.11084
  0.7520    0.08984
  0.7540    0.06019
  0.7560    0.02434
  0.7580   -0.00241
  0.7600   -0.02675
  0.7620   -0.04503
  0.7640   -0.05915
  0.7660   -0.05390
  0.7680   -0.04015
  0.7700   -0.01720
  0.7720    0.01189
  0.7740    0.05189
  0.7760    0.09648
  0.7780    0.14124
  0.7800    0.18661
  0.7820    0.22796
  0.7840    0.26404
  0.7860    0.28700
  0.7880    0.30658
  0.7900    0.32155
  0.7920    0.32537
  0.7940    0.32351
  0.7960    0.31074
  0.7980    0.29740
  0.8000    0.28132
  0.8020    0.26812
  0.8040    0.25493
  0.8060    0.24728
  0.8080    0.24188
  0.8100    0.24079
  0.8120    0.24928
  0.8140    0.25365
  0.8160    0.26931
  0.8180    0.28031
  0.8200    0.29984
  0.8220    0.32475
  0.8240    0.35129
  0.8260    0.37012
  0.8280    0.38365
  0.8300    0.39387
  0.8320    0.39816
  0.8340    0.39839
  0.8360    0.38827
  0.8380    0.37265
  0.8400    0.35797
  0.8420    0.33838
  0.8440    0.32039
  0.8460    0.30122
  0.8480    0.28712
  0.8500    0.27681
  0.8520    0.27237
  0.8540    0.27899
  0.8560    0.28912
  0.8580    0.30107
  0.8600    0.31037
  0.8620    0.31774
  0.8640    0.32736
  0.8660    0.33695
  0.8680    0.33953
  0.8700    0.34123
  0.8720    0.33310
  0.8740    0.31873
  0.8760    0.30243
  0.8780    0.28936
  0.8800    0.27189
  0.8820    0.25028
  0.8840    0.23719
  0.8860    0.22238
  0.8880    0.20778
  0.8900    0.19871
  0.8920    0.18830
  0.8940    0.17966
  0.8960    0.17733
  0.8980    0.17839
  0.9000    0.17998
  0.9020    0.17801
  0.9040    0.17760
  0.9060    0.18055
  0.9080    0.18014
  0.9100    0.17722
  0.9120    0.17682
  0.9140    0.16708
  0.9160    0.15861
  0.9180    0.14202
  0.9200    0.12388
  0.9220    0.09731
  0.9240    0.08115
  0.9260    0.05065
  0.9280    0.03001
  0.9300    0.01186
  0.9320   -0.00402
  0.9340   -0.02339
  0.9360   -0.03181
  0.9380   -0.03381
  0.9400   -0.02931
  0.9420   -0.02728
  0.9440   -0.02143
  0.9460   -0.01541
  0.9480   -0.01002
  0.9500   -0.00596
  0.9520   -0.00048
  0.9540    0.00297
  0.9560    0.01067
  0.9580    0.01875
  0.9600    0.02640
  0.9620    0.03337
  0.9640    0.03848
  0.9660    0.04450
  0.9680    0.04630
  0.9700    0.04462
  0.9720    0.04267
  0.9740    0.03089
  0.9760    0.01442
  0.9780   -0.01150
  0.9800   -0.04077
  0.9820   -0.06941
  0.9840   -0.09695
  0.9860   -0.12970
  0.9880   -0.16355
  0.9900   -0.19611
  0.9920   -0.22150
  0.9940   -0.25231
  0.9960   -0.28113
  0.9980   -0.30204
  1.0000   -0.31901
