# z (nm)   (kJ/mol)
  0.0760  272.85695
  0.0780  270.20440
  0.0800  266.61852
  0.0820  263.40007
  0.0840  260.39944
  0.0860  257.43659
  0.0880  254.49542
  0.0900  251.58440
  0.0920  248.60675
  0.0940  245.58557
  0.0960  242.49963
  0.0980  239.33691
  0.1000  236.09897
  0.1020  232.77121
  0.1040  229.35206
  0.1060  225.83437
  0.1080  222.21264
  0.1100  218.48634
  0.1120  214.65435
  0.1140  210.71591
  0.1160  206.68162
  0.1180  202.55427
  0.1200  198.34623
  0.1220  194.07808
  0.1240  189.76651
  0.1260  185.43544
  0.1280  181.10366
  0.1300  176.79942
  0.1320  172.53786
  0.1340  168.31981
  0.1360  164.16313
  0.1380  160.06067
  0.1400  156.00821
  0.1420  152.00570
  0.1440  148.06689
  0.1460  144.21470
  0.1480  140.48434
  0.1500  136.89486
  0.1520  133.45994
  0.1540  130.15222
  0.1560  126.93769
  0.1580  123.77592
  0.1600  120.63338
  0.1620  117.49634
  0.1640  114.36713
  0.1660  111.24764
  0.1680  108.14927
  0.1700  105.06417
  0.1720  101.98741
  0.1740   98.91656
  0.1760   95.85212
  0.1780   92.79696
  0.1800   89.76032
  0.1820   86.74679
  0.1840   83.77090
  0.1860   80.84439
  0.1880   77.97252
  0.1900   75.16638
  0.1920   72.42394
  0.1940   69.74640
  0.1960   67.12922
  0.1980   64.56774
  0.2000   62.05464
  0.2020   59.59504
  0.2040   57.17579
  0.2060   54.79128
  0.2080   52.45061
  0.2100   50.14770
  0.2120   47.88156
  0.2140   45.66292
  0.2160   43.49288
  0.2180   41.37471
  0.2200   39.31704
  0.2220   37.30762
  0.2240   35.36070
  0.2260   33.46798
  0.2280   31.62524
  0.2300   29.82737
  0.2320   28.06275
  0.2340   26.32865
  0.2360   24.63062
  0.2380   22.95019
  0.2400   21.29233
  0.2420   19.66300
  0.2440   18.08140
  0.2460   16.53412
  0.2480   15.03466
  0.2500   13.58891
  0.2520   12.20066
  0.2540   10.87356
  0.2560    9.60047
  0.2580    8.38380
  0.2600    7.21265
  0.2620    6.08154
  0.2640    4.99068
  0.2660    3.93094
  0.2680    2.90072
  0.2700    1.91275
  0.2720    0.96313
  0.2740    0.04501
  0.2760   -0.83582
  0.2780   -1.66261
  0.2800   -2.43697
  0.2820   -3.17125
  0.2840   -3.85898
  0.2860   -4.50327
  0.2880   -5.11588
  0.2900   -5.68651
  0.2920   -6.23484
  0.2940   -6.75552
  0.2960   -7.24276
  0.2980   -7.70808
  0.3000   -8.15052
  0.3020   -8.56977
  0.3040   -8.95865
  0.3060   -9.31379
  0.3080   -9.65316
  0.3100   -9.96503
  0.3120  -10.23312
  0.3140  -10.48649
  0.3160  -10.71365
  0.3180  -10.90731
  0.3200  -11.07570
  0.3220  -11.21995
  0.3240  -11.34326
  0.3260  -11.45061
  0.3280  -11.53645
  0.3300  -11.61013
  0.3320  -11.66350
  0.3340  -11.69738
  0.3360  -11.71082
  0.3380  -11.70417
  0.3400  -11.67932
  0.3420  -11.63315
  0.3440  -11.57973
  0.3460  -11.51283
  0.3480  -11.44689
  0.3500  -11.37202
  0.3520  -11.29556
  0.3540  -11.20770
  0.3560  -11.10500
  0.3580  -10.99024
  0.3600  -10.85684
  0.3620  -10.70531
  0.3640  -10.54418
  0.3660  -10.37017
  0.3680  -10.19422
  0.3700  -10.02367
  0.3720   -9.85159
  0.3740   -9.69187
  0.3760   -9.53935
  0.3780   -9.39038
  0.3800   -9.24682
  0.3820   -9.09946
  0.3840   -8.93980
  0.3860   -8.78595
  0.3880   -8.62063
  0.3900   -8.44547
  0.3920   -8.26186
  0.3940   -8.06798
  0.3960   -7.87828
  0.3980   -7.68766
  0.4000   -7.50171
  0.4020   -7.32410
  0.4040   -7.15769
  0.4060   -7.00029
  0.4080   -6.84753
  0.4100   -6.69975
  0.4120   -6.55459
  0.4140   -6.41218
  0.4160   -6.27548
  0.4180   -6.13906
  0.4200   -6.01145
  0.4220   -5.88873
  0.4240   -5.76952
  0.4260   -5.65211
  0.4280   -5.52479
  0.4300   -5.39423
  0.4320   -5.25494
  0.4340   -5.11275
  0.4360   -4.97052
  0.4380   -4.83559
  0.4400   -4.70658
  0.4420   -4.59420
  0.4440   -4.49160
  0.4460   -4.40848
  0.4480   -4.33688
  0.4500   -4.27092
  0.4520   -4.22020
  0.4540   -4.17612
  0.4560   -4.12771
  0.4580   -4.07010
  0.4600   -4.00893
  0.4620   -3.94262
  0.4640   -3.86994
  0.4660   -3.79537
  0.4680   -3.72429
  0.4700   -3.65696
  0.4720   -3.60725
  0.4740   -3.57250
  0.4760   -3.55077
  0.4780   -3.53657
  0.4800   -3.53552
  0.4820   -3.52898
  0.4840   -3.51945
  0.4860   -3.49711
  0.4880   -3.47257
  0.4900   -3.42446
  0.4920   -3.37329
  0.4940   -3.32393
  0.4960   -3.27459
  0.4980   -3.22547
  0.5000   -3.17799
  0.5020   -3.13509
  0.5040   -3.09009
  0.5060   -3.03895
  0.5080   -2.97665
  0.5100   -2.89693
  0.5120   -2.79783
  0.5140   -2.68198
  0.5160   -2.55148
  0.5180   -2.40964
  0.5200   -2.27067
  0.5220   -2.13404
  0.5240   -1.99660
  0.5260   -1.87156
  0.5280   -1.75296
  0.5300   -1.63248
  0.5320   -1.51529
  0.5340   -1.38551
  0.5360   -1.25510
  0.5380   -1.11749
  0.5400   -0.96554
  0.5420   -0.80625
  0.5440   -0.63796
  0.5460   -0.46732
  0.5480   -0.29934
  0.5500   -0.13552
  0.5520    0.03615
  0.5540    0.19845
  0.5560    0.36317
  0.5580    0.51922
  0.5600    0.67517
  0.5620    0.82777
  0.5640    0.97003
  0.5660    1.11497
  0.5680    1.25249
  0.5700    1.39346
  0.5720    1.52263
  0.5740    1.64768
  0.5760    1.77170
  0.5780    1.88592
  0.5800    1.99415
  0.5820    2.09104
  0.5840    2.18002
  0.5860    2.25970
  0.5880    2.33037
  0.5900    2.38225
  0.5920    2.42683
  0.5940    2.44903
  0.5960    2.46149
  0.5980    2.46515
  0.6000    2.46436
  0.6020    2.46090
  0.6040    2.45510
  0.6060    2.45917
  0.6080    2.45985
  0.6100    2.45667
  0.6120    2.44873
  0.6140    2.43089
  0.6160    2.39779
  0.6180    2.34529
  0.6200    2.27600
  0.6220    2.19171
  0.6240    2.08934
  0.6260    1.98764
  0.6280    1.87557
  0.6300    1.77289
  0.6320    1.67313
  0.6340    1.58260
  0.6360    1.50781
  0.6380    1.44163
  0.6400    1.38460
  0.6420    1.33824
  0.6440    1.29107
  0.6460    1.24234
  0.6480    1.19302
  0.6500    1.13785
  0.6520    1.07588
  0.6540    1.00974
  0.6560    0.92922
  0.6580    0.85009
  0.6600    0.77596
  0.6620    0.70089
  0.6640    0.63770
  0.6660    0.58235
  0.6680    0.53950
  0.6700    0.50173
  0.6720    0.47388
  0.6740    0.45132
  0.6760    0.42753
  0.6780    0.40747
  0.6800    0.37917
  0.6820    0.35014
  0.6840    0.32002
  0.6860    0.29117
  0.6880    0.26581
  0.6900    0.24817
  0.6920    0.24199
  0.6940    0.25171
  0.6960    0.26898
  0.6980    0.28969
  0.7000    0.30948
  0.7020    0.32740
  0.7040    0.33647
  0.7060    0.33741
  0.7080    0.32560
  0.7100    0.30527
  0.7120    0.27785
  0.7140    0.24687
  0.7160    0.21246
  0.7180    0.18791
  0.7200    0.17016
  0.7220    0.15452
  0.7240    0.13995
  0.7260    0.12967
  0.7280    0.12324
  0.7300    0.12033
  0.7320    0.11951
  0.7340    0.12217
  0.7360    0.13275
  0.7380    0.14484
  0.7400    0.15887
  0.7420    0.17641
  0.7440    0.19048
  0.7460    0.19164
  0.7480    0.17873
  0.7500    0.15153
  0.7520    0.10807
  0.7540    0.05982
  0.7560    0.00603
  0.7580   -0.04231
  0.7600   -0.08317
  0.7620   -0.12054
  0.7640   -0.14747
  0.7660   -0.15558
  0.7680   -0.16008
  0.7700   -0.15142
  0.7720   -0.12935
  0.7740   -0.10315
  0.7760   -0.07006
  0.7780   -0.03842
  0.7800   -0.00444
  0.7820    0.02455
  0.7840    0.04646
  0.7860    0.06141
  0.7880    0.07714
  0.7900    0.08288
  0.7920    0.08502
  0.7940    0.07806
  0.7960    0.07484
  0.7980    0.06908
  0.8000    0.05952
  0.8020    0.05710
  0.8040    0.05181
  0.8060    0.05940
  0.8080    0.06062
  0.8100    0.06070
  0.8120    0.05805
  0.8140    0.05741
  0.8160    0.06048
  0.8180    0.05709
  0.8200    0.05460
  0.8220    0.06054
  0.8240    0.06983
  0.8260    0.08489
  0.8280    0.10763
  0.8300    0.12981
  0.8320    0.15406
  0.8340    0.17904
  0.8360    0.20080
  0.8380    0.21645
  0.8400    0.23303
  0.8420    0.23976
  0.8440    0.24482
  0.8460    0.25104
  0.8480    0.25014
  0.8500    0.24486
  0.8520    0.24404
  0.8540    0.24392
  0.8560    0.25487
  0.8580    0.26948
  0.8600    0.27517
  0.8620    0.29027
  0.8640    0.30061
  0.8660    0.31244
  0.8680    0.31879
  0.8700    0.32386
  0.8720    0.32032
  0.8740    0.31137
  0.8760    0.29571
  0.8780    0.28078
  0.8800    0.26988
  0.8820    0.25664
  0.8840    0.24560
  0.8860    0.23415
  0.8880    0.22336
  0.8900    0.21799
  0.8920    0.21090
  0.8940    0.21461
  0.8960    0.21739
  0.8980    0.21222
  0.9000    0.20653
  0.9020    0.20317
  0.9040    0.19179
  0.9060    0.18114
  0.9080    0.17002
  0.9100    0.15996
  0.9120    0.15159
  0.9140    0.15441
  0.9160    0.15090
  0.9180    0.15275
  0.9200    0.15662
  0.9220    0.16405
  0.9240    0.17008
  0.9260    0.17659
  0.9280    0.18326
  0.9300    0.18372
  0.9320    0.18286
  0.9340    0.17499
  0.9360    0.16249
  0.9380    0.14401
  0.9400    0.12508
  0.9420    0.10837
  0.9440    0.08903
  0.9460    0.07158
  0.9480    0.05792
  0.9500    0.04304
  0.9520    0.02402
  0.9540    0.00749
  0.9560   -0.01175
  0.9580   -0.02686
  0.9600   -0.04954
  0.9620   -0.06954
  0.9640   -0.09880
  0.9660   -0.12688
  0.9680   -0.14631
  0.9700   -0.16596
  0.9720   -0.18724
  0.9740   -0.21178
  0.9760   -0.22329
  0.9780   -0.23667
  0.9800   -0.24234
  0.9820   -0.24568
  0.9840   -0.24146
  0.9860   -0.22542
  0.9880   -0.21297
  0.9900   -0.19528
  0.9920   -0.17912
  0.9940   -0.16099
  0.9960   -0.15634
  0.9980   -0.15867
  1.0000   -0.16806
