# z (nm)   (kJ/mol)
  0.0820  265.16345
  0.0840  262.74113
  0.0860  260.34444
  0.0880  257.51751
  0.0900  254.91309
  0.0920  252.38568
  0.0940  249.83340
  0.0960  247.21980
  0.0980  244.61413
  0.1000  241.96129
  0.1020  239.21773
  0.1040  236.38947
  0.1060  233.47134
  0.1080  230.43493
  0.1100  227.28637
  0.1120  224.00933
  0.1140  220.59996
  0.1160  217.04955
  0.1180  213.36030
  0.1200  209.53271
  0.1220  205.57611
  0.1240  201.49597
  0.1260  197.29592
  0.1280  192.98405
  0.1300  188.57094
  0.1320  184.07002
  0.1340  179.50296
  0.1360  174.88722
  0.1380  170.24951
  0.1400  165.60497
  0.1420  160.99072
  0.1440  156.42418
  0.1460  151.92435
  0.1480  147.50696
  0.1500  143.19235
  0.1520  139.00112
  0.1540  134.95694
  0.1560  131.06930
  0.1580  127.32938
  0.1600  123.68804
  0.1620  120.07720
  0.1640  116.44139
  0.1660  112.75369
  0.1680  109.03400
  0.1700  105.32678
  0.1720  101.69396
  0.1740   98.18965
  0.1760   94.83066
  0.1780   91.60687
  0.1800   88.46724
  0.1820   85.35392
  0.1840   82.20639
  0.1860   78.98283
  0.1880   75.68552
  0.1900   72.35245
  0.1920   69.06118
  0.1940   65.87616
  0.1960   62.85444
  0.1980   60.02014
  0.2000   57.35991
  0.2020   54.82291
  0.2040   52.34405
  0.2060   49.86925
  0.2080   47.34250
  0.2100   44.76444
  0.2120   42.14025
  0.2140   39.50397
  0.2160   36.90916
  0.2180   34.40867
  0.2200   32.02143
  0.2220   29.75714
  0.2240   27.59675
  0.2260   25.50275
  0.2280   23.45599
  0.2300   21.42244
  0.2320   19.39651
  0.2340   17.37448
  0.2360   15.37334
  0.2380   13.41827
  0.2400   11.52961
  0.2420    9.71529
  0.2440    7.98223
  0.2460    6.32353
  0.2480    4.73964
  0.2500    3.22505
  0.2520    1.75777
  0.2540    0.35086
  0.2560   -1.01405
  0.2580   -2.33874
  0.2600   -3.63677
  0.2620   -4.90217
  0.2640   -6.13720
  0.2660   -7.34643
  0.2680   -8.50654
  0.2700   -9.61159
  0.2720  -10.65311
  0.2740  -11.61224
  0.2760  -12.49575
  0.2780  -13.30064
  0.2800  -14.03126
  0.2820  -14.71302
  0.2840  -15.36215
  0.2860  -15.99336
  0.2880  -16.62881
  0.2900  -17.26648
  0.2920  -17.90693
  0.2940  -18.52930
  0.2960  -19.11512
  0.2980  -19.62997
  0.3000  -20.04113
  0.3020  -20.34000
  0.3040  -20.53390
  0.3060  -20.65552
  0.3080  -20.75066
  0.3100  -20.86950
  0.3120  -21.01770
  0.3140  -21.22270
  0.3160  -21.44815
  0.3180  -21.66308
  0.3200  -21.81978
  0.3220  -21.88482
  0.3240  -21.84266
  0.3260  -21.70826
  0.3280  -21.50447
  0.3300  -21.30149
  0.3320  -21.10773
  0.3340  -20.95623
  0.3360  -20.86020
  0.3380  -20.79404
  0.3400  -20.72250
  0.3420  -20.61644
  0.3440  -20.45407
  0.3460  -20.22857
  0.3480  -19.95957
  0.3500  -19.65715
  0.3520  -19.33653
  0.3540  -19.01446
  0.3560  -18.70721
  0.3580  -18.38971
  0.3600  -18.06904
  0.3620  -17.74172
  0.3640  -17.40256
  0.3660  -17.05023
  0.3680  -16.69218
  0.3700  -16.33271
  0.3720  -15.98687
  0.3740  -15.64647
  0.3760  -15.30523
  0.3780  -14.96210
  0.3800  -14.62925
  0.3820  -14.30387
  0.3840  -13.97944
  0.3860  -13.67604
  0.3880  -13.37904
  0.3900  -13.08826
  0.3920  -12.79641
  0.3940  -12.50790
  0.3960  -12.21900
  0.3980  -11.94745
  0.4000  -11.72396
  0.4020  -11.56452
  0.4040  -11.46721
  0.4060  -11.41321
  0.4080  -11.39740
  0.4100  -11.38604
  0.4120  -11.36148
  0.4140  -11.31144
  0.4160  -11.23705
  0.4180  -11.15176
  0.4200  -11.06352
  0.4220  -10.99121
  0.4240  -10.94600
  0.4260  -10.92870
  0.4280  -10.93120
  0.4300  -10.96433
  0.4320  -11.00838
  0.4340  -11.06943
  0.4360  -11.12768
  0.4380  -11.16862
  0.4400  -11.19551
  0.4420  -11.20078
  0.4440  -11.19078
  0.4460  -11.17809
  0.4480  -11.17218
  0.4500  -11.17219
  0.4520  -11.16323
  0.4540  -11.15308
  0.4560  -11.12967
  0.4580  -11.09707
  0.4600  -11.05303
  0.4620  -11.00953
  0.4640  -10.96336
  0.4660  -10.92272
  0.4680  -10.88447
  0.4700  -10.84844
  0.4720  -10.81087
  0.4740  -10.77786
  0.4760  -10.73164
  0.4780  -10.67500
  0.4800  -10.59723
  0.4820  -10.49590
  0.4840  -10.38848
  0.4860  -10.26925
  0.4880  -10.14102
  0.4900  -10.01806
  0.4920   -9.89513
  0.4940   -9.79335
  0.4960   -9.69994
  0.4980   -9.61828
  0.5000   -9.54648
  0.5020   -9.47212
  0.5040   -9.39758
  0.5060   -9.30751
  0.5080   -9.20556
  0.5100   -9.10140
  0.5120   -8.99358
  0.5140   -8.88279
  0.5160   -8.76984
  0.5180   -8.66700
  0.5200   -8.57065
  0.5220   -8.46691
  0.5240   -8.36393
  0.5260   -8.25138
  0.5280   -8.13808
  0.5300   -8.02905
  0.5320   -7.91032
  0.5340   -7.79182
  0.5360   -7.67560
  0.5380   -7.55879
  0.5400   -7.43968
  0.5420   -7.32782
  0.5440   -7.22664
  0.5460   -7.12649
  0.5480   -7.03653
  0.5500   -6.95882
  0.5520   -6.88568
  0.5540   -6.82011
  0.5560   -6.75365
  0.5580   -6.68848
  0.5600   -6.61398
  0.5620   -6.53203
  0.5640   -6.42651
  0.5660   -6.30203
  0.5680   -6.15820
  0.5700   -6.01158
  0.5720   -5.85953
  0.5740   -5.73048
  0.5760   -5.62750
  0.5780   -5.55575
  0.5800   -5.50448
  0.5820   -5.48047
  0.5840   -5.45252
  0.5860   -5.40489
  0.5880   -5.32417
  0.5900   -5.20097
  0.5920   -5.05247
  0.5940   -4.87429
  0.5960   -4.68768
  0.5980   -4.50915
  0.6000   -4.35005
  0.6020   -4.20909
  0.6040   -4.10335
  0.6060   -4.01817
  0.6080   -3.95559
  0.6100   -3.89554
  0.6120   -3.83160
  0.6140   -3.75094
  0.6160   -3.63652
  0.6180   -3.48906
  0.6200   -3.30014
  0.6220   -3.08450
  0.6240   -2.86786
  0.6260   -2.66091
  0.6280   -2.48268
  0.6300   -2.33416
  0.6320   -2.22110
  0.6340   -2.12743
  0.6360   -2.04276
  0.6380   -1.95648
  0.6400   -1.85777
  0.6420   -1.75684
  0.6440   -1.64038
  0.6460   -1.51401
  0.6480   -1.36566
  0.6500   -1.21183
  0.6520   -1.05226
  0.6540   -0.89892
  0.6560   -0.74756
  0.6580   -0.61766
  0.6600   -0.49940
  0.6620   -0.39047
  0.6640   -0.28510
  0.6660   -0.18609
  0.6680   -0.08882
  0.6700    0.00934
  0.6720    0.10576
  0.6740    0.20209
  0.6760    0.30545
  0.6780    0.39967
  0.6800    0.49449
  0.6820    0.57881
  0.6840    0.65494
  0.6860    0.73193
  0.6880    0.79914
  0.6900    0.87595
  0.6920    0.94065
  0.6940    1.01204
  0.6960    1.08472
  0.6980    1.15187
  0.7000    1.21141
  0.7020    1.25632
  0.7040    1.27169
  0.7060    1.27082
  0.7080    1.24963
  0.7100    1.21186
  0.7120    1.16879
  0.7140    1.12997
  0.7160    1.09899
  0.7180    1.07359
  0.7200    1.05740
  0.7220    1.04346
  0.7240    1.03244
  0.7260    1.01629
  0.7280    0.98628
  0.7300    0.94851
  0.7320    0.89382
  0.7340    0.83904
  0.7360    0.78766
  0.7380    0.72508
  0.7400    0.67519
  0.7420    0.62995
  0.7440    0.59706
  0.7460    0.57224
  0.7480    0.54518
  0.7500    0.51561
  0.7520    0.48877
  0.7540    0.46068
  0.7560    0.43010
  0.7580    0.39706
  0.7600    0.37675
  0.7620    0.35996
  0.7640    0.35005
  0.7660    0.34192
  0.7680    0.33281
  0.7700    0.32788
  0.7720    0.32506
  0.7740    0.31754
  0.7760    0.30690
  0.7780    0.29521
  0.7800    0.28543
  0.7820    0.26723
  0.7840    0.24425
  0.7860    0.21761
  0.7880    0.18696
  0.7900    0.15356
  0.7920    0.11599
  0.7940    0.08869
  0.7960    0.06336
  0.7980    0.04646
  0.8000    0.03477
  0.8020    0.02177
  0.8040    0.01939
  0.8060    0.02503
  0.8080    0.02253
  0.8100    0.02407
  0.8120    0.02919
  0.8140    0.02259
  0.8160    0.00722
  0.8180   -0.01845
  0.8200   -0.04361
  0.8220   -0.07937
  0.8240   -0.10426
  0.8260   -0.11871
  0.8280   -0.12170
  0.8300   -0.11343
  0.8320   -0.09072
  0.8340   -0.06395
  0.8360   -0.04401
  0.8380   -0.03133
  0.8400   -0.03536
  0.8420   -0.05253
  0.8440   -0.07974
  0.8460   -0.11696
  0.8480   -0.15500
  0.8500   -0.18966
  0.8520   -0.21325
  0.8540   -0.22417
  0.8560   -0.21145
  0.8580   -0.19185
  0.8600   -0.16281
  0.8620   -0.13185
  0.8640   -0.10521
  0.8660   -0.09561
  0.8680   -0.09843
  0.8700   -0.11366
  0.8720   -0.14430
  0.8740   -0.18815
  0.8760   -0.23331
  0.8780   -0.27004
  0.8800   -0.29421
  0.8820   -0.30968
  0.8840   -0.31132
  0.8860   -0.30093
  0.8880   -0.29203
  0.8900   -0.27664
  0.8920   -0.26131
  0.8940   -0.24583
  0.8960   -0.23336
  0.8980   -0.21515
  0.9000   -0.20746
  0.9020   -0.20439
  0.9040   -0.20323
  0.9060   -0.21791
  0.9080   -0.24460
  0.9100   -0.26886
  0.9120   -0.29590
  0.9140   -0.31518
  0.9160   -0.32152
  0.9180   -0.30908
  0.9200   -0.28031
  0.9220   -0.23948
  0.9240   -0.18708
  0.9260   -0.13286
  0.9280   -0.07161
  0.9300   -0.01990
  0.9320    0.02003
  0.9340    0.04954
  0.9360    0.06342
  0.9380    0.05784
  0.9400    0.03944
  0.9420    0.01235
  0.9440   -0.00527
  0.9460   -0.01548
  0.9480   -0.01372
  0.9500   -0.00443
  0.9520    0.01593
  0.9540    0.04604
  0.9560    0.07595
  0.9580    0.10333
  0.9600    0.12398
  0.9620    0.13057
  0.9640    0.13253
  0.9660    0.12791
  0.9680    0.12468
  0.9700    0.12448
  0.9720    0.13062
  0.9740    0.13740
  0.9760    0.14656
  0.9780    0.15773
  0.9800    0.17174
  0.9820    0.18262
  0.9840    0.17704
  0.9860    0.17051
  0.9880    0.15828
  0.9900    0.14603
  0.9920    0.12920
  0.9940    0.11284
  0.9960    0.10226
  0.9980    0.09136
  1.0000    0.08863
