# z (nm)   (kJ/mol)
  0.1380  319.54081
  0.1400  315.55130
  0.1420  311.11349
  0.1440  307.86417
  0.1460  304.78678
  0.1480  301.31754
  0.1500  298.01372
  0.1520  294.65857
  0.1540  291.22781
  0.1560  287.70108
  0.1580  284.05513
  0.1600  280.24674
  0.1620  276.26653
  0.1640  272.09032
  0.1660  267.68561
  0.1680  263.03087
  0.1700  258.10898
  0.1720  252.90027
  0.1740  247.39153
  0.1760  241.57823
  0.1780  235.45696
  0.1800  229.05167
  0.1820  222.39347
  0.1840  215.52906
  0.1860  208.52371
  0.1880  201.44301
  0.1900  194.35632
  0.1920  187.32211
  0.1940  180.39322
  0.1960  173.59885
  0.1980  166.96175
  0.2000  160.49489
  0.2020  154.20000
  0.2040  148.08890
  0.2060  142.16550
  0.2080  136.44307
  0.2100  130.93999
  0.2120  125.67008
  0.2140  120.64503
  0.2160  115.86018
  0.2180  111.29844
  0.2200  106.93685
  0.2220  102.74276
  0.2240   98.68680
  0.2260   94.75950
  0.2280   90.95868
  0.2300   87.28187
  0.2320   83.73491
  0.2340   80.31082
  0.2360   77.00907
  0.2380   73.82728
  0.2400   70.76411
  0.2420   67.82735
  0.2440   65.00578
  0.2460   62.30323
  0.2480   59.71134
  0.2500   57.22187
  0.2520   54.82734
  0.2540   52.51479
  0.2560   50.29095
  0.2580   48.14601
  0.2600   46.07571
  0.2620   44.07869
  0.2640   42.16256
  0.2660   40.32046
  0.2680   38.56248
  0.2700   36.89172
  0.2720   35.30868
  0.2740   33.82717
  0.2760   32.44466
  0.2780   31.15505
  0.2800   29.95201
  0.2820   28.81798
  0.2840   27.75178
  0.2860   26.73165
  0.2880   25.75277
  0.2900   24.80559
  0.2920   23.87666
  0.2940   22.97964
  0.2960   22.11332
  0.2980   21.28692
  0.3000   20.50667
  0.3020   19.77800
  0.3040   19.09967
  0.3060   18.47900
  0.3080   17.90447
  0.3100   17.36851
  0.3120   16.86674
  0.3140   16.39070
  0.3160   15.94020
  0.3180   15.51073
  0.3200   15.10561
  0.3220   14.72851
  0.3240   14.37372
  0.3260   14.04600
  0.3280   13.74505
  0.3300   13.45942
  0.3320   13.18923
  0.3340   12.93119
  0.3360   12.67758
  0.3380   12.42549
  0.3400   12.17262
  0.3420   11.92809
  0.3440   11.69068
  0.3460   11.45991
  0.3480   11.24604
  0.3500   11.05090
  0.3520   10.87862
  0.3540   10.71713
  0.3560   10.57202
  0.3580   10.44190
  0.3600   10.31766
  0.3620   10.19588
  0.3640   10.07976
  0.3660    9.96448
  0.3680    9.84456
  0.3700    9.72079
  0.3720    9.59605
  0.3740    9.46495
  0.3760    9.33088
  0.3780    9.19716
  0.3800    9.06237
  0.3820    8.92383
  0.3840    8.78920
  0.3860    8.65899
  0.3880    8.54015
  0.3900    8.41320
  0.3920    8.29411
  0.3940    8.17592
  0.3960    8.05760
  0.3980    7.94241
  0.4000    7.81787
  0.4020    7.69263
  0.4040    7.56962
  0.4060    7.43885
  0.4080    7.30854
  0.4100    7.17252
  0.4120    7.02716
  0.4140    6.88714
  0.4160    6.74251
  0.4180    6.60083
  0.4200    6.46338
  0.4220    6.32286
  0.4240    6.18598
  0.4260    6.05390
  0.4280    5.91687
  0.4300    5.78277
  0.4320    5.65235
  0.4340    5.52813
  0.4360    5.39742
  0.4380    5.27218
  0.4400    5.13807
  0.4420    5.01006
  0.4440    4.88768
  0.4460    4.75896
  0.4480    4.64055
  0.4500    4.52186
  0.4520    4.40248
  0.4540    4.28920
  0.4560    4.17990
  0.4580    4.07063
  0.4600    3.97501
  0.4620    3.87819
  0.4640    3.78087
  0.4660    3.68845
  0.4680    3.59735
  0.4700    3.50913
  0.4720    3.42556
  0.4740    3.34453
  0.4760    3.26607
  0.4780    3.19124
  0.4800    3.12479
  0.4820    3.06394
  0.4840    3.00856
  0.4860    2.95132
  0.4880    2.89842
  0.4900    2.85205
  0.4920    2.80705
  0.4940    2.76014
  0.4960    2.71550
  0.4980    2.66993
  0.5000    2.63106
  0.5020    2.58591
  0.5040    2.54698
  0.5060    2.50245
  0.5080    2.46205
  0.5100    2.42525
  0.5120    2.38939
  0.5140    2.35447
  0.5160    2.31936
  0.5180    2.28465
  0.5200    2.24817
  0.5220    2.21350
  0.5240    2.18162
  0.5260    2.14382
  0.5280    2.10742
  0.5300    2.06061
  0.5320    2.01764
  0.5340    1.96802
  0.5360    1.91903
  0.5380    1.86462
  0.5400    1.80589
  0.5420    1.73423
  0.5440    1.66979
  0.5460    1.59816
  0.5480    1.52204
  0.5500    1.44471
  0.5520    1.35704
  0.5540    1.26843
  0.5560    1.18724
  0.5580    1.09889
  0.5600    1.01143
  0.5620    0.92797
  0.5640    0.85008
  0.5660    0.76857
  0.5680    0.69748
  0.5700    0.63498
  0.5720    0.57781
  0.5740    0.52884
  0.5760    0.49158
  0.5780    0.45094
  0.5800    0.41450
  0.5820    0.38396
  0.5840    0.35155
  0.5860    0.31672
  0.5880    0.28198
  0.5900    0.24031
  0.5920    0.18647
  0.5940    0.12588
  0.5960    0.05611
  0.5980   -0.01538
  0.6000   -0.09051
  0.6020   -0.16313
  0.6040   -0.23003
  0.6060   -0.28735
  0.6080   -0.32248
  0.6100   -0.33390
  0.6120   -0.32912
  0.6140   -0.30419
  0.6160   -0.26946
  0.6180   -0.22319
  0.6200   -0.17439
  0.6220   -0.12568
  0.6240   -0.07510
  0.6260   -0.03848
  0.6280   -0.01003
  0.6300    0.00952
  0.6320    0.02005
  0.6340    0.02593
  0.6360    0.02169
  0.6380    0.01837
  0.6400    0.01713
  0.6420    0.00983
  0.6440    0.00808
  0.6460    0.00782
  0.6480    0.01722
  0.6500    0.02467
  0.6520    0.03751
  0.6540    0.05865
  0.6560    0.08097
  0.6580    0.10574
  0.6600    0.13193
  0.6620    0.16441
  0.6640    0.19478
  0.6660    0.22875
  0.6680    0.26563
  0.6700    0.30688
  0.6720    0.34629
  0.6740    0.38646
  0.6760    0.42600
  0.6780    0.46283
  0.6800    0.48886
  0.6820    0.51953
  0.6840    0.54672
  0.6860    0.57589
  0.6880    0.60207
  0.6900    0.62557
  0.6920    0.64590
  0.6940    0.66318
  0.6960    0.67937
  0.6980    0.69540
  0.7000    0.70933
  0.7020    0.72419
  0.7040    0.73955
  0.7060    0.75478
  0.7080    0.77566
  0.7100    0.79712
  0.7120    0.81596
  0.7140    0.83237
  0.7160    0.85592
  0.7180    0.87298
  0.7200    0.90114
  0.7220    0.92104
  0.7240    0.94146
  0.7260    0.95987
  0.7280    0.97596
  0.7300    0.99131
  0.7320    0.99962
  0.7340    1.00880
  0.7360    1.01821
  0.7380    1.02425
  0.7400    1.02643
  0.7420    1.02396
  0.7440    1.01969
  0.7460    1.01478
  0.7480    1.01031
  0.7500    1.00577
  0.7520    1.00229
  0.7540    0.99674
  0.7560    0.99218
  0.7580    0.99005
  0.7600    0.98639
  0.7620    0.98292
  0.7640    0.97676
  0.7660    0.97013
  0.7680    0.96302
  0.7700    0.95702
  0.7720    0.94659
  0.7740    0.93658
  0.7760    0.92661
  0.7780    0.91371
  0.7800    0.90054
  0.7820    0.88855
  0.7840    0.87399
  0.7860    0.86072
  0.7880    0.84961
  0.7900    0.83298
  0.7920    0.82061
  0.7940    0.80409
  0.7960    0.78817
  0.7980    0.77278
  0.8000    0.75940
  0.8020    0.73991
  0.8040    0.72666
  0.8060    0.70941
  0.8080    0.69121
  0.8100    0.66980
  0.8120    0.64555
  0.8140    0.62012
  0.8160    0.59566
  0.8180    0.57278
  0.8200    0.54865
  0.8220    0.52313
  0.8240    0.49511
  0.8260    0.46527
  0.8280    0.43990
  0.8300    0.40666
  0.8320    0.37830
  0.8340    0.35001
  0.8360    0.32300
  0.8380    0.29521
  0.8400    0.26979
  0.8420    0.23957
  0.8440    0.21510
  0.8460    0.18654
  0.8480    0.16022
  0.8500    0.13707
  0.8520    0.11382
  0.8540    0.08953
  0.8560    0.06640
  0.8580    0.04598
  0.8600    0.02856
  0.8620    0.01178
  0.8640   -0.00177
  0.8660   -0.01570
  0.8680   -0.02792
  0.8700   -0.03735
  0.8720   -0.04998
  0.8740   -0.06134
  0.8760   -0.07563
  0.8780   -0.08237
  0.8800   -0.09255
  0.8820   -0.10554
  0.8840   -0.11332
  0.8860   -0.12546
  0.8880   -0.13606
  0.8900   -0.14499
  0.8920   -0.15239
  0.8940   -0.15999
  0.8960   -0.16647
  0.8980   -0.17039
  0.9000   -0.17710
  0.9020   -0.18117
  0.9040   -0.19070
  0.9060   -0.19546
  0.9080   -0.20635
  0.9100   -0.21102
  0.9120   -0.21683
  0.9140   -0.21739
  0.9160   -0.22004
  0.9180   -0.22323
  0.9200   -0.21977
  0.9220   -0.21735
  0.9240   -0.21504
  0.9260   -0.21221
  0.9280   -0.20673
  0.9300   -0.19847
  0.9320   -0.19255
  0.9340   -0.18754
  0.9360   -0.17743
  0.9380   -0.17398
  0.9400   -0.16987
  0.9420   -0.16811
  0.9440   -0.16519
  0.9460   -0.16165
  0.9480   -0.15616
  0.9500   -0.14667
  0.9520   -0.14052
  0.9540   -0.13329
  0.9560   -0.12198
  0.9580   -0.11887
  0.9600   -0.10925
  0.9620   -0.10343
  0.9640   -0.10148
  0.9660   -0.09716
  0.9680   -0.08909
  0.9700   -0.08830
  0.9720   -0.08706
  0.9740   -0.08476
  0.9760   -0.08430
  0.9780   -0.08562
  0.9800   -0.08513
  0.9820   -0.08240
  0.9840   -0.07798
  0.9860   -0.07749
  0.9880   -0.06650
  0.9900   -0.05781
  0.9920   -0.04840
  0.9940   -0.03821
  0.9960   -0.02232
  0.9980   -0.00758
  1.0000    0.01596
  1.0020    0.03519
  1.0040    0.05419
  1.0060    0.07621
  1.0080    0.09687
  1.0100    0.11479
  1.0120    0.12759
  1.0140    0.13986
  1.0160    0.15321
  1.0180    0.16017
  1.0200    0.16569
  1.0220    0.16522
  1.0240    0.16609
  1.0260    0.16337
  1.0280    0.15772
  1.0300    0.15021
  1.0320    0.14574
  1.0340    0.14314
  1.0360    0.13605
  1.0380    0.13304
  1.0400    0.13099
  1.0420    0.13375
  1.0440    0.13770
  1.0460    0.13995
  1.0480    0.14101
  1.0500    0.15124
  1.0520    0.15877
  1.0540    0.16893
  1.0560    0.17860
  1.0580    0.18698
  1.0600    0.19450
  1.0620    0.20005
  1.0640    0.20403
  1.0660    0.20231
  1.0680    0.19915
  1.0700    0.19581
  1.0720    0.18670
  1.0740    0.17804
  1.0760    0.16301
  1.0780    0.15451
  1.0800    0.14198
  1.0820    0.13134
  1.0840    0.12404
  1.0860    0.11436
  1.0880    0.10234
  1.0900    0.09832
  1.0920    0.09638
  1.0940    0.09257
  1.0960    0.09479
  1.0980    0.09494
  1.1000    0.09484
  1.1020    0.09718
  1.1040    0.09781
  1.1060    0.09441
  1.1080    0.09048
  1.1100    0.08823
  1.1120    0.08415
  1.1140    0.07743
  1.1160    0.07203
  1.1180    0.06749
  1.1200    0.06545
  1.1220    0.06255
  1.1240    0.05776
  1.1260    0.05671
  1.1280    0.05678
  1.1300    0.04943
  1.1320    0.04637
  1.1340    0.04687
  1.1360    0.04694
  1.1380    0.04621
  1.1400    0.04331
  1.1420    0.04503
  1.1440    0.04627
  1.1460    0.04546
  1.1480    0.04003
  1.1500    0.03427
  1.1520    0.03019
  1.1540    0.02331
  1.1560    0.01759
  1.1580    0.00475
  1.1600   -0.00481
  1.1620   -0.01490
  1.1640   -0.02338
  1.1660   -0.03393
  1.1680   -0.04517
  1.1700   -0.05433
  1.1720   -0.06755
  1.1740   -0.07720
  1.1760   -0.08695
  1.1780   -0.09533
  1.1800   -0.10456
  1.1820   -0.11081
  1.1840   -0.11944
  1.1860   -0.12321
  1.1880   -0.13232
  1.1900   -0.13557
  1.1920   -0.13400
  1.1940   -0.13146
  1.1960   -0.13321
  1.1980   -0.13155
  1.2000   -0.12722
