# z (nm)   (kJ/mol)
  0.1540  320.22412
  0.1560  317.79551
  0.1580  314.79663
  0.1600  311.12347
  0.1620  308.02210
  0.1640  305.09823
  0.1660  302.02270
  0.1680  299.08011
  0.1700  295.93670
  0.1720  292.70644
  0.1740  289.28234
  0.1760  285.65462
  0.1780  281.78208
  0.1800  277.60308
  0.1820  273.09222
  0.1840  268.19905
  0.1860  262.88545
  0.1880  257.11278
  0.1900  250.86314
  0.1920  244.12723
  0.1940  236.92951
  0.1960  229.32978
  0.1980  221.41040
  0.2000  213.28108
  0.2020  205.05459
  0.2040  196.83389
  0.2060  188.69508
  0.2080  180.68785
  0.2100  172.84657
  0.2120  165.20660
  0.2140  157.80396
  0.2160  150.70318
  0.2180  143.97050
  0.2200  137.68082
  0.2220  131.82886
  0.2240  126.32235
  0.2260  120.99390
  0.2280  115.70183
  0.2300  110.41373
  0.2320  105.17488
  0.2340  100.04610
  0.2360   95.03337
  0.2380   90.11329
  0.2400   85.23142
  0.2420   80.37060
  0.2440   75.57431
  0.2460   70.92814
  0.2480   66.53549
  0.2500   62.44491
  0.2520   58.65281
  0.2540   55.12258
  0.2560   51.82299
  0.2580   48.74222
  0.2600   45.86935
  0.2620   43.20877
  0.2640   40.74901
  0.2660   38.49235
  0.2680   36.41511
  0.2700   34.50274
  0.2720   32.73708
  0.2740   31.10033
  0.2760   29.57764
  0.2780   28.15221
  0.2800   26.82012
  0.2820   25.58505
  0.2840   24.43593
  0.2860   23.37276
  0.2880   22.38208
  0.2900   21.45435
  0.2920   20.58008
  0.2940   19.75571
  0.2960   18.96111
  0.2980   18.21026
  0.3000   17.48891
  0.3020   16.81197
  0.3040   16.17721
  0.3060   15.57689
  0.3080   15.01757
  0.3100   14.49166
  0.3120   13.99903
  0.3140   13.54195
  0.3160   13.11506
  0.3180   12.71967
  0.3200   12.35267
  0.3220   12.01536
  0.3240   11.69026
  0.3260   11.38218
  0.3280   11.08917
  0.3300   10.79799
  0.3320   10.51672
  0.3340   10.24648
  0.3360    9.99802
  0.3380    9.76359
  0.3400    9.55339
  0.3420    9.36833
  0.3440    9.20576
  0.3460    9.06951
  0.3480    8.94697
  0.3500    8.85049
  0.3520    8.76325
  0.3540    8.68407
  0.3560    8.61392
  0.3580    8.54478
  0.3600    8.48290
  0.3620    8.42676
  0.3640    8.36480
  0.3660    8.29930
  0.3680    8.24466
  0.3700    8.19079
  0.3720    8.14819
  0.3740    8.11383
  0.3760    8.09346
  0.3780    8.09492
  0.3800    8.10423
  0.3820    8.11767
  0.3840    8.13167
  0.3860    8.14397
  0.3880    8.15680
  0.3900    8.16526
  0.3920    8.16199
  0.3940    8.15009
  0.3960    8.13009
  0.3980    8.09728
  0.4000    8.05857
  0.4020    8.00740
  0.4040    7.94684
  0.4060    7.87695
  0.4080    7.79240
  0.4100    7.70510
  0.4120    7.60655
  0.4140    7.49677
  0.4160    7.38283
  0.4180    7.25981
  0.4200    7.12866
  0.4220    6.99999
  0.4240    6.86799
  0.4260    6.73552
  0.4280    6.60360
  0.4300    6.47260
  0.4320    6.33104
  0.4340    6.19028
  0.4360    6.04779
  0.4380    5.89906
  0.4400    5.75254
  0.4420    5.60488
  0.4440    5.45711
  0.4460    5.30812
  0.4480    5.15971
  0.4500    5.01324
  0.4520    4.87520
  0.4540    4.73578
  0.4560    4.60515
  0.4580    4.47776
  0.4600    4.34736
  0.4620    4.21644
  0.4640    4.07652
  0.4660    3.93342
  0.4680    3.79335
  0.4700    3.65628
  0.4720    3.52149
  0.4740    3.39792
  0.4760    3.27671
  0.4780    3.17142
  0.4800    3.07007
  0.4820    2.97601
  0.4840    2.88564
  0.4860    2.79943
  0.4880    2.71255
  0.4900    2.62107
  0.4920    2.52980
  0.4940    2.42903
  0.4960    2.33958
  0.4980    2.24626
  0.5000    2.15701
  0.5020    2.08270
  0.5040    2.01775
  0.5060    1.95967
  0.5080    1.90813
  0.5100    1.86236
  0.5120    1.83184
  0.5140    1.80584
  0.5160    1.78532
  0.5180    1.76595
  0.5200    1.74587
  0.5220    1.72779
  0.5240    1.70435
  0.5260    1.68164
  0.5280    1.66219
  0.5300    1.62922
  0.5320    1.59789
  0.5340    1.55396
  0.5360    1.51491
  0.5380    1.47563
  0.5400    1.43403
  0.5420    1.38644
  0.5440    1.34466
  0.5460    1.30865
  0.5480    1.26796
  0.5500    1.23291
  0.5520    1.20356
  0.5540    1.17545
  0.5560    1.15421
  0.5580    1.12451
  0.5600    1.09481
  0.5620    1.05400
  0.5640    1.00972
  0.5660    0.95006
  0.5680    0.88327
  0.5700    0.81441
  0.5720    0.74344
  0.5740    0.67638
  0.5760    0.60935
  0.5780    0.55206
  0.5800    0.49672
  0.5820    0.44823
  0.5840    0.41046
  0.5860    0.37369
  0.5880    0.34431
  0.5900    0.31990
  0.5920    0.29810
  0.5940    0.28405
  0.5960    0.26766
  0.5980    0.25326
  0.6000    0.23398
  0.6020    0.21973
  0.6040    0.21172
  0.6060    0.19849
  0.6080    0.17878
  0.6100    0.15746
  0.6120    0.12937
  0.6140    0.10160
  0.6160    0.07318
  0.6180    0.04404
  0.6200    0.01180
  0.6220   -0.01882
  0.6240   -0.04615
  0.6260   -0.07237
  0.6280   -0.09306
  0.6300   -0.10085
  0.6320   -0.10226
  0.6340   -0.09206
  0.6360   -0.07666
  0.6380   -0.05004
  0.6400   -0.02123
  0.6420    0.00710
  0.6440    0.03658
  0.6460    0.06509
  0.6480    0.08250
  0.6500    0.09520
  0.6520    0.10207
  0.6540    0.09497
  0.6560    0.08282
  0.6580    0.06489
  0.6600    0.03129
  0.6620    0.00236
  0.6640   -0.02188
  0.6660   -0.04421
  0.6680   -0.05239
  0.6700   -0.04744
  0.6720   -0.03059
  0.6740   -0.00078
  0.6760    0.03364
  0.6780    0.07933
  0.6800    0.12589
  0.6820    0.16686
  0.6840    0.20738
  0.6860    0.23405
  0.6880    0.25533
  0.6900    0.26698
  0.6920    0.27047
  0.6940    0.26430
  0.6960    0.25307
  0.6980    0.23872
  0.7000    0.22486
  0.7020    0.21136
  0.7040    0.20435
  0.7060    0.19882
  0.7080    0.20370
  0.7100    0.21329
  0.7120    0.22465
  0.7140    0.24395
  0.7160    0.27068
  0.7180    0.29735
  0.7200    0.32838
  0.7220    0.36342
  0.7240    0.39129
  0.7260    0.41927
  0.7280    0.44915
  0.7300    0.47329
  0.7320    0.49774
  0.7340    0.51750
  0.7360    0.52741
  0.7380    0.54092
  0.7400    0.55081
  0.7420    0.55734
  0.7440    0.56884
  0.7460    0.57382
  0.7480    0.57751
  0.7500    0.58583
  0.7520    0.59309
  0.7540    0.60006
  0.7560    0.59748
  0.7580    0.59152
  0.7600    0.59397
  0.7620    0.59583
  0.7640    0.59534
  0.7660    0.59406
  0.7680    0.59286
  0.7700    0.60203
  0.7720    0.60565
  0.7740    0.62011
  0.7760    0.63647
  0.7780    0.64834
  0.7800    0.66542
  0.7820    0.68111
  0.7840    0.69490
  0.7860    0.70290
  0.7880    0.70418
  0.7900    0.70255
  0.7920    0.69232
  0.7940    0.67693
  0.7960    0.65452
  0.7980    0.62921
  0.8000    0.60023
  0.8020    0.57271
  0.8040    0.55146
  0.8060    0.53395
  0.8080    0.52714
  0.8100    0.52317
  0.8120    0.52124
  0.8140    0.52702
  0.8160    0.54513
  0.8180    0.55356
  0.8200    0.56463
  0.8220    0.57560
  0.8240    0.57899
  0.8260    0.57001
  0.8280    0.55575
  0.8300    0.53924
  0.8320    0.51525
  0.8340    0.48372
  0.8360    0.45705
  0.8380    0.42401
  0.8400    0.39382
  0.8420    0.36797
  0.8440    0.34305
  0.8460    0.31947
  0.8480    0.29440
  0.8500    0.27789
  0.8520    0.26236
  0.8540    0.25008
  0.8560    0.24246
  0.8580    0.23319
  0.8600    0.22834
  0.8620    0.22326
  0.8640    0.21433
  0.8660    0.20334
  0.8680    0.19153
  0.8700    0.18532
  0.8720    0.17843
  0.8740    0.17456
  0.8760    0.16809
  0.8780    0.16135
  0.8800    0.15236
  0.8820    0.14667
  0.8840    0.14607
  0.8860    0.14204
  0.8880    0.13344
  0.8900    0.11851
  0.8920    0.10820
  0.8940    0.09647
  0.8960    0.08633
  0.8980    0.07037
  0.9000    0.05680
  0.9020    0.04347
  0.9040    0.03134
  0.9060    0.02468
  0.9080    0.01795
  0.9100    0.01140
  0.9120    0.00643
  0.9140   -0.00537
  0.9160   -0.00486
  0.9180   -0.00729
  0.9200   -0.00700
  0.9220   -0.00696
  0.9240   -0.01092
  0.9260   -0.01273
  0.9280   -0.01472
  0.9300   -0.01438
  0.9320   -0.01740
  0.9340   -0.01745
  0.9360   -0.02013
  0.9380   -0.02527
  0.9400   -0.02669
  0.9420   -0.02694
  0.9440   -0.03396
  0.9460   -0.03848
  0.9480   -0.04701
  0.9500   -0.05563
  0.9520   -0.07195
  0.9540   -0.08923
  0.9560   -0.11110
  0.9580   -0.13589
  0.9600   -0.15781
  0.9620   -0.17352
  0.9640   -0.18762
  0.9660   -0.19661
  0.9680   -0.19712
  0.9700   -0.19191
  0.9720   -0.18125
  0.9740   -0.17202
  0.9760   -0.16370
  0.9780   -0.15244
  0.9800   -0.13928
  0.9820   -0.12546
  0.9840   -0.11533
  0.9860   -0.10422
  0.9880   -0.09507
  0.9900   -0.08684
  0.9920   -0.07828
  0.9940   -0.07431
  0.9960   -0.07281
  0.9980   -0.06902
  1.0000   -0.07336
  1.0020   -0.07240
  1.0040   -0.08004
  1.0060   -0.08844
  1.0080   -0.09114
  1.0100   -0.09672
  1.0120   -0.09706
  1.0140   -0.09217
  1.0160   -0.08255
  1.0180   -0.07618
  1.0200   -0.06515
  1.0220   -0.04803
  1.0240   -0.03354
  1.0260   -0.01506
  1.0280    0.00242
  1.0300    0.01954
  1.0320    0.03577
  1.0340    0.05589
  1.0360    0.07172
  1.0380    0.07872
  1.0400    0.08452
  1.0420    0.09425
  1.0440    0.10259
  1.0460    0.10304
  1.0480    0.10141
  1.0500    0.09929
  1.0520    0.10107
  1.0540    0.10195
  1.0560    0.10007
  1.0580    0.10292
  1.0600    0.10586
  1.0620    0.10936
  1.0640    0.11016
  1.0660    0.10796
  1.0680    0.10075
  1.0700    0.09263
  1.0720    0.08554
  1.0740    0.07442
  1.0760    0.06244
  1.0780    0.05157
  1.0800    0.04616
  1.0820    0.04840
  1.0840    0.04945
  1.0860    0.05883
  1.0880    0.06923
  1.0900    0.08733
  1.0920    0.10880
  1.0940    0.13320
  1.0960    0.15124
  1.0980    0.16434
  1.1000    0.17762
  1.1020    0.18523
  1.1040    0.18638
  1.1060    0.18710
  1.1080    0.18600
  1.1100    0.17514
  1.1120    0.15997
  1.1140    0.14989
  1.1160    0.12602
  1.1180    0.10624
  1.1200    0.08558
  1.1220    0.06694
  1.1240    0.04933
  1.1260    0.03196
  1.1280    0.02417
  1.1300    0.00844
  1.1320    0.00285
  1.1340    0.00427
  1.1360    0.01138
  1.1380    0.01731
  1.1400    0.03543
  1.1420    0.04634
  1.1440    0.06177
  1.1460    0.06923
  1.1480    0.07460
  1.1500    0.07298
  1.1520    0.07055
  1.1540    0.05617
  1.1560    0.04055
  1.1580    0.02047
  1.1600    0.00161
  1.1620   -0.01672
  1.1640   -0.03702
  1.1660   -0.05807
  1.1680   -0.07391
  1.1700   -0.07980
  1.1720   -0.08351
  1.1740   -0.08614
  1.1760   -0.08589
  1.1780   -0.08259
  1.1800   -0.07720
  1.1820   -0.06543
  1.1840   -0.06195
  1.1860   -0.05706
  1.1880   -0.05077
  1.1900   -0.04536
  1.1920   -0.03914
  1.1940   -0.03632
  1.1960   -0.03797
  1.1980   -0.03789
  1.2000   -0.03912
