# z (nm)   (kJ/mol)
  0.1660  309.21593
  0.1680  303.92990
  0.1700  300.58143
  0.1720  297.13925
  0.1740  293.69121
  0.1760  290.34966
  0.1780  287.03716
  0.1800  283.57731
  0.1820  279.86855
  0.1840  275.83761
  0.1860  271.43109
  0.1880  266.59139
  0.1900  261.26556
  0.1920  255.40800
  0.1940  248.99150
  0.1960  241.99500
  0.1980  234.41538
  0.2000  226.26969
  0.2020  217.59217
  0.2040  208.42342
  0.2060  198.81599
  0.2080  188.83934
  0.2100  178.55930
  0.2120  168.07307
  0.2140  157.51032
  0.2160  147.05687
  0.2180  136.97737
  0.2200  127.64423
  0.2220  119.33312
  0.2240  112.01167
  0.2260  105.46176
  0.2280   99.47213
  0.2300   93.80552
  0.2320   88.27450
  0.2340   82.85154
  0.2360   77.63170
  0.2380   72.72433
  0.2400   68.19961
  0.2420   64.05462
  0.2440   60.22652
  0.2460   56.60541
  0.2480   53.09452
  0.2500   49.65987
  0.2520   46.29851
  0.2540   43.03937
  0.2560   39.95747
  0.2580   37.12329
  0.2600   34.58364
  0.2620   32.30277
  0.2640   30.19362
  0.2660   28.17995
  0.2680   26.24465
  0.2700   24.45163
  0.2720   22.88299
  0.2740   21.55576
  0.2760   20.41966
  0.2780   19.38656
  0.2800   18.41143
  0.2820   17.46117
  0.2840   16.56838
  0.2860   15.72768
  0.2880   14.94753
  0.2900   14.22567
  0.2920   13.56879
  0.2940   12.94119
  0.2960   12.33869
  0.2980   11.73728
  0.3000   11.11142
  0.3020   10.45043
  0.3040    9.77627
  0.3060    9.10254
  0.3080    8.43600
  0.3100    7.78311
  0.3120    7.11774
  0.3140    6.41390
  0.3160    5.66358
  0.3180    4.87466
  0.3200    4.08225
  0.3220    3.31564
  0.3240    2.58873
  0.3260    1.90750
  0.3280    1.27266
  0.3300    0.65593
  0.3320    0.07467
  0.3340   -0.47839
  0.3360   -0.99722
  0.3380   -1.49388
  0.3400   -1.98498
  0.3420   -2.47336
  0.3440   -2.96800
  0.3460   -3.45457
  0.3480   -3.88966
  0.3500   -4.25442
  0.3520   -4.55095
  0.3540   -4.78891
  0.3560   -4.99367
  0.3580   -5.16976
  0.3600   -5.33030
  0.3620   -5.47400
  0.3640   -5.59856
  0.3660   -5.70859
  0.3680   -5.77522
  0.3700   -5.82348
  0.3720   -5.82753
  0.3740   -5.79995
  0.3760   -5.73145
  0.3780   -5.62885
  0.3800   -5.49678
  0.3820   -5.35436
  0.3840   -5.21638
  0.3860   -5.11372
  0.3880   -5.03024
  0.3900   -4.97073
  0.3920   -4.90504
  0.3940   -4.81272
  0.3960   -4.68050
  0.3980   -4.51826
  0.4000   -4.34477
  0.4020   -4.16816
  0.4040   -4.01634
  0.4060   -3.88449
  0.4080   -3.76442
  0.4100   -3.65115
  0.4120   -3.52465
  0.4140   -3.37624
  0.4160   -3.20896
  0.4180   -3.02190
  0.4200   -2.83608
  0.4220   -2.64997
  0.4240   -2.47857
  0.4260   -2.31849
  0.4280   -2.17926
  0.4300   -2.04729
  0.4320   -1.91894
  0.4340   -1.78881
  0.4360   -1.65512
  0.4380   -1.51847
  0.4400   -1.38876
  0.4420   -1.26479
  0.4440   -1.15185
  0.4460   -1.06715
  0.4480   -1.00133
  0.4500   -0.95948
  0.4520   -0.92549
  0.4540   -0.88522
  0.4560   -0.83552
  0.4580   -0.79016
  0.4600   -0.74386
  0.4620   -0.71514
  0.4640   -0.70735
  0.4660   -0.72375
  0.4680   -0.76720
  0.4700   -0.83129
  0.4720   -0.89044
  0.4740   -0.94223
  0.4760   -0.98083
  0.4780   -1.01061
  0.4800   -1.04978
  0.4820   -1.09791
  0.4840   -1.15158
  0.4860   -1.21030
  0.4880   -1.26248
  0.4900   -1.31200
  0.4920   -1.36241
  0.4940   -1.41591
  0.4960   -1.48745
  0.4980   -1.56162
  0.5000   -1.63726
  0.5020   -1.71177
  0.5040   -1.77712
  0.5060   -1.81341
  0.5080   -1.83026
  0.5100   -1.84020
  0.5120   -1.84459
  0.5140   -1.84752
  0.5160   -1.87009
  0.5180   -1.90282
  0.5200   -1.95011
  0.5220   -1.99700
  0.5240   -2.04741
  0.5260   -2.08491
  0.5280   -2.11223
  0.5300   -2.12585
  0.5320   -2.12250
  0.5340   -2.10747
  0.5360   -2.08161
  0.5380   -2.05093
  0.5400   -2.01728
  0.5420   -1.99966
  0.5440   -1.98806
  0.5460   -1.98636
  0.5480   -1.99588
  0.5500   -2.01079
  0.5520   -2.03674
  0.5540   -2.05941
  0.5560   -2.07628
  0.5580   -2.07883
  0.5600   -2.06373
  0.5620   -2.03324
  0.5640   -1.98623
  0.5660   -1.94232
  0.5680   -1.89780
  0.5700   -1.86983
  0.5720   -1.85341
  0.5740   -1.85543
  0.5760   -1.86799
  0.5780   -1.88318
  0.5800   -1.91698
  0.5820   -1.93655
  0.5840   -1.94533
  0.5860   -1.94025
  0.5880   -1.92705
  0.5900   -1.90145
  0.5920   -1.87570
  0.5940   -1.85880
  0.5960   -1.85748
  0.5980   -1.85826
  0.6000   -1.87598
  0.6020   -1.90313
  0.6040   -1.93937
  0.6060   -1.97748
  0.6080   -2.01251
  0.6100   -2.03206
  0.6120   -2.04312
  0.6140   -2.03850
  0.6160   -2.01950
  0.6180   -1.99780
  0.6200   -1.98161
  0.6220   -1.97047
  0.6240   -1.96918
  0.6260   -1.97716
  0.6280   -1.98624
  0.6300   -1.99245
  0.6320   -1.98563
  0.6340   -1.96895
  0.6360   -1.94721
  0.6380   -1.92337
  0.6400   -1.89544
  0.6420   -1.86718
  0.6440   -1.84592
  0.6460   -1.83610
  0.6480   -1.82916
  0.6500   -1.82682
  0.6520   -1.83360
  0.6540   -1.83921
  0.6560   -1.84849
  0.6580   -1.84792
  0.6600   -1.83650
  0.6620   -1.80885
  0.6640   -1.77281
  0.6660   -1.73154
  0.6680   -1.67823
  0.6700   -1.63078
  0.6720   -1.59390
  0.6740   -1.56909
  0.6760   -1.54907
  0.6780   -1.53029
  0.6800   -1.52070
  0.6820   -1.50637
  0.6840   -1.48746
  0.6860   -1.46941
  0.6880   -1.44622
  0.6900   -1.41538
  0.6920   -1.37966
  0.6940   -1.34232
  0.6960   -1.30470
  0.6980   -1.27078
  0.7000   -1.24156
  0.7020   -1.21114
  0.7040   -1.18874
  0.7060   -1.16009
  0.7080   -1.12067
  0.7100   -1.05689
  0.7120   -0.98647
  0.7140   -0.91943
  0.7160   -0.85477
  0.7180   -0.79945
  0.7200   -0.75206
  0.7220   -0.71614
  0.7240   -0.70744
  0.7260   -0.71940
  0.7280   -0.72706
  0.7300   -0.73611
  0.7320   -0.75252
  0.7340   -0.76192
  0.7360   -0.76295
  0.7380   -0.75379
  0.7400   -0.72885
  0.7420   -0.69120
  0.7440   -0.64605
  0.7460   -0.59315
  0.7480   -0.53450
  0.7500   -0.48305
  0.7520   -0.44211
  0.7540   -0.41098
  0.7560   -0.38987
  0.7580   -0.37999
  0.7600   -0.38204
  0.7620   -0.39271
  0.7640   -0.40224
  0.7660   -0.41405
  0.7680   -0.42058
  0.7700   -0.41547
  0.7720   -0.40486
  0.7740   -0.38941
  0.7760   -0.37153
  0.7780   -0.34665
  0.7800   -0.32472
  0.7820   -0.29762
  0.7840   -0.27324
  0.7860   -0.24443
  0.7880   -0.21998
  0.7900   -0.20160
  0.7920   -0.18308
  0.7940   -0.17124
  0.7960   -0.16093
  0.7980   -0.15802
  0.8000   -0.16555
  0.8020   -0.17198
  0.8040   -0.17864
  0.8060   -0.19484
  0.8080   -0.20471
  0.8100   -0.21275
  0.8120   -0.20903
  0.8140   -0.20376
  0.8160   -0.18628
  0.8180   -0.16316
  0.8200   -0.14019
  0.8220   -0.11829
  0.8240   -0.09374
  0.8260   -0.07798
  0.8280   -0.07291
  0.8300   -0.07616
  0.8320   -0.08759
  0.8340   -0.10653
  0.8360   -0.13139
  0.8380   -0.16048
  0.8400   -0.18347
  0.8420   -0.19869
  0.8440   -0.20727
  0.8460   -0.21285
  0.8480   -0.20967
  0.8500   -0.19977
  0.8520   -0.19000
  0.8540   -0.18076
  0.8560   -0.17489
  0.8580   -0.17854
  0.8600   -0.19053
  0.8620   -0.21056
  0.8640   -0.23124
  0.8660   -0.25729
  0.8680   -0.28951
  0.8700   -0.30589
  0.8720   -0.32595
  0.8740   -0.32233
  0.8760   -0.32020
  0.8780   -0.30530
  0.8800   -0.29387
  0.8820   -0.28753
  0.8840   -0.28984
  0.8860   -0.29398
  0.8880   -0.31687
  0.8900   -0.34343
  0.8920   -0.37334
  0.8940   -0.40682
  0.8960   -0.43257
  0.8980   -0.44931
  0.9000   -0.45520
  0.9020   -0.46196
  0.9040   -0.46192
  0.9060   -0.45635
  0.9080   -0.45815
  0.9100   -0.45680
  0.9120   -0.45571
  0.9140   -0.45610
  0.9160   -0.45132
  0.9180   -0.45832
  0.9200   -0.46239
  0.9220   -0.46222
  0.9240   -0.46202
  0.9260   -0.45688
  0.9280   -0.44504
  0.9300   -0.43130
  0.9320   -0.42161
  0.9340   -0.40782
  0.9360   -0.41056
  0.9380   -0.42570
  0.9400   -0.45083
  0.9420   -0.47898
  0.9440   -0.50995
  0.9460   -0.53303
  0.9480   -0.54996
  0.9500   -0.55816
  0.9520   -0.54968
  0.9540   -0.53867
  0.9560   -0.50959
  0.9580   -0.47197
  0.9600   -0.43810
  0.9620   -0.41188
  0.9640   -0.38918
  0.9660   -0.37622
  0.9680   -0.37645
  0.9700   -0.38441
  0.9720   -0.39626
  0.9740   -0.41268
  0.9760   -0.42904
  0.9780   -0.44051
  0.9800   -0.44305
  0.9820   -0.44002
  0.9840   -0.42692
  0.9860   -0.40544
  0.9880   -0.37941
  0.9900   -0.35352
  0.9920   -0.32425
  0.9940   -0.30030
  0.9960   -0.27410
  0.9980   -0.25529
  1.0000   -0.24180
  1.0020   -0.22928
  1.0040   -0.21461
  1.0060   -0.19751
  1.0080   -0.18424
  1.0100   -0.17394
  1.0120   -0.15616
  1.0140   -0.14180
  1.0160   -0.12909
  1.0180   -0.12013
  1.0200   -0.11478
  1.0220   -0.10907
  1.0240   -0.10855
  1.0260   -0.11154
  1.0280   -0.10713
  1.0300   -0.09452
  1.0320   -0.07969
  1.0340   -0.05405
  1.0360   -0.02359
  1.0380    0.01561
  1.0400    0.05842
  1.0420    0.09439
  1.0440    0.12247
  1.0460    0.14163
  1.0480    0.14884
  1.0500    0.14225
  1.0520    0.12977
  1.0540    0.11506
  1.0560    0.09168
  1.0580    0.06955
  1.0600    0.05682
  1.0620    0.03969
  1.0640    0.03309
  1.0660    0.03300
  1.0680    0.05098
  1.0700    0.08437
  1.0720    0.13803
  1.0740    0.20147
  1.0760    0.26513
  1.0780    0.33358
  1.0800    0.38350
  1.0820    0.40896
  1.0840    0.39391
  1.0860    0.33564
  1.0880    0.24026
  1.0900    0.10924
  1.0920   -0.01672
  1.0940   -0.11502
  1.0960   -0.16261
  1.0980   -0.15055
  1.1000   -0.06926
  1.1020    0.06399
  1.1040    0.22006
  1.1060    0.36434
  1.1080    0.47791
  1.1100    0.54212
  1.1120    0.56647
  1.1140    0.53969
  1.1160    0.47941
  1.1180    0.40535
  1.1200    0.33834
  1.1220    0.27904
  1.1240    0.23561
  1.1260    0.21154
  1.1280    0.20386
  1.1300    0.21700
  1.1320    0.24063
  1.1340    0.27312
  1.1360    0.30186
  1.1380    0.34404
  1.1400    0.37275
  1.1420    0.40280
  1.1440    0.42966
  1.1460    0.45077
  1.1480    0.46272
  1.1500    0.46976
  1.1520    0.46967
  1.1540    0.46682
  1.1560    0.45658
  1.1580    0.44144
  1.1600    0.42873
  1.1620    0.41773
  1.1640    0.41253
  1.1660    0.41186
  1.1680    0.40394
  1.1700    0.40682
  1.1720    0.40884
  1.1740    0.41613
  1.1760    0.42936
  1.1780    0.43863
  1.1800    0.44763
  1.1820    0.46073
  1.1840    0.47044
  1.1860    0.48072
  1.1880    0.48516
  1.1900    0.49012
  1.1920    0.49295
  1.1940    0.49361
  1.1960    0.48660
  1.1980    0.48495
  1.2000    0.48352
