# z (nm)   (kJ/mol)
  0.1980  315.36780
  0.2000  311.86839
  0.2020  307.73472
  0.2040  304.66296
  0.2060  301.34431
  0.2080  297.96138
  0.2100  294.52763
  0.2120  290.98613
  0.2140  287.28908
  0.2160  283.36477
  0.2180  279.20146
  0.2200  274.75360
  0.2220  269.97972
  0.2240  264.82977
  0.2260  259.25252
  0.2280  253.18844
  0.2300  246.57879
  0.2320  239.38829
  0.2340  231.65428
  0.2360  223.47957
  0.2380  215.03345
  0.2400  206.51241
  0.2420  198.08924
  0.2440  189.88701
  0.2460  181.92431
  0.2480  174.16796
  0.2500  166.57788
  0.2520  159.18440
  0.2540  152.02210
  0.2560  145.10878
  0.2580  138.43810
  0.2600  132.02937
  0.2620  125.94687
  0.2640  120.27406
  0.2660  115.06674
  0.2680  110.29961
  0.2700  105.86196
  0.2720  101.61146
  0.2740   97.41412
  0.2760   93.19625
  0.2780   88.98416
  0.2800   84.87457
  0.2820   80.97338
  0.2840   77.32960
  0.2860   73.91802
  0.2880   70.68377
  0.2900   67.58430
  0.2920   64.61875
  0.2940   61.78934
  0.2960   59.09444
  0.2980   56.52991
  0.3000   54.08035
  0.3020   51.74711
  0.3040   49.53201
  0.3060   47.44801
  0.3080   45.51562
  0.3100   43.72863
  0.3120   42.08207
  0.3140   40.52543
  0.3160   39.00530
  0.3180   37.49975
  0.3200   36.00110
  0.3220   34.54540
  0.3240   33.17201
  0.3260   31.91576
  0.3280   30.78370
  0.3300   29.74549
  0.3320   28.79074
  0.3340   27.89279
  0.3360   27.02547
  0.3380   26.17354
  0.3400   25.34148
  0.3420   24.53496
  0.3440   23.74867
  0.3460   22.99184
  0.3480   22.26482
  0.3500   21.56646
  0.3520   20.90487
  0.3540   20.28043
  0.3560   19.69229
  0.3580   19.16690
  0.3600   18.69271
  0.3620   18.26009
  0.3640   17.85535
  0.3660   17.47563
  0.3680   17.10627
  0.3700   16.73827
  0.3720   16.37131
  0.3740   16.00482
  0.3760   15.65070
  0.3780   15.30167
  0.3800   14.97807
  0.3820   14.67967
  0.3840   14.41494
  0.3860   14.17793
  0.3880   13.97104
  0.3900   13.77759
  0.3920   13.61037
  0.3940   13.45077
  0.3960   13.29572
  0.3980   13.14453
  0.4000   12.98154
  0.4020   12.81690
  0.4040   12.64686
  0.4060   12.48688
  0.4080   12.34884
  0.4100   12.22883
  0.4120   12.14610
  0.4140   12.07726
  0.4160   12.01439
  0.4180   11.93468
  0.4200   11.84408
  0.4220   11.74084
  0.4240   11.62776
  0.4260   11.51577
  0.4280   11.41554
  0.4300   11.33556
  0.4320   11.27743
  0.4340   11.24237
  0.4360   11.21941
  0.4380   11.21772
  0.4400   11.20914
  0.4420   11.21004
  0.4440   11.17142
  0.4460   11.11695
  0.4480   11.04599
  0.4500   10.96260
  0.4520   10.87956
  0.4540   10.79293
  0.4560   10.71350
  0.4580   10.63611
  0.4600   10.56595
  0.4620   10.50627
  0.4640   10.43422
  0.4660   10.35539
  0.4680   10.26742
  0.4700   10.16867
  0.4720   10.05549
  0.4740    9.92746
  0.4760    9.78980
  0.4780    9.63904
  0.4800    9.48148
  0.4820    9.32516
  0.4840    9.16484
  0.4860    9.00074
  0.4880    8.83917
  0.4900    8.66606
  0.4920    8.48724
  0.4940    8.30313
  0.4960    8.12297
  0.4980    7.93479
  0.5000    7.74394
  0.5020    7.55530
  0.5040    7.37150
  0.5060    7.18646
  0.5080    6.99384
  0.5100    6.79975
  0.5120    6.60482
  0.5140    6.39765
  0.5160    6.18393
  0.5180    5.98635
  0.5200    5.78185
  0.5220    5.58193
  0.5240    5.39165
  0.5260    5.21210
  0.5280    5.03835
  0.5300    4.87179
  0.5320    4.70211
  0.5340    4.53343
  0.5360    4.36302
  0.5380    4.19658
  0.5400    4.03150
  0.5420    3.86805
  0.5440    3.70915
  0.5460    3.55548
  0.5480    3.41521
  0.5500    3.28504
  0.5520    3.16034
  0.5540    3.04253
  0.5560    2.93217
  0.5580    2.83198
  0.5600    2.73307
  0.5620    2.63587
  0.5640    2.54755
  0.5660    2.46711
  0.5680    2.38716
  0.5700    2.30940
  0.5720    2.23171
  0.5740    2.15837
  0.5760    2.08602
  0.5780    2.00878
  0.5800    1.92603
  0.5820    1.84034
  0.5840    1.74969
  0.5860    1.66303
  0.5880    1.57557
  0.5900    1.49703
  0.5920    1.43030
  0.5940    1.38271
  0.5960    1.34982
  0.5980    1.32480
  0.6000    1.30556
  0.6020    1.29219
  0.6040    1.27400
  0.6060    1.24898
  0.6080    1.20705
  0.6100    1.15002
  0.6120    1.07607
  0.6140    0.99132
  0.6160    0.90037
  0.6180    0.81111
  0.6200    0.72747
  0.6220    0.65765
  0.6240    0.60225
  0.6260    0.56511
  0.6280    0.54742
  0.6300    0.54595
  0.6320    0.55251
  0.6340    0.56911
  0.6360    0.57857
  0.6380    0.58349
  0.6400    0.57735
  0.6420    0.55484
  0.6440    0.51146
  0.6460    0.46477
  0.6480    0.40476
  0.6500    0.34928
  0.6520    0.29929
  0.6540    0.25460
  0.6560    0.22188
  0.6580    0.20407
  0.6600    0.19565
  0.6620    0.20095
  0.6640    0.21740
  0.6660    0.23408
  0.6680    0.25320
  0.6700    0.27230
  0.6720    0.29044
  0.6740    0.29303
  0.6760    0.28977
  0.6780    0.28031
  0.6800    0.25059
  0.6820    0.22820
  0.6840    0.20481
  0.6860    0.18805
  0.6880    0.16743
  0.6900    0.14708
  0.6920    0.14098
  0.6940    0.14475
  0.6960    0.15348
  0.6980    0.17024
  0.7000    0.18929
  0.7020    0.21313
  0.7040    0.22976
  0.7060    0.24329
  0.7080    0.25145
  0.7100    0.25618
  0.7120    0.25640
  0.7140    0.24780
  0.7160    0.24082
  0.7180    0.23915
  0.7200    0.24374
  0.7220    0.25782
  0.7240    0.28082
  0.7260    0.30739
  0.7280    0.33617
  0.7300    0.36133
  0.7320    0.38379
  0.7340    0.39197
  0.7360    0.39655
  0.7380    0.39417
  0.7400    0.38699
  0.7420    0.37571
  0.7440    0.36550
  0.7460    0.35634
  0.7480    0.34469
  0.7500    0.33488
  0.7520    0.32440
  0.7540    0.30586
  0.7560    0.29571
  0.7580    0.29060
  0.7600    0.28677
  0.7620    0.28617
  0.7640    0.28865
  0.7660    0.30620
  0.7680    0.31624
  0.7700    0.33402
  0.7720    0.35073
  0.7740    0.37259
  0.7760    0.39099
  0.7780    0.40448
  0.7800    0.41118
  0.7820    0.40782
  0.7840    0.39834
  0.7860    0.38665
  0.7880    0.36215
  0.7900    0.34223
  0.7920    0.32087
  0.7940    0.30420
  0.7960    0.29838
  0.7980    0.30539
  0.8000    0.32057
  0.8020    0.33878
  0.8040    0.36195
  0.8060    0.39776
  0.8080    0.43009
  0.8100    0.46028
  0.8120    0.48894
  0.8140    0.51506
  0.8160    0.53383
  0.8180    0.54898
  0.8200    0.55633
  0.8220    0.56221
  0.8240    0.55902
  0.8260    0.55152
  0.8280    0.53635
  0.8300    0.51925
  0.8320    0.50833
  0.8340    0.49804
  0.8360    0.49057
  0.8380    0.49600
  0.8400    0.50576
  0.8420    0.52598
  0.8440    0.55689
  0.8460    0.58604
  0.8480    0.61138
  0.8500    0.63417
  0.8520    0.65319
  0.8540    0.65872
  0.8560    0.65350
  0.8580    0.64423
  0.8600    0.61312
  0.8620    0.58127
  0.8640    0.53609
  0.8660    0.49304
  0.8680    0.45503
  0.8700    0.41691
  0.8720    0.38896
  0.8740    0.37410
  0.8760    0.36407
  0.8780    0.36867
  0.8800    0.37773
  0.8820    0.39055
  0.8840    0.40580
  0.8860    0.41750
  0.8880    0.41887
  0.8900    0.41696
  0.8920    0.40625
  0.8940    0.38657
  0.8960    0.36489
  0.8980    0.33880
  0.9000    0.31389
  0.9020    0.28341
  0.9040    0.26603
  0.9060    0.25038
  0.9080    0.24804
  0.9100    0.25072
  0.9120    0.25663
  0.9140    0.26689
  0.9160    0.28134
  0.9180    0.29637
  0.9200    0.30770
  0.9220    0.31291
  0.9240    0.30777
  0.9260    0.29375
  0.9280    0.27397
  0.9300    0.24750
  0.9320    0.22519
  0.9340    0.19085
  0.9360    0.15918
  0.9380    0.12680
  0.9400    0.09944
  0.9420    0.07683
  0.9440    0.06141
  0.9460    0.03974
  0.9480    0.01798
  0.9500    0.00989
  0.9520    0.00720
  0.9540   -0.00020
  0.9560   -0.00488
  0.9580   -0.00516
  0.9600    0.00146
  0.9620    0.00881
  0.9640    0.01476
  0.9660    0.01460
  0.9680    0.01165
  0.9700    0.00634
  0.9720   -0.00619
  0.9740   -0.02069
  0.9760   -0.03960
  0.9780   -0.06234
  0.9800   -0.08383
  0.9820   -0.10003
  0.9840   -0.10596
  0.9860   -0.10134
  0.9880   -0.08415
  0.9900   -0.06251
  0.9920   -0.04432
  0.9940   -0.02936
  0.9960   -0.02455
  0.9980   -0.03629
  1.0000   -0.06132
  1.0020   -0.09689
  1.0040   -0.13929
  1.0060   -0.18191
  1.0080   -0.21140
  1.0100   -0.23436
  1.0120   -0.24832
  1.0140   -0.24603
  1.0160   -0.23599
  1.0180   -0.22048
  1.0200   -0.20811
  1.0220   -0.20131
  1.0240   -0.19913
  1.0260   -0.19570
  1.0280   -0.19493
  1.0300   -0.19713
  1.0320   -0.19392
  1.0340   -0.18052
  1.0360   -0.16515
  1.0380   -0.14052
  1.0400   -0.10845
  1.0420   -0.07980
  1.0440   -0.06156
  1.0460   -0.04690
  1.0480   -0.04668
  1.0500   -0.06185
  1.0520   -0.08373
  1.0540   -0.11004
  1.0560   -0.13458
  1.0580   -0.15987
  1.0600   -0.17270
  1.0620   -0.17772
  1.0640   -0.16614
  1.0660   -0.14424
  1.0680   -0.12031
  1.0700   -0.08902
  1.0720   -0.05778
  1.0740   -0.03010
  1.0760   -0.01429
  1.0780    0.00189
  1.0800    0.00841
  1.0820    0.01055
  1.0840    0.01570
  1.0860    0.01152
  1.0880    0.00253
  1.0900   -0.00718
  1.0920   -0.01566
  1.0940   -0.02006
  1.0960   -0.02102
  1.0980   -0.01702
  1.1000   -0.00959
  1.1020    0.00188
  1.1040    0.01419
  1.1060    0.02740
  1.1080    0.04686
  1.1100    0.05739
  1.1120    0.06569
  1.1140    0.06766
  1.1160    0.06816
  1.1180    0.06872
  1.1200    0.06059
  1.1220    0.05478
  1.1240    0.05068
  1.1260    0.05133
  1.1280    0.04847
  1.1300    0.04663
  1.1320    0.04117
  1.1340    0.04374
  1.1360    0.05096
  1.1380    0.05397
  1.1400    0.05214
  1.1420    0.04612
  1.1440    0.04377
  1.1460    0.03985
  1.1480    0.03434
  1.1500    0.02973
  1.1520    0.02585
  1.1540    0.01935
  1.1560    0.01039
  1.1580    0.00786
  1.1600   -0.00023
  1.1620   -0.00519
  1.1640   -0.00896
  1.1660   -0.00989
  1.1680   -0.00915
  1.1700   -0.01204
  1.1720   -0.01172
  1.1740   -0.01323
  1.1760   -0.01259
  1.1780   -0.00960
  1.1800   -0.00741
  1.1820   -0.00867
  1.1840   -0.00217
  1.1860   -0.00232
  1.1880    0.00388
  1.1900    0.00882
  1.1920    0.01276
  1.1940    0.02098
  1.1960    0.02592
  1.1980    0.03306
  1.2000    0.03206
