# z (nm)   (kJ/mol)
  0.2040  309.26811
  0.2060  304.09080
  0.2080  299.26360
  0.2100  295.80641
  0.2120  292.58729
  0.2140  289.49028
  0.2160  286.33696
  0.2180  283.10474
  0.2200  279.75121
  0.2220  276.23592
  0.2240  272.52516
  0.2260  268.59160
  0.2280  264.39805
  0.2300  259.90082
  0.2320  255.05922
  0.2340  249.83698
  0.2360  244.18315
  0.2380  238.05700
  0.2400  231.41775
  0.2420  224.23859
  0.2440  216.51070
  0.2460  208.24289
  0.2480  199.50066
  0.2500  190.43967
  0.2520  181.41527
  0.2540  172.89376
  0.2560  165.22144
  0.2580  158.44263
  0.2600  152.34454
  0.2620  146.65651
  0.2640  141.17228
  0.2660  135.78695
  0.2680  130.49404
  0.2700  125.34963
  0.2720  120.41854
  0.2740  115.73852
  0.2760  111.30393
  0.2780  107.06980
  0.2800  102.97621
  0.2820   98.95936
  0.2840   94.98179
  0.2860   91.03074
  0.2880   87.09880
  0.2900   83.22731
  0.2920   79.46503
  0.2940   75.87066
  0.2960   72.48021
  0.2980   69.27307
  0.3000   66.19297
  0.3020   63.17064
  0.3040   60.21320
  0.3060   57.39165
  0.3080   54.79666
  0.3100   52.42448
  0.3120   50.21239
  0.3140   48.11292
  0.3160   46.12016
  0.3180   44.24248
  0.3200   42.47172
  0.3220   40.79771
  0.3240   39.21782
  0.3260   37.74752
  0.3280   36.39841
  0.3300   35.15911
  0.3320   34.01182
  0.3340   32.92068
  0.3360   31.88156
  0.3380   30.88835
  0.3400   29.95851
  0.3420   29.12102
  0.3440   28.37590
  0.3460   27.72796
  0.3480   27.16763
  0.3500   26.67681
  0.3520   26.24135
  0.3540   25.84926
  0.3560   25.49673
  0.3580   25.16173
  0.3600   24.84052
  0.3620   24.48997
  0.3640   24.08208
  0.3660   23.60632
  0.3680   23.05052
  0.3700   22.42410
  0.3720   21.76418
  0.3740   21.07784
  0.3760   20.37287
  0.3780   19.65688
  0.3800   18.92209
  0.3820   18.16553
  0.3840   17.38527
  0.3860   16.59380
  0.3880   15.81046
  0.3900   15.06620
  0.3920   14.37639
  0.3940   13.74613
  0.3960   13.18516
  0.3980   12.69518
  0.4000   12.26502
  0.4020   11.89756
  0.4040   11.57194
  0.4060   11.27738
  0.4080   10.99144
  0.4100   10.70357
  0.4120   10.41327
  0.4140   10.12984
  0.4160    9.87017
  0.4180    9.65536
  0.4200    9.48031
  0.4220    9.31839
  0.4240    9.16638
  0.4260    9.00460
  0.4280    8.83108
  0.4300    8.64927
  0.4320    8.45923
  0.4340    8.29682
  0.4360    8.15767
  0.4380    8.03935
  0.4400    7.96000
  0.4420    7.89110
  0.4440    7.81871
  0.4460    7.73400
  0.4480    7.63261
  0.4500    7.54006
  0.4520    7.46458
  0.4540    7.43309
  0.4560    7.44680
  0.4580    7.49770
  0.4600    7.56547
  0.4620    7.62765
  0.4640    7.66044
  0.4660    7.63404
  0.4680    7.56910
  0.4700    7.49126
  0.4720    7.40857
  0.4740    7.36206
  0.4760    7.36133
  0.4780    7.39377
  0.4800    7.44578
  0.4820    7.49607
  0.4840    7.50316
  0.4860    7.47794
  0.4880    7.42052
  0.4900    7.32671
  0.4920    7.21834
  0.4940    7.10266
  0.4960    6.98084
  0.4980    6.86350
  0.5000    6.76192
  0.5020    6.66564
  0.5040    6.58110
  0.5060    6.48291
  0.5080    6.37848
  0.5100    6.25938
  0.5120    6.12160
  0.5140    5.97078
  0.5160    5.80308
  0.5180    5.62515
  0.5200    5.45192
  0.5220    5.28731
  0.5240    5.12964
  0.5260    4.98265
  0.5280    4.84248
  0.5300    4.70144
  0.5320    4.55858
  0.5340    4.40232
  0.5360    4.24572
  0.5380    4.09232
  0.5400    3.95691
  0.5420    3.82906
  0.5440    3.71224
  0.5460    3.60494
  0.5480    3.50153
  0.5500    3.38289
  0.5520    3.23983
  0.5540    3.07959
  0.5560    2.89510
  0.5580    2.71377
  0.5600    2.52560
  0.5620    2.35489
  0.5640    2.20956
  0.5660    2.08168
  0.5680    1.96976
  0.5700    1.86027
  0.5720    1.74084
  0.5740    1.59447
  0.5760    1.42717
  0.5780    1.25158
  0.5800    1.07100
  0.5820    0.90153
  0.5840    0.74747
  0.5860    0.61019
  0.5880    0.49357
  0.5900    0.39111
  0.5920    0.30774
  0.5940    0.24986
  0.5960    0.20535
  0.5980    0.17342
  0.6000    0.13991
  0.6020    0.08236
  0.6040    0.02513
  0.6060   -0.03012
  0.6080   -0.07169
  0.6100   -0.10011
  0.6120   -0.12038
  0.6140   -0.13185
  0.6160   -0.14726
  0.6180   -0.16627
  0.6200   -0.18222
  0.6220   -0.18236
  0.6240   -0.17065
  0.6260   -0.14524
  0.6280   -0.09536
  0.6300   -0.02311
  0.6320    0.04865
  0.6340    0.12257
  0.6360    0.17723
  0.6380    0.22180
  0.6400    0.25138
  0.6420    0.27372
  0.6440    0.29204
  0.6460    0.30902
  0.6480    0.32923
  0.6500    0.34427
  0.6520    0.36561
  0.6540    0.39191
  0.6560    0.40972
  0.6580    0.42282
  0.6600    0.43550
  0.6620    0.45025
  0.6640    0.45851
  0.6660    0.45922
  0.6680    0.45594
  0.6700    0.43742
  0.6720    0.40712
  0.6740    0.36139
  0.6760    0.31139
  0.6780    0.25566
  0.6800    0.18752
  0.6820    0.12662
  0.6840    0.06589
  0.6860    0.01646
  0.6880   -0.02639
  0.6900   -0.05293
  0.6920   -0.07423
  0.6940   -0.09177
  0.6960   -0.11396
  0.6980   -0.14745
  0.7000   -0.18553
  0.7020   -0.23043
  0.7040   -0.27834
  0.7060   -0.32899
  0.7080   -0.37575
  0.7100   -0.41446
  0.7120   -0.45116
  0.7140   -0.49045
  0.7160   -0.51651
  0.7180   -0.53192
  0.7200   -0.53853
  0.7220   -0.54714
  0.7240   -0.54818
  0.7260   -0.54663
  0.7280   -0.53673
  0.7300   -0.53396
  0.7320   -0.53186
  0.7340   -0.53831
  0.7360   -0.53624
  0.7380   -0.55292
  0.7400   -0.56969
  0.7420   -0.59015
  0.7440   -0.60451
  0.7460   -0.60694
  0.7480   -0.60292
  0.7500   -0.58859
  0.7520   -0.55109
  0.7540   -0.50947
  0.7560   -0.45906
  0.7580   -0.40652
  0.7600   -0.36148
  0.7620   -0.33050
  0.7640   -0.31635
  0.7660   -0.31468
  0.7680   -0.31649
  0.7700   -0.31834
  0.7720   -0.31914
  0.7740   -0.31552
  0.7760   -0.29708
  0.7780   -0.26934
  0.7800   -0.24091
  0.7820   -0.20653
  0.7840   -0.18004
  0.7860   -0.14605
  0.7880   -0.11807
  0.7900   -0.09160
  0.7920   -0.06701
  0.7940   -0.04246
  0.7960   -0.02127
  0.7980    0.00380
  0.8000    0.02866
  0.8020    0.06002
  0.8040    0.09562
  0.8060    0.12812
  0.8080    0.15988
  0.8100    0.18089
  0.8120    0.19927
  0.8140    0.21328
  0.8160    0.22095
  0.8180    0.22023
  0.8200    0.22919
  0.8220    0.23813
  0.8240    0.24908
  0.8260    0.25755
  0.8280    0.26081
  0.8300    0.26544
  0.8320    0.27203
  0.8340    0.27564
  0.8360    0.27143
  0.8380    0.27001
  0.8400    0.26990
  0.8420    0.27529
  0.8440    0.28167
  0.8460    0.28361
  0.8480    0.29105
  0.8500    0.29577
  0.8520    0.29608
  0.8540    0.29376
  0.8560    0.27589
  0.8580    0.24793
  0.8600    0.21841
  0.8620    0.18843
  0.8640    0.16199
  0.8660    0.13568
  0.8680    0.11937
  0.8700    0.11539
  0.8720    0.11394
  0.8740    0.12353
  0.8760    0.14091
  0.8780    0.15005
  0.8800    0.16061
  0.8820    0.16370
  0.8840    0.16188
  0.8860    0.15966
  0.8880    0.15165
  0.8900    0.15076
  0.8920    0.15964
  0.8940    0.16337
  0.8960    0.16172
  0.8980    0.16502
  0.9000    0.15689
  0.9020    0.14848
  0.9040    0.13168
  0.9060    0.11264
  0.9080    0.10978
  0.9100    0.11268
  0.9120    0.12738
  0.9140    0.14825
  0.9160    0.16362
  0.9180    0.16571
  0.9200    0.15977
  0.9220    0.14755
  0.9240    0.13195
  0.9260    0.11457
  0.9280    0.09954
  0.9300    0.09277
  0.9320    0.08949
  0.9340    0.09274
  0.9360    0.10189
  0.9380    0.11140
  0.9400    0.12183
  0.9420    0.11548
  0.9440    0.11423
  0.9460    0.10492
  0.9480    0.09496
  0.9500    0.08543
  0.9520    0.07770
  0.9540    0.07747
  0.9560    0.07515
  0.9580    0.05602
  0.9600    0.01915
  0.9620   -0.02837
  0.9640   -0.09175
  0.9660   -0.15015
  0.9680   -0.18662
  0.9700   -0.20242
  0.9720   -0.18178
  0.9740   -0.14201
  0.9760   -0.09393
  0.9780   -0.04803
  0.9800   -0.01287
  0.9820    0.00203
  0.9840    0.00244
  0.9860   -0.01365
  0.9880   -0.02950
  0.9900   -0.05314
  0.9920   -0.07560
  0.9940   -0.08706
  0.9960   -0.09644
  0.9980   -0.10625
  1.0000   -0.11243
  1.0020   -0.12298
  1.0040   -0.13868
  1.0060   -0.15422
  1.0080   -0.17386
  1.0100   -0.18549
  1.0120   -0.19246
  1.0140   -0.19254
  1.0160   -0.20194
  1.0180   -0.20606
  1.0200   -0.21366
  1.0220   -0.21441
  1.0240   -0.19481
  1.0260   -0.15962
  1.0280   -0.11070
  1.0300   -0.05362
  1.0320   -0.00600
  1.0340    0.00311
  1.0360   -0.04156
  1.0380   -0.14436
  1.0400   -0.27705
  1.0420   -0.40674
  1.0440   -0.46939
  1.0460   -0.44558
  1.0480   -0.34521
  1.0500   -0.20586
  1.0520   -0.06718
  1.0540    0.01937
  1.0560    0.04843
  1.0580    0.03303
  1.0600   -0.00199
  1.0620   -0.03115
  1.0640   -0.06050
  1.0660   -0.07861
  1.0680   -0.08882
  1.0700   -0.09846
  1.0720   -0.12099
  1.0740   -0.14982
  1.0760   -0.17486
  1.0780   -0.19719
  1.0800   -0.20561
  1.0820   -0.19933
  1.0840   -0.18016
  1.0860   -0.14659
  1.0880   -0.11120
  1.0900   -0.07541
  1.0920   -0.04369
  1.0940   -0.02408
  1.0960   -0.01530
  1.0980   -0.01572
  1.1000   -0.02322
  1.1020   -0.03003
  1.1040   -0.03633
  1.1060   -0.04178
  1.1080   -0.04592
  1.1100   -0.05060
  1.1120   -0.03410
  1.1140   -0.02228
  1.1160   -0.00227
  1.1180    0.01688
  1.1200    0.03126
  1.1220    0.03651
  1.1240    0.04581
  1.1260    0.03757
  1.1280    0.02751
  1.1300    0.02694
  1.1320    0.02032
  1.1340    0.01711
  1.1360    0.02590
  1.1380    0.03416
  1.1400    0.03403
  1.1420    0.04618
  1.1440    0.05766
  1.1460    0.07238
  1.1480    0.08626
  1.1500    0.09346
  1.1520    0.10330
  1.1540    0.10861
  1.1560    0.10848
  1.1580    0.10742
  1.1600    0.10878
  1.1620    0.11045
  1.1640    0.11746
  1.1660    0.12608
  1.1680    0.14670
  1.1700    0.17017
  1.1720    0.19137
  1.1740    0.20522
  1.1760    0.22277
  1.1780    0.23875
  1.1800    0.24964
  1.1820    0.25526
  1.1840    0.25885
  1.1860    0.26011
  1.1880    0.25868
  1.1900    0.25337
  1.1920    0.25239
  1.1940    0.24768
  1.1960    0.23923
  1.1980    0.23906
  1.2000    0.23961
