# z (nm)   (kJ/mol)
  0.1920  321.53245
  0.1940  319.08944
  0.1960  315.64074
  0.1980  312.28188
  0.2000  308.96243
  0.2020  306.08105
  0.2040  303.13348
  0.2060  300.14323
  0.2080  297.03774
  0.2100  293.82087
  0.2120  290.43405
  0.2140  286.84545
  0.2160  283.02044
  0.2180  278.90782
  0.2200  274.45530
  0.2220  269.59596
  0.2240  264.24361
  0.2260  258.29818
  0.2280  251.66433
  0.2300  244.26450
  0.2320  236.11601
  0.2340  227.37043
  0.2360  218.30522
  0.2380  209.21562
  0.2400  200.28640
  0.2420  191.61808
  0.2440  183.28967
  0.2460  175.40094
  0.2480  168.03216
  0.2500  161.21881
  0.2520  154.91742
  0.2540  149.01909
  0.2560  143.39830
  0.2580  137.96204
  0.2600  132.63374
  0.2620  127.41660
  0.2640  122.37193
  0.2660  117.60568
  0.2680  113.17296
  0.2700  109.04124
  0.2720  105.11081
  0.2740  101.30540
  0.2760   97.58274
  0.2780   93.96805
  0.2800   90.50743
  0.2820   87.21694
  0.2840   84.07396
  0.2860   81.02135
  0.2880   78.01290
  0.2900   75.01632
  0.2920   72.06497
  0.2940   69.19845
  0.2960   66.45508
  0.2980   63.84345
  0.3000   61.35851
  0.3020   58.95658
  0.3040   56.62779
  0.3060   54.37243
  0.3080   52.20140
  0.3100   50.11480
  0.3120   48.12261
  0.3140   46.22568
  0.3160   44.41453
  0.3180   42.69860
  0.3200   41.07732
  0.3220   39.55407
  0.3240   38.12803
  0.3260   36.78187
  0.3280   35.51959
  0.3300   34.32873
  0.3320   33.19601
  0.3340   32.10488
  0.3360   31.05450
  0.3380   30.04219
  0.3400   29.06179
  0.3420   28.10852
  0.3440   27.18484
  0.3460   26.30375
  0.3480   25.46120
  0.3500   24.66704
  0.3520   23.91086
  0.3540   23.20088
  0.3560   22.53713
  0.3580   21.91308
  0.3600   21.32144
  0.3620   20.75430
  0.3640   20.21233
  0.3660   19.68947
  0.3680   19.18821
  0.3700   18.70153
  0.3720   18.23141
  0.3740   17.77653
  0.3760   17.34285
  0.3780   16.92860
  0.3800   16.52901
  0.3820   16.15389
  0.3840   15.79314
  0.3860   15.44515
  0.3880   15.12274
  0.3900   14.81670
  0.3920   14.52596
  0.3940   14.25245
  0.3960   13.99220
  0.3980   13.74637
  0.4000   13.50870
  0.4020   13.27928
  0.4040   13.06034
  0.4060   12.84506
  0.4080   12.64786
  0.4100   12.46804
  0.4120   12.29745
  0.4140   12.14262
  0.4160   11.99968
  0.4180   11.85548
  0.4200   11.73257
  0.4220   11.61436
  0.4240   11.50751
  0.4260   11.40308
  0.4280   11.30038
  0.4300   11.19752
  0.4320   11.08716
  0.4340   10.98771
  0.4360   10.88932
  0.4380   10.79964
  0.4400   10.71491
  0.4420   10.63636
  0.4440   10.56372
  0.4460   10.49798
  0.4480   10.43957
  0.4500   10.38953
  0.4520   10.34614
  0.4540   10.29737
  0.4560   10.25502
  0.4580   10.20803
  0.4600   10.15568
  0.4620   10.09975
  0.4640   10.04035
  0.4660    9.95954
  0.4680    9.87742
  0.4700    9.78941
  0.4720    9.69831
  0.4740    9.59150
  0.4760    9.48552
  0.4780    9.37431
  0.4800    9.25536
  0.4820    9.12774
  0.4840    8.99295
  0.4860    8.85282
  0.4880    8.70388
  0.4900    8.54439
  0.4920    8.37803
  0.4940    8.19563
  0.4960    7.99918
  0.4980    7.80032
  0.5000    7.58673
  0.5020    7.36726
  0.5040    7.14513
  0.5060    6.92152
  0.5080    6.70095
  0.5100    6.48093
  0.5120    6.26923
  0.5140    6.06277
  0.5160    5.86364
  0.5180    5.66096
  0.5200    5.46842
  0.5220    5.27749
  0.5240    5.07531
  0.5260    4.87470
  0.5280    4.66878
  0.5300    4.46618
  0.5320    4.26799
  0.5340    4.08341
  0.5360    3.91259
  0.5380    3.74874
  0.5400    3.59708
  0.5420    3.46237
  0.5440    3.33051
  0.5460    3.20258
  0.5480    3.08763
  0.5500    2.97216
  0.5520    2.85051
  0.5540    2.72964
  0.5560    2.61069
  0.5580    2.49714
  0.5600    2.38264
  0.5620    2.27115
  0.5640    2.16552
  0.5660    2.06232
  0.5680    1.96131
  0.5700    1.87936
  0.5720    1.79773
  0.5740    1.72061
  0.5760    1.65403
  0.5780    1.59441
  0.5800    1.53729
  0.5820    1.49100
  0.5840    1.43910
  0.5860    1.39041
  0.5880    1.33634
  0.5900    1.28797
  0.5920    1.23308
  0.5940    1.17449
  0.5960    1.11225
  0.5980    1.03923
  0.6000    0.95605
  0.6020    0.86941
  0.6040    0.78391
  0.6060    0.69381
  0.6080    0.61266
  0.6100    0.53253
  0.6120    0.46542
  0.6140    0.41146
  0.6160    0.36890
  0.6180    0.34394
  0.6200    0.31126
  0.6220    0.29131
  0.6240    0.27486
  0.6260    0.25838
  0.6280    0.23433
  0.6300    0.21827
  0.6320    0.18516
  0.6340    0.14466
  0.6360    0.09755
  0.6380    0.04062
  0.6400   -0.02340
  0.6420   -0.08649
  0.6440   -0.15372
  0.6460   -0.21783
  0.6480   -0.27387
  0.6500   -0.31652
  0.6520   -0.34770
  0.6540   -0.36626
  0.6560   -0.37965
  0.6580   -0.38422
  0.6600   -0.37995
  0.6620   -0.37592
  0.6640   -0.37264
  0.6660   -0.37278
  0.6680   -0.37850
  0.6700   -0.38637
  0.6720   -0.41155
  0.6740   -0.43089
  0.6760   -0.44379
  0.6780   -0.46379
  0.6800   -0.47628
  0.6820   -0.48762
  0.6840   -0.48996
  0.6860   -0.48439
  0.6880   -0.47109
  0.6900   -0.44911
  0.6920   -0.42822
  0.6940   -0.40702
  0.6960   -0.37813
  0.6980   -0.35226
  0.7000   -0.33264
  0.7020   -0.32144
  0.7040   -0.31443
  0.7060   -0.31129
  0.7080   -0.30637
  0.7100   -0.30946
  0.7120   -0.31420
  0.7140   -0.30982
  0.7160   -0.30167
  0.7180   -0.29190
  0.7200   -0.27321
  0.7220   -0.25000
  0.7240   -0.22224
  0.7260   -0.18320
  0.7280   -0.14439
  0.7300   -0.10459
  0.7320   -0.06820
  0.7340   -0.03041
  0.7360    0.01064
  0.7380    0.04746
  0.7400    0.07785
  0.7420    0.11088
  0.7440    0.13649
  0.7460    0.15956
  0.7480    0.17377
  0.7500    0.19988
  0.7520    0.22081
  0.7540    0.24267
  0.7560    0.26918
  0.7580    0.29012
  0.7600    0.31437
  0.7620    0.34152
  0.7640    0.37199
  0.7660    0.40390
  0.7680    0.43141
  0.7700    0.46352
  0.7720    0.49674
  0.7740    0.52210
  0.7760    0.55099
  0.7780    0.57333
  0.7800    0.59596
  0.7820    0.61167
  0.7840    0.63021
  0.7860    0.64247
  0.7880    0.65607
  0.7900    0.67209
  0.7920    0.68082
  0.7940    0.69617
  0.7960    0.71072
  0.7980    0.72757
  0.8000    0.74203
  0.8020    0.75947
  0.8040    0.78006
  0.8060    0.80052
  0.8080    0.81737
  0.8100    0.83752
  0.8120    0.85185
  0.8140    0.86068
  0.8160    0.87149
  0.8180    0.87601
  0.8200    0.87652
  0.8220    0.87667
  0.8240    0.88256
  0.8260    0.87880
  0.8280    0.87777
  0.8300    0.87277
  0.8320    0.86719
  0.8340    0.86615
  0.8360    0.84967
  0.8380    0.83896
  0.8400    0.82154
  0.8420    0.80417
  0.8440    0.78915
  0.8460    0.77538
  0.8480    0.75834
  0.8500    0.74067
  0.8520    0.72529
  0.8540    0.71192
  0.8560    0.69642
  0.8580    0.68431
  0.8600    0.67599
  0.8620    0.66722
  0.8640    0.65889
  0.8660    0.65430
  0.8680    0.64031
  0.8700    0.62413
  0.8720    0.60643
  0.8740    0.57886
  0.8760    0.54515
  0.8780    0.50372
  0.8800    0.46559
  0.8820    0.41511
  0.8840    0.36660
  0.8860    0.31887
  0.8880    0.28372
  0.8900    0.24347
  0.8920    0.21551
  0.8940    0.19582
  0.8960    0.17671
  0.8980    0.16157
  0.9000    0.15209
  0.9020    0.14366
  0.9040    0.12936
  0.9060    0.11759
  0.9080    0.10421
  0.9100    0.09035
  0.9120    0.07516
  0.9140    0.06188
  0.9160    0.04387
  0.9180    0.02613
  0.9200    0.00150
  0.9220   -0.01876
  0.9240   -0.03833
  0.9260   -0.05686
  0.9280   -0.08051
  0.9300   -0.10995
  0.9320   -0.13217
  0.9340   -0.16181
  0.9360   -0.19058
  0.9380   -0.21567
  0.9400   -0.23562
  0.9420   -0.25739
  0.9440   -0.26956
  0.9460   -0.27586
  0.9480   -0.27994
  0.9500   -0.27988
  0.9520   -0.26940
  0.9540   -0.25477
  0.9560   -0.24519
  0.9580   -0.22732
  0.9600   -0.21534
  0.9620   -0.20530
  0.9640   -0.20141
  0.9660   -0.19995
  0.9680   -0.20845
  0.9700   -0.22525
  0.9720   -0.24503
  0.9740   -0.27510
  0.9760   -0.30995
  0.9780   -0.34658
  0.9800   -0.38142
  0.9820   -0.40835
  0.9840   -0.43259
  0.9860   -0.44731
  0.9880   -0.44572
  0.9900   -0.43270
  0.9920   -0.40894
  0.9940   -0.37448
  0.9960   -0.33706
  0.9980   -0.29562
  1.0000   -0.25953
  1.0020   -0.22907
  1.0040   -0.20723
  1.0060   -0.19488
  1.0080   -0.19501
  1.0100   -0.19865
  1.0120   -0.21301
  1.0140   -0.23013
  1.0160   -0.24526
  1.0180   -0.26526
  1.0200   -0.27958
  1.0220   -0.27524
  1.0240   -0.27824
  1.0260   -0.27027
  1.0280   -0.25434
  1.0300   -0.23175
  1.0320   -0.21181
  1.0340   -0.18427
  1.0360   -0.15752
  1.0380   -0.12741
  1.0400   -0.09649
  1.0420   -0.07164
  1.0440   -0.04858
  1.0460   -0.03280
  1.0480   -0.01595
  1.0500   -0.00449
  1.0520   -0.00028
  1.0540    0.00734
  1.0560    0.01427
  1.0580    0.02272
  1.0600    0.02657
  1.0620    0.03019
  1.0640    0.02969
  1.0660    0.03136
  1.0680    0.03083
  1.0700    0.03249
  1.0720    0.04176
  1.0740    0.04054
  1.0760    0.04339
  1.0780    0.04934
  1.0800    0.06036
  1.0820    0.07138
  1.0840    0.08387
  1.0860    0.09861
  1.0880    0.11635
  1.0900    0.13244
  1.0920    0.14701
  1.0940    0.16175
  1.0960    0.17567
  1.0980    0.18303
  1.1000    0.19239
  1.1020    0.19843
  1.1040    0.20657
  1.1060    0.20501
  1.1080    0.20429
  1.1100    0.20375
  1.1120    0.19866
  1.1140    0.19593
  1.1160    0.19923
  1.1180    0.20127
  1.1200    0.20454
  1.1220    0.20982
  1.1240    0.21925
  1.1260    0.22081
  1.1280    0.23074
  1.1300    0.24570
  1.1320    0.25866
  1.1340    0.26589
  1.1360    0.27427
  1.1380    0.28380
  1.1400    0.28107
  1.1420    0.27933
  1.1440    0.27773
  1.1460    0.27354
  1.1480    0.26785
  1.1500    0.26564
  1.1520    0.26148
  1.1540    0.26279
  1.1560    0.25973
  1.1580    0.26008
  1.1600    0.26076
  1.1620    0.26504
  1.1640    0.26787
  1.1660    0.27099
  1.1680    0.27540
  1.1700    0.28176
  1.1720    0.27849
  1.1740    0.27206
  1.1760    0.26761
  1.1780    0.26243
  1.1800    0.25682
  1.1820    0.25335
  1.1840    0.24631
  1.1860    0.23853
  1.1880    0.23187
  1.1900    0.23046
  1.1920    0.22462
  1.1940    0.21861
  1.1960    0.21823
  1.1980    0.21045
  1.2000    0.21024
