# z (nm)   (kJ/mol)
  0.0600  278.86749
  0.0620  276.26425
  0.0640  273.70018
  0.0660  270.69833
  0.0680  267.74175
  0.0700  265.10491
  0.0720  262.49021
  0.0740  259.87848
  0.0760  257.24425
  0.0780  254.59181
  0.0800  251.93740
  0.0820  249.23090
  0.0840  246.49507
  0.0860  243.70084
  0.0880  240.84079
  0.0900  237.90587
  0.0920  234.88082
  0.0940  231.76064
  0.0960  228.53584
  0.0980  225.20110
  0.1000  221.75726
  0.1020  218.21488
  0.1040  214.57996
  0.1060  210.86481
  0.1080  207.08567
  0.1100  203.26234
  0.1120  199.40358
  0.1140  195.52761
  0.1160  191.64457
  0.1180  187.76013
  0.1200  183.88599
  0.1220  180.02478
  0.1240  176.19223
  0.1260  172.38990
  0.1280  168.62857
  0.1300  164.92027
  0.1320  161.27773
  0.1340  157.71598
  0.1360  154.24731
  0.1380  150.87430
  0.1400  147.59555
  0.1420  144.39490
  0.1440  141.26555
  0.1460  138.19325
  0.1480  135.16448
  0.1500  132.17731
  0.1520  129.23080
  0.1540  126.32937
  0.1560  123.48620
  0.1580  120.70938
  0.1600  117.99658
  0.1620  115.33621
  0.1640  112.71296
  0.1660  110.11424
  0.1680  107.52301
  0.1700  104.92713
  0.1720  102.33132
  0.1740   99.74996
  0.1760   97.19157
  0.1780   94.67460
  0.1800   92.20479
  0.1820   89.78198
  0.1840   87.40138
  0.1860   85.06349
  0.1880   82.75667
  0.1900   80.47179
  0.1920   78.20704
  0.1940   75.96589
  0.1960   73.74608
  0.1980   71.55199
  0.2000   69.38880
  0.2020   67.25840
  0.2040   65.17086
  0.2060   63.12086
  0.2080   61.11966
  0.2100   59.16879
  0.2120   57.26235
  0.2140   55.40878
  0.2160   53.60619
  0.2180   51.84247
  0.2200   50.11139
  0.2220   48.41405
  0.2240   46.74175
  0.2260   45.09769
  0.2280   43.47628
  0.2300   41.88397
  0.2320   40.32585
  0.2340   38.80693
  0.2360   37.33084
  0.2380   35.89819
  0.2400   34.50124
  0.2420   33.15320
  0.2440   31.84897
  0.2460   30.58755
  0.2480   29.36495
  0.2500   28.17806
  0.2520   27.01662
  0.2540   25.88455
  0.2560   24.77288
  0.2580   23.68654
  0.2600   22.61113
  0.2620   21.55739
  0.2640   20.51699
  0.2660   19.50589
  0.2680   18.51736
  0.2700   17.57306
  0.2720   16.66872
  0.2740   15.80514
  0.2760   14.98825
  0.2780   14.21200
  0.2800   13.46774
  0.2820   12.75435
  0.2840   12.05752
  0.2860   11.38052
  0.2880   10.71942
  0.2900   10.06716
  0.2920    9.42771
  0.2940    8.80355
  0.2960    8.19493
  0.2980    7.61533
  0.3000    7.05868
  0.3020    6.53149
  0.3040    6.04803
  0.3060    5.59190
  0.3080    5.17381
  0.3100    4.77833
  0.3120    4.39672
  0.3140    4.02711
  0.3160    3.65935
  0.3180    3.29885
  0.3200    2.94017
  0.3220    2.58286
  0.3240    2.22910
  0.3260    1.89093
  0.3280    1.56591
  0.3300    1.25592
  0.3320    0.96918
  0.3340    0.70476
  0.3360    0.46623
  0.3380    0.25387
  0.3400    0.06586
  0.3420   -0.10062
  0.3440   -0.25385
  0.3460   -0.39512
  0.3480   -0.52418
  0.3500   -0.64265
  0.3520   -0.75999
  0.3540   -0.86705
  0.3560   -0.96968
  0.3580   -1.06449
  0.3600   -1.15277
  0.3620   -1.23410
  0.3640   -1.29857
  0.3660   -1.35562
  0.3680   -1.40002
  0.3700   -1.43139
  0.3720   -1.45244
  0.3740   -1.46519
  0.3760   -1.47141
  0.3780   -1.46782
  0.3800   -1.46094
  0.3820   -1.44526
  0.3840   -1.42517
  0.3860   -1.39380
  0.3880   -1.36188
  0.3900   -1.32313
  0.3920   -1.27528
  0.3940   -1.22160
  0.3960   -1.15857
  0.3980   -1.09493
  0.4000   -1.02275
  0.4020   -0.94415
  0.4040   -0.86132
  0.4060   -0.76909
  0.4080   -0.67533
  0.4100   -0.58050
  0.4120   -0.48320
  0.4140   -0.38191
  0.4160   -0.27961
  0.4180   -0.17696
  0.4200   -0.07442
  0.4220    0.02083
  0.4240    0.11076
  0.4260    0.20032
  0.4280    0.28214
  0.4300    0.36352
  0.4320    0.43937
  0.4340    0.51565
  0.4360    0.59200
  0.4380    0.66954
  0.4400    0.74782
  0.4420    0.82607
  0.4440    0.89849
  0.4460    0.97723
  0.4480    1.03930
  0.4500    1.10756
  0.4520    1.16967
  0.4540    1.22938
  0.4560    1.27964
  0.4580    1.32027
  0.4600    1.36020
  0.4620    1.38696
  0.4640    1.41382
  0.4660    1.42856
  0.4680    1.44038
  0.4700    1.45894
  0.4720    1.46657
  0.4740    1.47653
  0.4760    1.48729
  0.4780    1.49826
  0.4800    1.51326
  0.4820    1.52516
  0.4840    1.53906
  0.4860    1.55306
  0.4880    1.55843
  0.4900    1.56286
  0.4920    1.56673
  0.4940    1.56409
  0.4960    1.55477
  0.4980    1.53539
  0.5000    1.51400
  0.5020    1.49221
  0.5040    1.47050
  0.5060    1.44749
  0.5080    1.42173
  0.5100    1.39330
  0.5120    1.36908
  0.5140    1.34348
  0.5160    1.32362
  0.5180    1.29873
  0.5200    1.27359
  0.5220    1.25191
  0.5240    1.22127
  0.5260    1.19409
  0.5280    1.16141
  0.5300    1.13762
  0.5320    1.10533
  0.5340    1.06781
  0.5360    1.02878
  0.5380    0.97850
  0.5400    0.92163
  0.5420    0.86008
  0.5440    0.80181
  0.5460    0.74367
  0.5480    0.68595
  0.5500    0.62536
  0.5520    0.58143
  0.5540    0.55004
  0.5560    0.52625
  0.5580    0.51051
  0.5600    0.50082
  0.5620    0.49656
  0.5640    0.48722
  0.5660    0.47584
  0.5680    0.45178
  0.5700    0.42865
  0.5720    0.38637
  0.5740    0.33185
  0.5760    0.27939
  0.5780    0.21523
  0.5800    0.15212
  0.5820    0.07953
  0.5840    0.01719
  0.5860   -0.04465
  0.5880   -0.09921
  0.5900   -0.15134
  0.5920   -0.19321
  0.5940   -0.22079
  0.5960   -0.25153
  0.5980   -0.27940
  0.6000   -0.30828
  0.6020   -0.33250
  0.6040   -0.36761
  0.6060   -0.41124
  0.6080   -0.45782
  0.6100   -0.51315
  0.6120   -0.56464
  0.6140   -0.61329
  0.6160   -0.66364
  0.6180   -0.71031
  0.6200   -0.74786
  0.6220   -0.78337
  0.6240   -0.80921
  0.6260   -0.82544
  0.6280   -0.83842
  0.6300   -0.84631
  0.6320   -0.84535
  0.6340   -0.84455
  0.6360   -0.84311
  0.6380   -0.84768
  0.6400   -0.84146
  0.6420   -0.84878
  0.6440   -0.85426
  0.6460   -0.86104
  0.6480   -0.87141
  0.6500   -0.88326
  0.6520   -0.89874
  0.6540   -0.91338
  0.6560   -0.92445
  0.6580   -0.93287
  0.6600   -0.93477
  0.6620   -0.93134
  0.6640   -0.92647
  0.6660   -0.91961
  0.6680   -0.91444
  0.6700   -0.91161
  0.6720   -0.90045
  0.6740   -0.89459
  0.6760   -0.88820
  0.6780   -0.88125
  0.6800   -0.87411
  0.6820   -0.87288
  0.6840   -0.86900
  0.6860   -0.85841
  0.6880   -0.85072
  0.6900   -0.83609
  0.6920   -0.82950
  0.6940   -0.81513
  0.6960   -0.80179
  0.6980   -0.78492
  0.7000   -0.76265
  0.7020   -0.74418
  0.7040   -0.72767
  0.7060   -0.71327
  0.7080   -0.69176
  0.7100   -0.67277
  0.7120   -0.65630
  0.7140   -0.63510
  0.7160   -0.62383
  0.7180   -0.60581
  0.7200   -0.59248
  0.7220   -0.58046
  0.7240   -0.56707
  0.7260   -0.55146
  0.7280   -0.53153
  0.7300   -0.51104
  0.7320   -0.49318
  0.7340   -0.46881
  0.7360   -0.44476
  0.7380   -0.42116
  0.7400   -0.39166
  0.7420   -0.37081
  0.7440   -0.34238
  0.7460   -0.30754
  0.7480   -0.28368
  0.7500   -0.25580
  0.7520   -0.22930
  0.7540   -0.20097
  0.7560   -0.16698
  0.7580   -0.13266
  0.7600   -0.09401
  0.7620   -0.05553
  0.7640   -0.01531
  0.7660    0.02156
  0.7680    0.06056
  0.7700    0.09589
  0.7720    0.13028
  0.7740    0.15615
  0.7760    0.16634
  0.7780    0.18055
  0.7800    0.18961
  0.7820    0.18265
  0.7840    0.17835
  0.7860    0.16741
  0.7880    0.15269
  0.7900    0.14016
  0.7920    0.13063
  0.7940    0.11831
  0.7960    0.10797
  0.7980    0.09860
  0.8000    0.09152
  0.8020    0.08958
  0.8040    0.09045
  0.8060    0.09328
  0.8080    0.09852
  0.8100    0.10503
  0.8120    0.11224
  0.8140    0.12052
  0.8160    0.12980
  0.8180    0.13284
  0.8200    0.13735
  0.8220    0.14241
  0.8240    0.14020
  0.8260    0.13328
  0.8280    0.12458
  0.8300    0.11496
  0.8320    0.10229
  0.8340    0.08457
  0.8360    0.06751
  0.8380    0.04970
  0.8400    0.04036
  0.8420    0.03222
  0.8440    0.02896
  0.8460    0.02720
  0.8480    0.03069
  0.8500    0.03862
  0.8520    0.04833
  0.8540    0.06160
  0.8560    0.07757
  0.8580    0.09033
  0.8600    0.09964
  0.8620    0.10203
  0.8640    0.10441
  0.8660    0.10764
  0.8680    0.10834
  0.8700    0.10657
  0.8720    0.10112
  0.8740    0.09733
  0.8760    0.09223
  0.8780    0.08408
  0.8800    0.08085
  0.8820    0.07560
  0.8840    0.06663
  0.8860    0.06122
  0.8880    0.06377
  0.8900    0.06790
  0.8920    0.06529
  0.8940    0.05993
  0.8960    0.05753
  0.8980    0.05752
  0.9000    0.06018
  0.9020    0.06588
  0.9040    0.06964
  0.9060    0.06907
  0.9080    0.07316
  0.9100    0.07260
  0.9120    0.07228
  0.9140    0.07159
  0.9160    0.07266
  0.9180    0.07232
  0.9200    0.05728
  0.9220    0.05579
  0.9240    0.04882
  0.9260    0.03947
  0.9280    0.03646
  0.9300    0.03198
  0.9320    0.02555
  0.9340    0.01618
  0.9360    0.00773
  0.9380    0.00515
  0.9400   -0.00653
  0.9420   -0.02352
  0.9440   -0.03363
  0.9460   -0.04477
  0.9480   -0.05780
  0.9500   -0.07162
  0.9520   -0.08359
  0.9540   -0.08926
  0.9560   -0.09229
  0.9580   -0.09115
  0.9600   -0.08181
  0.9620   -0.07152
  0.9640   -0.05158
  0.9660   -0.03174
  0.9680   -0.00875
  0.9700    0.01417
  0.9720    0.03355
  0.9740    0.05189
  0.9760    0.06318
  0.9780    0.06734
  0.9800    0.06566
  0.9820    0.05771
  0.9840    0.04246
  0.9860    0.02040
  0.9880   -0.00451
  0.9900   -0.03566
  0.9920   -0.06216
  0.9940   -0.08855
  0.9960   -0.10881
  0.9980   -0.11866
  1.0000   -0.12207
