# z (nm)   (kJ/mol)
  0.124000,275.227470
  0.126000,272.751790
  0.128000,270.012560
  0.130000,267.371850
  0.132000,267.602800
  0.134000,264.864230
  0.136000,262.198590
  0.138000,259.686710
  0.140000,257.069560
  0.142000,254.474660
  0.144000,251.862490
  0.146000,249.176640
  0.148000,246.436230
  0.150000,243.600760
  0.152000,240.655530
  0.154000,237.580320
  0.156000,234.358830
  0.158000,230.976660
  0.160000,227.414900
  0.162000,223.675500
  0.164000,219.757020
  0.166000,215.688160
  0.168000,211.502380
  0.170000,207.243570
  0.172000,202.966330
  0.174000,198.715560
  0.176000,194.521670
  0.178000,190.400580
  0.180000,186.348840
  0.182000,182.356540
  0.184000,178.412090
  0.186000,174.511740
  0.188000,170.659170
  0.190000,166.861620
  0.192000,163.149060
  0.194000,159.533100
  0.196000,156.033030
  0.198000,152.651330
  0.200000,149.379820
  0.202000,146.193760
  0.204000,143.059350
  0.206000,139.937910
  0.208000,136.809400
  0.210000,133.664090
  0.212000,130.498790
  0.214000,127.329260
  0.216000,124.181570
  0.218000,121.075290
  0.220000,118.015480
  0.222000,115.010000
  0.224000,112.049380
  0.226000,109.125760
  0.228000,106.230000
  0.230000,103.359610
  0.232000,100.523230
  0.234000, 97.726350
  0.236000, 94.981950
  0.238000, 92.301080
  0.240000, 89.686610
  0.242000, 87.137650
  0.244000, 84.648090
  0.246000, 82.205220
  0.248000, 79.794050
  0.250000, 77.409430
  0.252000, 75.041160
  0.254000, 72.686810
  0.256000, 70.352340
  0.258000, 68.038620
  0.260000, 65.770220
  0.262000, 63.552520
  0.264000, 61.397130
  0.266000, 59.306900
  0.268000, 57.267470
  0.270000, 55.282050
  0.272000, 53.341340
  0.274000, 51.436470
  0.276000, 49.560600
  0.278000, 47.717980
  0.280000, 45.898590
  0.282000, 44.117100
  0.284000, 42.373880
  0.286000, 40.677270
  0.288000, 39.023640
  0.290000, 37.413260
  0.292000, 35.845690
  0.294000, 34.310120
  0.296000, 32.812110
  0.298000, 31.342400
  0.300000, 29.905000
  0.302000, 28.484080
  0.304000, 27.096860
  0.306000, 25.750860
  0.308000, 24.441100
  0.310000, 23.179790
  0.312000, 21.957960
  0.314000, 20.774870
  0.316000, 19.624860
  0.318000, 18.511970
  0.320000, 17.431740
  0.322000, 16.380790
  0.324000, 15.352410
  0.326000, 14.351000
  0.328000, 13.376250
  0.330000, 12.425460
  0.332000, 11.508850
  0.334000, 10.623210
  0.336000,  9.778200
  0.338000,  8.971170
  0.340000,  8.199050
  0.342000,  7.453260
  0.344000,  6.746470
  0.346000,  6.055900
  0.348000,  5.387830
  0.350000,  4.740190
  0.352000,  4.107450
  0.354000,  3.511670
  0.356000,  2.944410
  0.358000,  2.416710
  0.360000,  1.924350
  0.362000,  1.463420
  0.364000,  1.025890
  0.366000,  0.605980
  0.368000,  0.195860
  0.370000, -0.203520
  0.372000, -0.585720
  0.374000, -0.944170
  0.376000, -1.275370
  0.378000, -1.574070
  0.380000, -1.840630
  0.382000, -2.077230
  0.384000, -2.290060
  0.386000, -2.476530
  0.388000, -2.652570
  0.390000, -2.816400
  0.392000, -2.980590
  0.394000, -3.133020
  0.396000, -3.275230
  0.398000, -3.400340
  0.400000, -3.507530
  0.402000, -3.593500
  0.404000, -3.653460
  0.406000, -3.690100
  0.408000, -3.707120
  0.410000, -3.719190
  0.412000, -3.711260
  0.414000, -3.698430
  0.416000, -3.672000
  0.418000, -3.636080
  0.420000, -3.589390
  0.422000, -3.536830
  0.424000, -3.474610
  0.426000, -3.407700
  0.428000, -3.331610
  0.430000, -3.248370
  0.432000, -3.150920
  0.434000, -3.043140
  0.436000, -2.928500
  0.438000, -2.813080
  0.440000, -2.690840
  0.442000, -2.573400
  0.444000, -2.452880
  0.446000, -2.337160
  0.448000, -2.229020
  0.450000, -2.115570
  0.452000, -2.001450
  0.454000, -1.891690
  0.456000, -1.778270
  0.458000, -1.664100
  0.460000, -1.551370
  0.462000, -1.437700
  0.464000, -1.332980
  0.466000, -1.226910
  0.468000, -1.119330
  0.470000, -1.012160
  0.472000, -0.908800
  0.474000, -0.802660
  0.476000, -0.696790
  0.478000, -0.595500
  0.480000, -0.488620
  0.482000, -0.371530
  0.484000, -0.261490
  0.486000, -0.144030
  0.488000, -0.022480
  0.490000,  0.099740
  0.492000,  0.231720
  0.494000,  0.366090
  0.496000,  0.500770
  0.498000,  0.629640
  0.500000,  0.755570
  0.502000,  0.879590
  0.504000,  0.993720
  0.506000,  1.096960
  0.508000,  1.195460
  0.510000,  1.296810
  0.512000,  1.404100
  0.514000,  1.503990
  0.516000,  1.606370
  0.518000,  1.712110
  0.520000,  1.817730
  0.522000,  1.931710
  0.524000,  2.048920
  0.526000,  2.162650
  0.528000,  2.280550
  0.530000,  2.401680
  0.532000,  2.519030
  0.534000,  2.628420
  0.536000,  2.735110
  0.538000,  2.838180
  0.540000,  2.937360
  0.542000,  3.018820
  0.544000,  3.083690
  0.546000,  3.148520
  0.548000,  3.204870
  0.550000,  3.260460
  0.552000,  3.315950
  0.554000,  3.372220
  0.556000,  3.432740
  0.558000,  3.492260
  0.560000,  3.554080
  0.562000,  3.615660
  0.564000,  3.670580
  0.566000,  3.720590
  0.568000,  3.765070
  0.570000,  3.805010
  0.572000,  3.835880
  0.574000,  3.861180
  0.576000,  3.880700
  0.578000,  3.891590
  0.580000,  3.896700
  0.582000,  3.898850
  0.584000,  3.896070
  0.586000,  3.879480
  0.588000,  3.858490
  0.590000,  3.822370
  0.592000,  3.767560
  0.594000,  3.711660
  0.596000,  3.642420
  0.598000,  3.571410
  0.600000,  3.503250
  0.602000,  3.436080
  0.604000,  3.362730
  0.606000,  3.293250
  0.608000,  3.222680
  0.610000,  3.154150
  0.612000,  3.074940
  0.614000,  2.991560
  0.616000,  2.903970
  0.618000,  2.801110
  0.620000,  2.698940
  0.622000,  2.586590
  0.624000,  2.468060
  0.626000,  2.344460
  0.628000,  2.211030
  0.630000,  2.072880
  0.632000,  1.927750
  0.634000,  1.773930
  0.636000,  1.619170
  0.638000,  1.466030
  0.640000,  1.303770
  0.642000,  1.149240
  0.644000,  0.989520
  0.646000,  0.832480
  0.648000,  0.676630
  0.650000,  0.516510
  0.652000,  0.364440
  0.654000,  0.216600
  0.656000,  0.077550
  0.658000, -0.052620
  0.660000, -0.176670
  0.662000, -0.294270
  0.664000, -0.397580
  0.666000, -0.490510
  0.668000, -0.573450
  0.670000, -0.655930
  0.672000, -0.726580
  0.674000, -0.802110
  0.676000, -0.872110
  0.678000, -0.941600
  0.680000, -1.009030
  0.682000, -1.079880
  0.684000, -1.145320
  0.686000, -1.208190
  0.688000, -1.271930
  0.690000, -1.336870
  0.692000, -1.398040
  0.694000, -1.457940
  0.696000, -1.512130
  0.698000, -1.567160
  0.700000, -1.614260
  0.702000, -1.647130
  0.704000, -1.678660
  0.706000, -1.689840
  0.708000, -1.691580
  0.710000, -1.676090
  0.712000, -1.651450
  0.714000, -1.620150
  0.716000, -1.582600
  0.718000, -1.557000
  0.720000, -1.534400
  0.722000, -1.529050
  0.724000, -1.530100
  0.726000, -1.546270
  0.728000, -1.567600
  0.730000, -1.589850
  0.732000, -1.613580
  0.734000, -1.624150
  0.736000, -1.616450
  0.738000, -1.593950
  0.740000, -1.558950
  0.742000, -1.504950
  0.744000, -1.442280
  0.746000, -1.371460
  0.748000, -1.302830
  0.750000, -1.236870
  0.752000, -1.179300
  0.754000, -1.126200
  0.756000, -1.086690
  0.758000, -1.050960
  0.760000, -1.027950
  0.762000, -1.007000
  0.764000, -0.993790
  0.766000, -0.974270
  0.768000, -0.951660
  0.770000, -0.935080
  0.772000, -0.902080
  0.774000, -0.857720
  0.776000, -0.814050
  0.778000, -0.749940
  0.780000, -0.694140
  0.782000, -0.626710
  0.784000, -0.562650
  0.786000, -0.499080
  0.788000, -0.441760
  0.790000, -0.392920
  0.792000, -0.351320
  0.794000, -0.314260
  0.796000, -0.289600
  0.798000, -0.265430
  0.800000, -0.249120
  0.802000, -0.234810
  0.804000, -0.226600
  0.806000, -0.208090
  0.808000, -0.186020
  0.810000, -0.166270
  0.812000, -0.134500
  0.814000, -0.094610
  0.816000, -0.041560
  0.818000,  0.016080
  0.820000,  0.084330
  0.822000,  0.151290
  0.824000,  0.210620
  0.826000,  0.268680
  0.828000,  0.314610
  0.830000,  0.349650
  0.832000,  0.367730
  0.834000,  0.388790
  0.836000,  0.390370
  0.838000,  0.389160
  0.840000,  0.383560
  0.842000,  0.384810
  0.844000,  0.383910
  0.846000,  0.390090
  0.848000,  0.395510
  0.850000,  0.406910
  0.852000,  0.426080
  0.854000,  0.446850
  0.856000,  0.477470
  0.858000,  0.510580
  0.860000,  0.547300
  0.862000,  0.583990
  0.864000,  0.614910
  0.866000,  0.644200
  0.868000,  0.662680
  0.870000,  0.681110
  0.872000,  0.691860
  0.874000,  0.693300
  0.876000,  0.691790
  0.878000,  0.679980
  0.880000,  0.661240
  0.882000,  0.645240
  0.884000,  0.626020
  0.886000,  0.604000
  0.888000,  0.588210
  0.890000,  0.567700
  0.892000,  0.546340
  0.894000,  0.526970
  0.896000,  0.509570
  0.898000,  0.494510
  0.900000,  0.481060
  0.902000,  0.474580
  0.904000,  0.475870
  0.906000,  0.476570
  0.908000,  0.481810
  0.910000,  0.491080
  0.912000,  0.494190
  0.914000,  0.499160
  0.916000,  0.499430
  0.918000,  0.487790
  0.920000,  0.467900
  0.922000,  0.440260
  0.924000,  0.404120
  0.926000,  0.364630
  0.928000,  0.322700
  0.930000,  0.288370
  0.932000,  0.252400
  0.934000,  0.219780
  0.936000,  0.194060
  0.938000,  0.177440
  0.940000,  0.159070
  0.942000,  0.156050
  0.944000,  0.148480
  0.946000,  0.139450
  0.948000,  0.125010
  0.950000,  0.104150
  0.952000,  0.079500
  0.954000,  0.046110
  0.956000, -0.000350
  0.958000, -0.045240
  0.960000, -0.096120
  0.962000, -0.146260
  0.964000, -0.193250
  0.966000, -0.229750
  0.968000, -0.258620
  0.970000, -0.289070
  0.972000, -0.312720
  0.974000, -0.332190
  0.976000, -0.348100
  0.978000, -0.365100
  0.980000, -0.379500
  0.982000, -0.404250
  0.984000, -0.421870
  0.986000, -0.453410
  0.988000, -0.488490
  0.990000, -0.527230
  0.992000, -0.565660
  0.994000, -0.604620
  0.996000, -0.640870
  0.998000, -0.670730
  1.000000, -0.696550
