# z (nm)   (kJ/mol)
  0.064000,268.268850
  0.066000,265.051060
  0.068000,262.261340
  0.070000,259.585540
  0.072000,257.018940
  0.074000,254.418050
  0.076000,251.709380
  0.078000,249.016010
  0.080000,246.296870
  0.082000,243.549950
  0.084000,240.714590
  0.086000,237.811900
  0.088000,234.816980
  0.090000,231.716520
  0.092000,228.507160
  0.094000,225.175600
  0.096000,221.705100
  0.098000,218.103150
  0.100000,214.360000
  0.102000,210.485120
  0.104000,206.485240
  0.106000,202.390410
  0.108000,198.225700
  0.110000,194.032650
  0.112000,189.843370
  0.114000,185.691180
  0.116000,181.589460
  0.118000,177.537670
  0.120000,173.522340
  0.122000,169.520360
  0.124000,165.525620
  0.126000,161.532120
  0.128000,157.558590
  0.130000,153.632700
  0.132000,149.783900
  0.134000,146.032960
  0.136000,142.382510
  0.138000,138.830880
  0.140000,135.356190
  0.142000,131.956270
  0.144000,128.613180
  0.146000,125.320160
  0.148000,122.075710
  0.150000,118.874670
  0.152000,115.707290
  0.154000,112.570140
  0.156000,109.461970
  0.158000,106.383410
  0.160000,103.353350
  0.162000,100.380510
  0.164000, 97.468780
  0.166000, 94.601060
  0.168000, 91.752030
  0.170000, 88.905440
  0.172000, 86.044330
  0.174000, 83.176580
  0.176000, 80.314180
  0.178000, 77.472520
  0.180000, 74.676350
  0.182000, 71.938760
  0.184000, 69.270610
  0.186000, 66.673220
  0.188000, 64.149580
  0.190000, 61.691960
  0.192000, 59.282810
  0.194000, 56.912090
  0.196000, 54.569730
  0.198000, 52.267290
  0.200000, 50.011170
  0.202000, 47.801700
  0.204000, 45.639480
  0.206000, 43.512340
  0.208000, 41.409060
  0.210000, 39.331960
  0.212000, 37.278320
  0.214000, 35.245250
  0.216000, 33.259330
  0.218000, 31.332290
  0.220000, 29.469440
  0.222000, 27.685770
  0.224000, 25.970180
  0.226000, 24.327750
  0.228000, 22.741630
  0.230000, 21.194350
  0.232000, 19.670680
  0.234000, 18.150700
  0.236000, 16.629500
  0.238000, 15.110630
  0.240000, 13.599620
  0.242000, 12.127090
  0.244000, 10.705220
  0.246000,  9.363780
  0.248000,  8.105760
  0.250000,  6.936550
  0.252000,  5.841400
  0.254000,  4.797400
  0.256000,  3.797080
  0.258000,  2.810610
  0.260000,  1.823360
  0.262000,  0.845210
  0.264000, -0.140670
  0.266000, -1.126830
  0.268000, -2.090860
  0.270000, -3.002510
  0.272000, -3.852570
  0.274000, -4.623560
  0.276000, -5.307310
  0.278000, -5.924600
  0.280000, -6.471290
  0.282000, -6.972110
  0.284000, -7.464540
  0.286000, -7.945460
  0.288000, -8.449250
  0.290000, -8.967490
  0.292000, -9.495940
  0.294000,-10.027690
  0.296000,-10.530170
  0.298000,-10.994460
  0.300000,-11.407580
  0.302000,-11.761380
  0.304000,-12.059530
  0.306000,-12.300390
  0.308000,-12.493140
  0.310000,-12.646470
  0.312000,-12.768080
  0.314000,-12.874760
  0.316000,-12.982440
  0.318000,-13.086010
  0.320000,-13.192950
  0.322000,-13.296840
  0.324000,-13.406370
  0.326000,-13.504700
  0.328000,-13.582240
  0.330000,-13.627370
  0.332000,-13.635670
  0.334000,-13.604210
  0.336000,-13.534500
  0.338000,-13.431470
  0.340000,-13.304950
  0.342000,-13.177760
  0.344000,-13.035570
  0.346000,-12.895110
  0.348000,-12.765280
  0.350000,-12.631440
  0.352000,-12.497220
  0.354000,-12.361600
  0.356000,-12.221080
  0.358000,-12.058710
  0.360000,-11.877630
  0.362000,-11.680710
  0.364000,-11.468640
  0.366000,-11.237940
  0.368000,-11.007870
  0.370000,-10.773840
  0.372000,-10.541910
  0.374000,-10.306560
  0.376000,-10.077160
  0.378000, -9.841520
  0.380000, -9.609860
  0.382000, -9.381720
  0.384000, -9.154540
  0.386000, -8.933030
  0.388000, -8.723430
  0.390000, -8.513680
  0.392000, -8.315840
  0.394000, -8.126570
  0.396000, -7.950500
  0.398000, -7.782510
  0.400000, -7.619940
  0.402000, -7.465590
  0.404000, -7.337750
  0.406000, -7.216860
  0.408000, -7.114390
  0.410000, -7.019110
  0.412000, -6.937810
  0.414000, -6.862640
  0.416000, -6.798590
  0.418000, -6.735750
  0.420000, -6.675040
  0.422000, -6.602770
  0.424000, -6.532130
  0.426000, -6.454300
  0.428000, -6.374770
  0.430000, -6.285510
  0.432000, -6.186870
  0.434000, -6.089200
  0.436000, -5.989280
  0.438000, -5.880150
  0.440000, -5.784160
  0.442000, -5.687490
  0.444000, -5.605840
  0.446000, -5.536520
  0.448000, -5.481550
  0.450000, -5.430850
  0.452000, -5.384730
  0.454000, -5.338770
  0.456000, -5.284110
  0.458000, -5.212580
  0.460000, -5.119960
  0.462000, -5.008660
  0.464000, -4.885850
  0.466000, -4.756010
  0.468000, -4.624730
  0.470000, -4.502960
  0.472000, -4.386970
  0.474000, -4.281380
  0.476000, -4.186770
  0.478000, -4.097800
  0.480000, -4.013820
  0.482000, -3.931860
  0.484000, -3.847710
  0.486000, -3.766980
  0.488000, -3.677970
  0.490000, -3.584940
  0.492000, -3.497280
  0.494000, -3.400560
  0.496000, -3.303620
  0.498000, -3.204250
  0.500000, -3.102770
  0.502000, -3.013410
  0.504000, -2.923040
  0.506000, -2.843800
  0.508000, -2.763810
  0.510000, -2.694410
  0.512000, -2.622700
  0.514000, -2.554190
  0.516000, -2.486950
  0.518000, -2.426180
  0.520000, -2.365640
  0.522000, -2.297680
  0.524000, -2.227780
  0.526000, -2.158770
  0.528000, -2.085910
  0.530000, -2.000010
  0.532000, -1.916360
  0.534000, -1.825040
  0.536000, -1.724200
  0.538000, -1.627760
  0.540000, -1.519720
  0.542000, -1.406090
  0.544000, -1.289270
  0.546000, -1.179660
  0.548000, -1.077130
  0.550000, -0.961300
  0.552000, -0.858720
  0.554000, -0.753500
  0.556000, -0.649190
  0.558000, -0.541820
  0.560000, -0.435130
  0.562000, -0.319820
  0.564000, -0.196990
  0.566000, -0.069110
  0.568000,  0.054120
  0.570000,  0.186140
  0.572000,  0.318420
  0.574000,  0.453310
  0.576000,  0.585400
  0.578000,  0.717060
  0.580000,  0.849620
  0.582000,  0.977340
  0.584000,  1.097900
  0.586000,  1.216110
  0.588000,  1.324030
  0.590000,  1.423110
  0.592000,  1.509080
  0.594000,  1.585680
  0.596000,  1.638490
  0.598000,  1.679400
  0.600000,  1.709520
  0.602000,  1.722860
  0.604000,  1.725930
  0.606000,  1.715060
  0.608000,  1.697250
  0.610000,  1.672570
  0.612000,  1.643300
  0.614000,  1.612610
  0.616000,  1.578310
  0.618000,  1.542840
  0.620000,  1.506150
  0.622000,  1.467510
  0.624000,  1.428090
  0.626000,  1.388780
  0.628000,  1.345270
  0.630000,  1.304480
  0.632000,  1.259310
  0.634000,  1.220480
  0.636000,  1.179530
  0.638000,  1.137570
  0.640000,  1.088570
  0.642000,  1.050190
  0.644000,  1.007860
  0.646000,  0.965520
  0.648000,  0.922570
  0.650000,  0.882620
  0.652000,  0.834660
  0.654000,  0.775190
  0.656000,  0.713320
  0.658000,  0.647890
  0.660000,  0.559490
  0.662000,  0.462580
  0.664000,  0.371130
  0.666000,  0.281330
  0.668000,  0.200590
  0.670000,  0.136850
  0.672000,  0.086770
  0.674000,  0.056130
  0.676000,  0.042440
  0.678000,  0.039910
  0.680000,  0.047440
  0.682000,  0.058190
  0.684000,  0.069960
  0.686000,  0.067790
  0.688000,  0.057310
  0.690000,  0.035850
  0.692000,  0.004080
  0.694000, -0.034710
  0.696000, -0.073740
  0.698000, -0.107180
  0.700000, -0.136040
  0.702000, -0.143450
  0.704000, -0.144930
  0.706000, -0.138640
  0.708000, -0.126590
  0.710000, -0.104040
  0.712000, -0.082570
  0.714000, -0.070430
  0.716000, -0.059500
  0.718000, -0.061070
  0.720000, -0.071140
  0.722000, -0.087700
  0.724000, -0.111340
  0.726000, -0.138680
  0.728000, -0.161950
  0.730000, -0.185110
  0.732000, -0.211600
  0.734000, -0.234640
  0.736000, -0.249080
  0.738000, -0.261540
  0.740000, -0.263900
  0.742000, -0.254830
  0.744000, -0.238830
  0.746000, -0.213890
  0.748000, -0.182570
  0.750000, -0.147320
  0.752000, -0.117890
  0.754000, -0.092310
  0.756000, -0.074720
  0.758000, -0.070020
  0.760000, -0.078840
  0.762000, -0.097360
  0.764000, -0.133790
  0.766000, -0.177010
  0.768000, -0.216890
  0.770000, -0.249130
  0.772000, -0.269530
  0.774000, -0.264550
  0.776000, -0.232320
  0.778000, -0.162450
  0.780000, -0.058300
  0.782000,  0.071420
  0.784000,  0.207220
  0.786000,  0.323950
  0.788000,  0.389380
  0.790000,  0.378570
  0.792000,  0.283860
  0.794000,  0.121060
  0.796000, -0.078680
  0.798000, -0.253960
  0.800000, -0.352250
  0.802000, -0.350250
  0.804000, -0.245510
  0.806000, -0.072720
  0.808000,  0.121940
  0.810000,  0.282600
  0.812000,  0.374730
  0.814000,  0.398070
  0.816000,  0.357550
  0.818000,  0.282540
  0.820000,  0.192260
  0.822000,  0.112500
  0.824000,  0.059750
  0.826000,  0.022690
  0.828000,  0.009980
  0.830000,  0.013830
  0.832000,  0.036400
  0.834000,  0.064640
  0.836000,  0.102970
  0.838000,  0.145560
  0.840000,  0.181210
  0.842000,  0.213410
  0.844000,  0.243770
  0.846000,  0.267100
  0.848000,  0.281070
  0.850000,  0.288460
  0.852000,  0.287720
  0.854000,  0.279030
  0.856000,  0.262250
  0.858000,  0.242930
  0.860000,  0.223020
  0.862000,  0.202790
  0.864000,  0.187780
  0.866000,  0.178540
  0.868000,  0.188520
  0.870000,  0.200970
  0.872000,  0.216460
  0.874000,  0.240720
  0.876000,  0.265740
  0.878000,  0.292090
  0.880000,  0.314310
  0.882000,  0.322200
  0.884000,  0.339670
  0.886000,  0.343760
  0.888000,  0.346960
  0.890000,  0.341310
  0.892000,  0.332160
  0.894000,  0.314780
  0.896000,  0.298270
  0.898000,  0.277260
  0.900000,  0.265240
  0.902000,  0.249400
  0.904000,  0.241850
  0.906000,  0.238760
  0.908000,  0.234260
  0.910000,  0.236950
  0.912000,  0.242930
  0.914000,  0.247170
  0.916000,  0.245200
  0.918000,  0.249690
  0.920000,  0.248640
  0.922000,  0.241380
  0.924000,  0.223580
  0.926000,  0.196820
  0.928000,  0.166490
  0.930000,  0.128720
  0.932000,  0.090280
  0.934000,  0.051240
  0.936000,  0.021840
  0.938000, -0.006280
  0.940000, -0.019650
  0.942000, -0.023270
  0.944000, -0.013060
  0.946000,  0.005550
  0.948000,  0.029920
  0.950000,  0.058280
  0.952000,  0.085920
  0.954000,  0.102990
  0.956000,  0.115160
  0.958000,  0.101200
  0.960000,  0.068230
  0.962000,  0.022510
  0.964000, -0.033250
  0.966000, -0.094020
  0.968000, -0.158200
  0.970000, -0.212000
  0.972000, -0.257720
  0.974000, -0.278300
  0.976000, -0.274600
  0.978000, -0.257810
  0.980000, -0.229580
  0.982000, -0.195230
  0.984000, -0.173840
  0.986000, -0.152990
  0.988000, -0.156270
  0.990000, -0.184760
  0.992000, -0.221630
  0.994000, -0.255590
  0.996000, -0.293420
  0.998000, -0.319250
  1.000000, -0.334250
