# z (nm)   (kJ/mol)
  0.062000,271.909240
  0.064000,268.699710
  0.066000,266.256210
  0.068000,263.265240
  0.070000,260.810950
  0.072000,258.313680
  0.074000,255.754570
  0.076000,253.255160
  0.078000,250.679790
  0.080000,248.092010
  0.082000,245.463600
  0.084000,242.772980
  0.086000,240.015380
  0.088000,237.193010
  0.090000,234.275490
  0.092000,231.261330
  0.094000,228.131580
  0.096000,224.876640
  0.098000,221.487040
  0.100000,217.957230
  0.102000,214.275330
  0.104000,210.443470
  0.106000,206.466530
  0.108000,202.354810
  0.110000,198.124780
  0.112000,193.798870
  0.114000,189.409180
  0.116000,184.990360
  0.118000,180.567840
  0.120000,176.177520
  0.122000,171.846780
  0.124000,167.593630
  0.126000,163.427240
  0.128000,159.358310
  0.130000,155.384390
  0.132000,151.496820
  0.134000,147.687250
  0.136000,143.946090
  0.138000,140.269490
  0.140000,136.656590
  0.142000,133.123120
  0.144000,129.695440
  0.146000,126.400000
  0.148000,123.248800
  0.150000,120.229680
  0.152000,117.297840
  0.154000,114.387730
  0.156000,111.445640
  0.158000,108.427920
  0.160000,105.335990
  0.162000,102.199580
  0.164000, 99.069530
  0.166000, 96.001880
  0.168000, 93.032980
  0.170000, 90.182950
  0.172000, 87.427050
  0.174000, 84.729510
  0.176000, 82.044990
  0.178000, 79.328800
  0.180000, 76.579090
  0.182000, 73.805580
  0.184000, 71.039720
  0.186000, 68.316430
  0.188000, 65.663960
  0.190000, 63.096870
  0.192000, 60.621000
  0.194000, 58.225000
  0.196000, 55.888630
  0.198000, 53.587240
  0.200000, 51.309800
  0.202000, 49.053170
  0.204000, 46.822850
  0.206000, 44.626190
  0.208000, 42.472730
  0.210000, 40.364170
  0.212000, 38.303240
  0.214000, 36.290830
  0.216000, 34.315370
  0.218000, 32.385210
  0.220000, 30.502810
  0.222000, 28.658410
  0.224000, 26.866210
  0.226000, 25.108880
  0.228000, 23.393500
  0.230000, 21.720320
  0.232000, 20.087150
  0.234000, 18.495010
  0.236000, 16.954070
  0.238000, 15.461920
  0.240000, 14.019580
  0.242000, 12.642240
  0.244000, 11.326140
  0.246000, 10.060070
  0.248000,  8.846060
  0.250000,  7.665470
  0.252000,  6.524740
  0.254000,  5.404380
  0.256000,  4.305920
  0.258000,  3.231600
  0.260000,  2.187410
  0.262000,  1.178500
  0.264000,  0.208080
  0.266000, -0.716320
  0.268000, -1.580710
  0.270000, -2.394860
  0.272000, -3.161200
  0.274000, -3.877820
  0.276000, -4.548040
  0.278000, -5.185610
  0.280000, -5.791850
  0.282000, -6.372830
  0.284000, -6.934550
  0.286000, -7.491500
  0.288000, -8.021880
  0.290000, -8.527060
  0.292000, -9.011750
  0.294000, -9.457480
  0.296000, -9.865010
  0.298000,-10.240640
  0.300000,-10.583910
  0.302000,-10.904910
  0.304000,-11.187190
  0.306000,-11.428730
  0.308000,-11.643980
  0.310000,-11.823950
  0.312000,-11.991860
  0.314000,-12.136910
  0.316000,-12.280600
  0.318000,-12.426270
  0.320000,-12.553350
  0.322000,-12.675620
  0.324000,-12.774780
  0.326000,-12.849610
  0.328000,-12.885620
  0.330000,-12.883550
  0.332000,-12.840020
  0.334000,-12.769520
  0.336000,-12.671470
  0.338000,-12.560690
  0.340000,-12.439000
  0.342000,-12.320110
  0.344000,-12.199890
  0.346000,-12.079660
  0.348000,-11.955680
  0.350000,-11.818380
  0.352000,-11.661420
  0.354000,-11.475010
  0.356000,-11.264310
  0.358000,-11.034070
  0.360000,-10.787900
  0.362000,-10.526760
  0.364000,-10.260980
  0.366000, -9.997320
  0.368000, -9.731320
  0.370000, -9.469970
  0.372000, -9.209520
  0.374000, -8.947840
  0.376000, -8.685450
  0.378000, -8.421520
  0.380000, -8.143950
  0.382000, -7.850060
  0.384000, -7.542010
  0.386000, -7.217240
  0.388000, -6.886740
  0.390000, -6.550680
  0.392000, -6.211790
  0.394000, -5.878680
  0.396000, -5.558690
  0.398000, -5.254100
  0.400000, -4.977480
  0.402000, -4.725300
  0.404000, -4.489450
  0.406000, -4.270380
  0.408000, -4.063980
  0.410000, -3.855390
  0.412000, -3.645010
  0.414000, -3.422730
  0.416000, -3.193340
  0.418000, -2.961020
  0.420000, -2.733510
  0.422000, -2.495960
  0.424000, -2.281970
  0.426000, -2.083470
  0.428000, -1.905480
  0.430000, -1.742070
  0.432000, -1.602320
  0.434000, -1.468120
  0.436000, -1.341860
  0.438000, -1.209230
  0.440000, -1.083660
  0.442000, -0.960260
  0.444000, -0.837800
  0.446000, -0.717830
  0.448000, -0.607100
  0.450000, -0.498530
  0.452000, -0.404140
  0.454000, -0.309240
  0.456000, -0.216870
  0.458000, -0.131340
  0.460000, -0.040620
  0.462000,  0.049700
  0.464000,  0.146610
  0.466000,  0.241160
  0.468000,  0.327440
  0.470000,  0.408280
  0.472000,  0.485300
  0.474000,  0.548020
  0.476000,  0.595050
  0.478000,  0.632070
  0.480000,  0.662620
  0.482000,  0.691980
  0.484000,  0.721330
  0.486000,  0.752640
  0.488000,  0.783100
  0.490000,  0.817110
  0.492000,  0.851440
  0.494000,  0.875860
  0.496000,  0.892040
  0.498000,  0.890760
  0.500000,  0.864600
  0.502000,  0.827560
  0.504000,  0.787970
  0.506000,  0.747510
  0.508000,  0.719070
  0.510000,  0.703320
  0.512000,  0.704300
  0.514000,  0.703190
  0.516000,  0.700210
  0.518000,  0.686500
  0.520000,  0.662390
  0.522000,  0.618400
  0.524000,  0.557640
  0.526000,  0.495240
  0.528000,  0.430850
  0.530000,  0.382620
  0.532000,  0.349260
  0.534000,  0.346220
  0.536000,  0.370300
  0.538000,  0.415200
  0.540000,  0.478480
  0.542000,  0.551400
  0.544000,  0.628700
  0.546000,  0.704900
  0.548000,  0.772910
  0.550000,  0.831990
  0.552000,  0.878750
  0.554000,  0.919540
  0.556000,  0.953430
  0.558000,  1.000910
  0.560000,  1.060190
  0.562000,  1.136770
  0.564000,  1.231420
  0.566000,  1.348720
  0.568000,  1.482940
  0.570000,  1.631350
  0.572000,  1.782450
  0.574000,  1.920110
  0.576000,  2.052840
  0.578000,  2.168220
  0.580000,  2.264620
  0.582000,  2.345200
  0.584000,  2.409540
  0.586000,  2.465740
  0.588000,  2.522110
  0.590000,  2.576660
  0.592000,  2.636310
  0.594000,  2.693250
  0.596000,  2.747260
  0.598000,  2.788390
  0.600000,  2.815580
  0.602000,  2.823320
  0.604000,  2.814910
  0.606000,  2.772070
  0.608000,  2.700470
  0.610000,  2.615150
  0.612000,  2.519160
  0.614000,  2.407690
  0.616000,  2.306410
  0.618000,  2.207350
  0.620000,  2.124560
  0.622000,  2.056900
  0.624000,  1.995420
  0.626000,  1.944300
  0.628000,  1.888340
  0.630000,  1.832290
  0.632000,  1.761510
  0.634000,  1.686800
  0.636000,  1.590190
  0.638000,  1.481780
  0.640000,  1.368370
  0.642000,  1.255770
  0.644000,  1.152200
  0.646000,  1.053430
  0.648000,  0.971470
  0.650000,  0.904430
  0.652000,  0.848110
  0.654000,  0.809170
  0.656000,  0.782040
  0.658000,  0.755860
  0.660000,  0.726110
  0.662000,  0.696280
  0.664000,  0.657650
  0.666000,  0.615460
  0.668000,  0.567460
  0.670000,  0.515790
  0.672000,  0.462160
  0.674000,  0.405930
  0.676000,  0.354930
  0.678000,  0.308210
  0.680000,  0.257740
  0.682000,  0.204510
  0.684000,  0.154440
  0.686000,  0.099980
  0.688000,  0.046900
  0.690000, -0.002660
  0.692000, -0.031560
  0.694000, -0.055330
  0.696000, -0.060450
  0.698000, -0.041280
  0.700000, -0.012770
  0.702000,  0.027460
  0.704000,  0.062450
  0.706000,  0.093300
  0.708000,  0.116850
  0.710000,  0.127400
  0.712000,  0.133000
  0.714000,  0.131460
  0.716000,  0.131800
  0.718000,  0.135030
  0.720000,  0.153170
  0.722000,  0.169660
  0.724000,  0.193530
  0.726000,  0.221490
  0.728000,  0.239210
  0.730000,  0.249890
  0.732000,  0.250250
  0.734000,  0.245060
  0.736000,  0.230260
  0.738000,  0.212090
  0.740000,  0.189290
  0.742000,  0.174650
  0.744000,  0.166920
  0.746000,  0.170980
  0.748000,  0.183710
  0.750000,  0.202010
  0.752000,  0.222130
  0.754000,  0.254660
  0.756000,  0.291570
  0.758000,  0.322130
  0.760000,  0.351250
  0.762000,  0.374270
  0.764000,  0.392440
  0.766000,  0.407050
  0.768000,  0.415540
  0.770000,  0.421180
  0.772000,  0.418520
  0.774000,  0.415010
  0.776000,  0.408830
  0.778000,  0.397420
  0.780000,  0.395690
  0.782000,  0.400060
  0.784000,  0.410210
  0.786000,  0.418940
  0.788000,  0.435140
  0.790000,  0.462180
  0.792000,  0.488280
  0.794000,  0.521180
  0.796000,  0.553100
  0.798000,  0.582630
  0.800000,  0.601880
  0.802000,  0.615730
  0.804000,  0.617600
  0.806000,  0.611250
  0.808000,  0.600880
  0.810000,  0.589800
  0.812000,  0.577550
  0.814000,  0.568150
  0.816000,  0.557360
  0.818000,  0.553390
  0.820000,  0.546530
  0.822000,  0.551670
  0.824000,  0.557240
  0.826000,  0.562370
  0.828000,  0.568810
  0.830000,  0.578140
  0.832000,  0.593140
  0.834000,  0.606880
  0.836000,  0.622470
  0.838000,  0.640270
  0.840000,  0.659480
  0.842000,  0.675150
  0.844000,  0.696470
  0.846000,  0.714500
  0.848000,  0.732190
  0.850000,  0.739420
  0.852000,  0.747320
  0.854000,  0.747130
  0.856000,  0.744160
  0.858000,  0.727980
  0.860000,  0.721490
  0.862000,  0.719140
  0.864000,  0.725160
  0.866000,  0.734730
  0.868000,  0.746780
  0.870000,  0.766840
  0.872000,  0.778230
  0.874000,  0.783150
  0.876000,  0.779010
  0.878000,  0.760260
  0.880000,  0.733340
  0.882000,  0.702120
  0.884000,  0.672960
  0.886000,  0.641750
  0.888000,  0.619460
  0.890000,  0.602490
  0.892000,  0.590520
  0.894000,  0.577300
  0.896000,  0.563510
  0.898000,  0.543700
  0.900000,  0.517240
  0.902000,  0.483720
  0.904000,  0.443020
  0.906000,  0.397960
  0.908000,  0.353080
  0.910000,  0.311620
  0.912000,  0.280900
  0.914000,  0.260480
  0.916000,  0.243220
  0.918000,  0.231950
  0.920000,  0.233450
  0.922000,  0.240460
  0.924000,  0.242020
  0.926000,  0.249120
  0.928000,  0.244900
  0.930000,  0.236780
  0.932000,  0.224340
  0.934000,  0.208760
  0.936000,  0.187040
  0.938000,  0.167220
  0.940000,  0.137290
  0.942000,  0.107130
  0.944000,  0.082840
  0.946000,  0.049930
  0.948000,  0.019170
  0.950000, -0.009860
  0.952000, -0.045910
  0.954000, -0.076560
  0.956000, -0.101080
  0.958000, -0.125030
  0.960000, -0.138620
  0.962000, -0.138000
  0.964000, -0.138850
  0.966000, -0.135370
  0.968000, -0.129600
  0.970000, -0.120560
  0.972000, -0.132700
  0.974000, -0.149820
  0.976000, -0.167650
  0.978000, -0.200260
  0.980000, -0.232990
  0.982000, -0.265580
  0.984000, -0.306160
  0.986000, -0.341200
  0.988000, -0.371620
  0.990000, -0.386210
  0.992000, -0.391180
  0.994000, -0.397300
  0.996000, -0.391840
  0.998000, -0.379350
  1.000000, -0.363080
