# z (nm)   (kJ/mol)
  0.082000,273.954450
  0.084000,271.601390
  0.086000,269.296300
  0.088000,267.039620
  0.090000,264.679060
  0.092000,264.047820
  0.094000,266.330400
  0.096000,263.467520
  0.098000,260.893710
  0.100000,258.327710
  0.102000,255.883550
  0.104000,253.394770
  0.106000,250.901920
  0.108000,248.362550
  0.110000,245.769930
  0.112000,243.129020
  0.114000,240.402780
  0.116000,237.588520
  0.118000,234.666510
  0.120000,231.628880
  0.122000,228.456590
  0.124000,225.133010
  0.126000,221.635260
  0.128000,217.952330
  0.130000,214.069810
  0.132000,209.994160
  0.134000,205.737460
  0.136000,201.332220
  0.138000,196.826980
  0.140000,192.279400
  0.142000,187.757800
  0.144000,183.317720
  0.146000,179.003020
  0.148000,174.835180
  0.150000,170.814690
  0.152000,166.927370
  0.154000,163.148250
  0.156000,159.442850
  0.158000,155.793590
  0.160000,152.192000
  0.162000,148.638800
  0.164000,145.144780
  0.166000,141.717050
  0.168000,138.366460
  0.170000,135.088790
  0.172000,131.880600
  0.174000,128.722750
  0.176000,125.607340
  0.178000,122.522890
  0.180000,119.451470
  0.182000,116.393410
  0.184000,113.341310
  0.186000,110.297710
  0.188000,107.276180
  0.190000,104.286510
  0.192000,101.345980
  0.194000, 98.469050
  0.196000, 95.646440
  0.198000, 92.881760
  0.200000, 90.165930
  0.202000, 87.484100
  0.204000, 84.836040
  0.206000, 82.213930
  0.208000, 79.621040
  0.210000, 77.059940
  0.212000, 74.530540
  0.214000, 72.045500
  0.216000, 69.607160
  0.218000, 67.224640
  0.220000, 64.898210
  0.222000, 62.642480
  0.224000, 60.456670
  0.226000, 58.337940
  0.228000, 56.263840
  0.230000, 54.225820
  0.232000, 52.201350
  0.234000, 50.195610
  0.236000, 48.213600
  0.238000, 46.282380
  0.240000, 44.423010
  0.242000, 42.633820
  0.244000, 40.933670
  0.246000, 39.292620
  0.248000, 37.690450
  0.250000, 36.093770
  0.252000, 34.499570
  0.254000, 32.896480
  0.256000, 31.288210
  0.258000, 29.700060
  0.260000, 28.146040
  0.262000, 26.645500
  0.264000, 25.216930
  0.266000, 23.864540
  0.268000, 22.608750
  0.270000, 21.426250
  0.272000, 20.306440
  0.274000, 19.205120
  0.276000, 18.103640
  0.278000, 16.994730
  0.280000, 15.868830
  0.282000, 14.743290
  0.284000, 13.639030
  0.286000, 12.569630
  0.288000, 11.563120
  0.290000, 10.625990
  0.292000,  9.752200
  0.294000,  8.927260
  0.296000,  8.138950
  0.298000,  7.385370
  0.300000,  6.653990
  0.302000,  5.945890
  0.304000,  5.255010
  0.306000,  4.592740
  0.308000,  3.949120
  0.310000,  3.337630
  0.312000,  2.744890
  0.314000,  2.170970
  0.316000,  1.624170
  0.318000,  1.087730
  0.320000,  0.581020
  0.322000,  0.102740
  0.324000, -0.353190
  0.326000, -0.772770
  0.328000, -1.170420
  0.330000, -1.538740
  0.332000, -1.873090
  0.334000, -2.181950
  0.336000, -2.463520
  0.338000, -2.728100
  0.340000, -2.971570
  0.342000, -3.200870
  0.344000, -3.415990
  0.346000, -3.625650
  0.348000, -3.816980
  0.350000, -3.995880
  0.352000, -4.173100
  0.354000, -4.338410
  0.356000, -4.491140
  0.358000, -4.640680
  0.360000, -4.765800
  0.362000, -4.872000
  0.364000, -4.964770
  0.366000, -5.036620
  0.368000, -5.091040
  0.370000, -5.135370
  0.372000, -5.174810
  0.374000, -5.208200
  0.376000, -5.233350
  0.378000, -5.257990
  0.380000, -5.264490
  0.382000, -5.264750
  0.384000, -5.252070
  0.386000, -5.224740
  0.388000, -5.191450
  0.390000, -5.148130
  0.392000, -5.110410
  0.394000, -5.079350
  0.396000, -5.044570
  0.398000, -5.016320
  0.400000, -4.983920
  0.402000, -4.943850
  0.404000, -4.895470
  0.406000, -4.836220
  0.408000, -4.766600
  0.410000, -4.681770
  0.412000, -4.587330
  0.414000, -4.485810
  0.416000, -4.382870
  0.418000, -4.292170
  0.420000, -4.211720
  0.422000, -4.137820
  0.424000, -4.072980
  0.426000, -4.012860
  0.428000, -3.961880
  0.430000, -3.908790
  0.432000, -3.854990
  0.434000, -3.798640
  0.436000, -3.735700
  0.438000, -3.666430
  0.440000, -3.584530
  0.442000, -3.498090
  0.444000, -3.402820
  0.446000, -3.294360
  0.448000, -3.171180
  0.450000, -3.055840
  0.452000, -2.930110
  0.454000, -2.803360
  0.456000, -2.673490
  0.458000, -2.552290
  0.460000, -2.436830
  0.462000, -2.334420
  0.464000, -2.240730
  0.466000, -2.160420
  0.468000, -2.087320
  0.470000, -2.019270
  0.472000, -1.950570
  0.474000, -1.884600
  0.476000, -1.811600
  0.478000, -1.737300
  0.480000, -1.657970
  0.482000, -1.572000
  0.484000, -1.481770
  0.486000, -1.398140
  0.488000, -1.315850
  0.490000, -1.241390
  0.492000, -1.187230
  0.494000, -1.139810
  0.496000, -1.094770
  0.498000, -1.061600
  0.500000, -1.035790
  0.502000, -1.016360
  0.504000, -0.983840
  0.506000, -0.946440
  0.508000, -0.895570
  0.510000, -0.833410
  0.512000, -0.760610
  0.514000, -0.677700
  0.516000, -0.582850
  0.518000, -0.493730
  0.520000, -0.406210
  0.522000, -0.326570
  0.524000, -0.259590
  0.526000, -0.208980
  0.528000, -0.177470
  0.530000, -0.158960
  0.532000, -0.148450
  0.534000, -0.145540
  0.536000, -0.140700
  0.538000, -0.127990
  0.540000, -0.108350
  0.542000, -0.076250
  0.544000, -0.030230
  0.546000,  0.031200
  0.548000,  0.105290
  0.550000,  0.178170
  0.552000,  0.252200
  0.554000,  0.316270
  0.556000,  0.367370
  0.558000,  0.403120
  0.560000,  0.427830
  0.562000,  0.447360
  0.564000,  0.463030
  0.566000,  0.484570
  0.568000,  0.518700
  0.570000,  0.569240
  0.572000,  0.639240
  0.574000,  0.724810
  0.576000,  0.820810
  0.578000,  0.924040
  0.580000,  1.021590
  0.582000,  1.107000
  0.584000,  1.184250
  0.586000,  1.246500
  0.588000,  1.313350
  0.590000,  1.379230
  0.592000,  1.445680
  0.594000,  1.508440
  0.596000,  1.584170
  0.598000,  1.665820
  0.600000,  1.749530
  0.602000,  1.834230
  0.604000,  1.909800
  0.606000,  1.977640
  0.608000,  2.031680
  0.610000,  2.068700
  0.612000,  2.092750
  0.614000,  2.100540
  0.616000,  2.095730
  0.618000,  2.066790
  0.620000,  2.022120
  0.622000,  1.972930
  0.624000,  1.918680
  0.626000,  1.856080
  0.628000,  1.796050
  0.630000,  1.738220
  0.632000,  1.684560
  0.634000,  1.634430
  0.636000,  1.585290
  0.638000,  1.538620
  0.640000,  1.498030
  0.642000,  1.452240
  0.644000,  1.400240
  0.646000,  1.340190
  0.648000,  1.267750
  0.650000,  1.196060
  0.652000,  1.116120
  0.654000,  1.030690
  0.656000,  0.940710
  0.658000,  0.850110
  0.660000,  0.765490
  0.662000,  0.686560
  0.664000,  0.618200
  0.666000,  0.548830
  0.668000,  0.495400
  0.670000,  0.445560
  0.672000,  0.404240
  0.674000,  0.365060
  0.676000,  0.334670
  0.678000,  0.309040
  0.680000,  0.279370
  0.682000,  0.244480
  0.684000,  0.203270
  0.686000,  0.155450
  0.688000,  0.112750
  0.690000,  0.065320
  0.692000,  0.021780
  0.694000, -0.016550
  0.696000, -0.041770
  0.698000, -0.060310
  0.700000, -0.062970
  0.702000, -0.067560
  0.704000, -0.066170
  0.706000, -0.061040
  0.708000, -0.053740
  0.710000, -0.041920
  0.712000, -0.034130
  0.714000, -0.030670
  0.716000, -0.023020
  0.718000, -0.019400
  0.720000, -0.021150
  0.722000, -0.032070
  0.724000, -0.052330
  0.726000, -0.071540
  0.728000, -0.088700
  0.730000, -0.108750
  0.732000, -0.119010
  0.734000, -0.112620
  0.736000, -0.099140
  0.738000, -0.067610
  0.740000, -0.027270
  0.742000,  0.016820
  0.744000,  0.059340
  0.746000,  0.085290
  0.748000,  0.093910
  0.750000,  0.084070
  0.752000,  0.051810
  0.754000,  0.007770
  0.756000, -0.044770
  0.758000, -0.097830
  0.760000, -0.131760
  0.762000, -0.164420
  0.764000, -0.182480
  0.766000, -0.179700
  0.768000, -0.158580
  0.770000, -0.127050
  0.772000, -0.086720
  0.774000, -0.049620
  0.776000, -0.011810
  0.778000,  0.011790
  0.780000,  0.027060
  0.782000,  0.028480
  0.784000,  0.034560
  0.786000,  0.030480
  0.788000,  0.027290
  0.790000,  0.024000
  0.792000,  0.026700
  0.794000,  0.030070
  0.796000,  0.041580
  0.798000,  0.055550
  0.800000,  0.071050
  0.802000,  0.084510
  0.804000,  0.098610
  0.806000,  0.109800
  0.808000,  0.118470
  0.810000,  0.126760
  0.812000,  0.131130
  0.814000,  0.143170
  0.816000,  0.164700
  0.818000,  0.193670
  0.820000,  0.233600
  0.822000,  0.271880
  0.824000,  0.306480
  0.826000,  0.342800
  0.828000,  0.358110
  0.830000,  0.369520
  0.832000,  0.363780
  0.834000,  0.350480
  0.836000,  0.328700
  0.838000,  0.292930
  0.840000,  0.256930
  0.842000,  0.222690
  0.844000,  0.198780
  0.846000,  0.185900
  0.848000,  0.186900
  0.850000,  0.196510
  0.852000,  0.220350
  0.854000,  0.249740
  0.856000,  0.285490
  0.858000,  0.328970
  0.860000,  0.365680
  0.862000,  0.399910
  0.864000,  0.425660
  0.866000,  0.447200
  0.868000,  0.455510
  0.870000,  0.462210
  0.872000,  0.458110
  0.874000,  0.444920
  0.876000,  0.428360
  0.878000,  0.406100
  0.880000,  0.385840
  0.882000,  0.373580
  0.884000,  0.361100
  0.886000,  0.348160
  0.888000,  0.340770
  0.890000,  0.337980
  0.892000,  0.342140
  0.894000,  0.341970
  0.896000,  0.343090
  0.898000,  0.337060
  0.900000,  0.333380
  0.902000,  0.322710
  0.904000,  0.311700
  0.906000,  0.307560
  0.908000,  0.303670
  0.910000,  0.297950
  0.912000,  0.297060
  0.914000,  0.296700
  0.916000,  0.299700
  0.918000,  0.301340
  0.920000,  0.300090
  0.922000,  0.299340
  0.924000,  0.286330
  0.926000,  0.275750
  0.928000,  0.268030
  0.930000,  0.249240
  0.932000,  0.228810
  0.934000,  0.212510
  0.936000,  0.188430
  0.938000,  0.172070
  0.940000,  0.159250
  0.942000,  0.141840
  0.944000,  0.123070
  0.946000,  0.110860
  0.948000,  0.092300
  0.950000,  0.072790
  0.952000,  0.057270
  0.954000,  0.036670
  0.956000,  0.011100
  0.958000, -0.013710
  0.960000, -0.041900
  0.962000, -0.073620
  0.964000, -0.101270
  0.966000, -0.115340
  0.968000, -0.129150
  0.970000, -0.143840
  0.972000, -0.145930
  0.974000, -0.165080
  0.976000, -0.180570
  0.978000, -0.204690
  0.980000, -0.242060
  0.982000, -0.286940
  0.984000, -0.346260
  0.986000, -0.405720
  0.988000, -0.458060
  0.990000, -0.499800
  0.992000, -0.521680
  0.994000, -0.521410
  0.996000, -0.505590
  0.998000, -0.478870
  1.000000, -0.442650
