# z (nm)   (kJ/mol)
  0.132000,261.465720
  0.134000,259.263020
  0.136000,256.603610
  0.138000,254.450210
  0.140000,252.328000
  0.142000,250.098180
  0.144000,247.878930
  0.146000,245.642340
  0.148000,243.379050
  0.150000,241.114990
  0.152000,238.775780
  0.154000,236.356300
  0.156000,233.848410
  0.158000,231.220340
  0.160000,228.452490
  0.162000,225.527340
  0.164000,222.434480
  0.166000,219.157530
  0.168000,215.697230
  0.170000,212.057210
  0.172000,208.244810
  0.174000,204.276560
  0.176000,200.168620
  0.178000,195.935100
  0.180000,191.599840
  0.182000,187.179050
  0.184000,182.695130
  0.186000,178.173010
  0.188000,173.661740
  0.190000,169.191960
  0.192000,164.819130
  0.194000,160.572770
  0.196000,156.479510
  0.198000,152.558810
  0.200000,148.806980
  0.202000,145.213570
  0.204000,141.738120
  0.206000,138.352070
  0.208000,135.013150
  0.210000,131.702330
  0.212000,128.402070
  0.214000,125.099160
  0.216000,121.778120
  0.218000,118.417370
  0.220000,115.003970
  0.222000,111.553140
  0.224000,108.081920
  0.226000,104.637620
  0.228000,101.259630
  0.230000, 97.992560
  0.232000, 94.832470
  0.234000, 91.763030
  0.236000, 88.744250
  0.238000, 85.727710
  0.240000, 82.707560
  0.242000, 79.691480
  0.244000, 76.714930
  0.246000, 73.826340
  0.248000, 71.052580
  0.250000, 68.392510
  0.252000, 65.838230
  0.254000, 63.355830
  0.256000, 60.927290
  0.258000, 58.539450
  0.260000, 56.165790
  0.262000, 53.813510
  0.264000, 51.485770
  0.266000, 49.193980
  0.268000, 46.949810
  0.270000, 44.755910
  0.272000, 42.619760
  0.274000, 40.527810
  0.276000, 38.462090
  0.278000, 36.398180
  0.280000, 34.330670
  0.282000, 32.265750
  0.284000, 30.242020
  0.286000, 28.273160
  0.288000, 26.354580
  0.290000, 24.462980
  0.292000, 22.580790
  0.294000, 20.674690
  0.296000, 18.731390
  0.298000, 16.770670
  0.300000, 14.807180
  0.302000, 12.863290
  0.304000, 10.977410
  0.306000,  9.143850
  0.308000,  7.344100
  0.310000,  5.563960
  0.312000,  3.787740
  0.314000,  1.996530
  0.316000,  0.224520
  0.318000, -1.516800
  0.320000, -3.215040
  0.322000, -4.873880
  0.324000, -6.493710
  0.326000, -8.077070
  0.328000, -9.599300
  0.330000,-11.081900
  0.332000,-12.531370
  0.334000,-13.954160
  0.336000,-15.372070
  0.338000,-16.796630
  0.340000,-18.215770
  0.342000,-19.633810
  0.344000,-21.028770
  0.346000,-22.385660
  0.348000,-23.704760
  0.350000,-24.966180
  0.352000,-26.175270
  0.354000,-27.346250
  0.356000,-28.494260
  0.358000,-29.623850
  0.360000,-30.750400
  0.362000,-31.866850
  0.364000,-32.962000
  0.366000,-34.022190
  0.368000,-35.029920
  0.370000,-35.961600
  0.372000,-36.797510
  0.374000,-37.532170
  0.376000,-38.173410
  0.378000,-38.748810
  0.380000,-39.278900
  0.382000,-39.776540
  0.384000,-40.227960
  0.386000,-40.639870
  0.388000,-40.989070
  0.390000,-41.255850
  0.392000,-41.437890
  0.394000,-41.533380
  0.396000,-41.547540
  0.398000,-41.477330
  0.400000,-41.337210
  0.402000,-41.142180
  0.404000,-40.904730
  0.406000,-40.636170
  0.408000,-40.341870
  0.410000,-40.008120
  0.412000,-39.605560
  0.414000,-39.119620
  0.416000,-38.521770
  0.418000,-37.827460
  0.420000,-37.050430
  0.422000,-36.214120
  0.424000,-35.350080
  0.426000,-34.458510
  0.428000,-33.534160
  0.430000,-32.556900
  0.432000,-31.519660
  0.434000,-30.423050
  0.436000,-29.269900
  0.438000,-28.088020
  0.440000,-26.880180
  0.442000,-25.664260
  0.444000,-24.437660
  0.446000,-23.238190
  0.448000,-22.076960
  0.450000,-20.967130
  0.452000,-19.920140
  0.454000,-18.951870
  0.456000,-18.069910
  0.458000,-17.245450
  0.460000,-16.483030
  0.462000,-15.774660
  0.464000,-15.105100
  0.466000,-14.462650
  0.468000,-13.849300
  0.470000,-13.264440
  0.472000,-12.705250
  0.474000,-12.161760
  0.476000,-11.638800
  0.478000,-11.122210
  0.480000,-10.598710
  0.482000,-10.060430
  0.484000, -9.518090
  0.486000, -8.969940
  0.488000, -8.442350
  0.490000, -7.947730
  0.492000, -7.506970
  0.494000, -7.118070
  0.496000, -6.788000
  0.498000, -6.508010
  0.500000, -6.270700
  0.502000, -6.077340
  0.504000, -5.919990
  0.506000, -5.788210
  0.508000, -5.683850
  0.510000, -5.607470
  0.512000, -5.553460
  0.514000, -5.520080
  0.516000, -5.507070
  0.518000, -5.513220
  0.520000, -5.537880
  0.522000, -5.586390
  0.524000, -5.651570
  0.526000, -5.728310
  0.528000, -5.798620
  0.530000, -5.855590
  0.532000, -5.886800
  0.534000, -5.879390
  0.536000, -5.842610
  0.538000, -5.778750
  0.540000, -5.725660
  0.542000, -5.687430
  0.544000, -5.661360
  0.546000, -5.652940
  0.548000, -5.644140
  0.550000, -5.618710
  0.552000, -5.573320
  0.554000, -5.513900
  0.556000, -5.433810
  0.558000, -5.344840
  0.560000, -5.252940
  0.562000, -5.164850
  0.564000, -5.089480
  0.566000, -5.007430
  0.568000, -4.922680
  0.570000, -4.822020
  0.572000, -4.697130
  0.574000, -4.562930
  0.576000, -4.408290
  0.578000, -4.255440
  0.580000, -4.106760
  0.582000, -3.979050
  0.584000, -3.871980
  0.586000, -3.775530
  0.588000, -3.673000
  0.590000, -3.553270
  0.592000, -3.417500
  0.594000, -3.253940
  0.596000, -3.078940
  0.598000, -2.892500
  0.600000, -2.718110
  0.602000, -2.559750
  0.604000, -2.431460
  0.606000, -2.314000
  0.608000, -2.215060
  0.610000, -2.134240
  0.612000, -2.061460
  0.614000, -1.998960
  0.616000, -1.937400
  0.618000, -1.879310
  0.620000, -1.818870
  0.622000, -1.755460
  0.624000, -1.689560
  0.626000, -1.629950
  0.628000, -1.575520
  0.630000, -1.531450
  0.632000, -1.495030
  0.634000, -1.469740
  0.636000, -1.445310
  0.638000, -1.437880
  0.640000, -1.429680
  0.642000, -1.406810
  0.644000, -1.391070
  0.646000, -1.362740
  0.648000, -1.324270
  0.650000, -1.288650
  0.652000, -1.252430
  0.654000, -1.214750
  0.656000, -1.175970
  0.658000, -1.136780
  0.660000, -1.102500
  0.662000, -1.071930
  0.664000, -1.052610
  0.666000, -1.043440
  0.668000, -1.037180
  0.670000, -1.045860
  0.672000, -1.055590
  0.674000, -1.061490
  0.676000, -1.051710
  0.678000, -1.030770
  0.680000, -0.989740
  0.682000, -0.939240
  0.684000, -0.878130
  0.686000, -0.823980
  0.688000, -0.778130
  0.690000, -0.749730
  0.692000, -0.740830
  0.694000, -0.749450
  0.696000, -0.769510
  0.698000, -0.795270
  0.700000, -0.810130
  0.702000, -0.812220
  0.704000, -0.793110
  0.706000, -0.754350
  0.708000, -0.708940
  0.710000, -0.666530
  0.712000, -0.635220
  0.714000, -0.619460
  0.716000, -0.615640
  0.718000, -0.627920
  0.720000, -0.650310
  0.722000, -0.668940
  0.724000, -0.682410
  0.726000, -0.678350
  0.728000, -0.664300
  0.730000, -0.635000
  0.732000, -0.601660
  0.734000, -0.573770
  0.736000, -0.551740
  0.738000, -0.540820
  0.740000, -0.540380
  0.742000, -0.547570
  0.744000, -0.557600
  0.746000, -0.571010
  0.748000, -0.587660
  0.750000, -0.615550
  0.752000, -0.649980
  0.754000, -0.676090
  0.756000, -0.699400
  0.758000, -0.700850
  0.760000, -0.696100
  0.762000, -0.689240
  0.764000, -0.668700
  0.766000, -0.650590
  0.768000, -0.643780
  0.770000, -0.639090
  0.772000, -0.648030
  0.774000, -0.655610
  0.776000, -0.664360
  0.778000, -0.676900
  0.780000, -0.684920
  0.782000, -0.684580
  0.784000, -0.685510
  0.786000, -0.674330
  0.788000, -0.656920
  0.790000, -0.635200
  0.792000, -0.624220
  0.794000, -0.609280
  0.796000, -0.604710
  0.798000, -0.605850
  0.800000, -0.624220
  0.802000, -0.647420
  0.804000, -0.685770
  0.806000, -0.726370
  0.808000, -0.760990
  0.810000, -0.780030
  0.812000, -0.796170
  0.814000, -0.794230
  0.816000, -0.785640
  0.818000, -0.767610
  0.820000, -0.759980
  0.822000, -0.751430
  0.824000, -0.748910
  0.826000, -0.758330
  0.828000, -0.770420
  0.830000, -0.781180
  0.832000, -0.784090
  0.834000, -0.788260
  0.836000, -0.776180
  0.838000, -0.764640
  0.840000, -0.745740
  0.842000, -0.719030
  0.844000, -0.695190
  0.846000, -0.671600
  0.848000, -0.640010
  0.850000, -0.620240
  0.852000, -0.599290
  0.854000, -0.594630
  0.856000, -0.595110
  0.858000, -0.611890
  0.860000, -0.633490
  0.862000, -0.655400
  0.864000, -0.674770
  0.866000, -0.684010
  0.868000, -0.682600
  0.870000, -0.665560
  0.872000, -0.639590
  0.874000, -0.595750
  0.876000, -0.538850
  0.878000, -0.475120
  0.880000, -0.415060
  0.882000, -0.359680
  0.884000, -0.330280
  0.886000, -0.315400
  0.888000, -0.317410
  0.890000, -0.329490
  0.892000, -0.350580
  0.894000, -0.381180
  0.896000, -0.410920
  0.898000, -0.431080
  0.900000, -0.434190
  0.902000, -0.433440
  0.904000, -0.420140
  0.906000, -0.389640
  0.908000, -0.360630
  0.910000, -0.316450
  0.912000, -0.273120
  0.914000, -0.224690
  0.916000, -0.185430
  0.918000, -0.159740
  0.920000, -0.145200
  0.922000, -0.137350
  0.924000, -0.139670
  0.926000, -0.143270
  0.928000, -0.154040
  0.930000, -0.164510
  0.932000, -0.174180
  0.934000, -0.167330
  0.936000, -0.147390
  0.938000, -0.119800
  0.940000, -0.070190
  0.942000, -0.022890
  0.944000,  0.038160
  0.946000,  0.098630
  0.948000,  0.143000
  0.950000,  0.182700
  0.952000,  0.204280
  0.954000,  0.208360
  0.956000,  0.200330
  0.958000,  0.179360
  0.960000,  0.143510
  0.962000,  0.097140
  0.964000,  0.050770
  0.966000, -0.000650
  0.968000, -0.041950
  0.970000, -0.067880
  0.972000, -0.070080
  0.974000, -0.050250
  0.976000, -0.009330
  0.978000,  0.054030
  0.980000,  0.123020
  0.982000,  0.185630
  0.984000,  0.241300
  0.986000,  0.273470
  0.988000,  0.291670
  0.990000,  0.299660
  0.992000,  0.304780
  0.994000,  0.303480
  0.996000,  0.311560
  0.998000,  0.319190
  1.000000,  0.335190
