# z (nm)   (kJ/mol)
  0.0620  278.02180
  0.0640  275.44777
  0.0660  272.47396
  0.0680  269.76984
  0.0700  267.21769
  0.0720  264.50015
  0.0740  261.85460
  0.0760  259.19410
  0.0780  256.53811
  0.0800  253.86861
  0.0820  251.15658
  0.0840  248.38384
  0.0860  245.55305
  0.0880  242.65850
  0.0900  239.68889
  0.0920  236.63739
  0.0940  233.49696
  0.0960  230.26557
  0.0980  226.93912
  0.1000  223.52019
  0.1020  220.01331
  0.1040  216.41820
  0.1060  212.74065
  0.1080  208.98897
  0.1100  205.17958
  0.1120  201.31389
  0.1140  197.41415
  0.1160  193.49426
  0.1180  189.56551
  0.1200  185.64844
  0.1220  181.75712
  0.1240  177.89762
  0.1260  174.08848
  0.1280  170.33196
  0.1300  166.63296
  0.1320  162.99507
  0.1340  159.42010
  0.1360  155.90023
  0.1380  152.43735
  0.1400  149.03200
  0.1420  145.68191
  0.1440  142.39574
  0.1460  139.17440
  0.1480  136.01452
  0.1500  132.92091
  0.1520  129.88636
  0.1540  126.89872
  0.1560  123.95163
  0.1580  121.02812
  0.1600  118.11294
  0.1620  115.20495
  0.1640  112.29536
  0.1660  109.39407
  0.1680  106.49907
  0.1700  103.62046
  0.1720  100.76973
  0.1740   97.94688
  0.1760   95.16174
  0.1780   92.42066
  0.1800   89.73092
  0.1820   87.11561
  0.1840   84.56955
  0.1860   82.09126
  0.1880   79.67937
  0.1900   77.32216
  0.1920   75.00068
  0.1940   72.68912
  0.1960   70.37768
  0.1980   68.03650
  0.2000   65.67159
  0.2020   63.29119
  0.2040   60.91922
  0.2060   58.57489
  0.2080   56.31003
  0.2100   54.14325
  0.2120   52.10264
  0.2140   50.20100
  0.2160   48.41298
  0.2180   46.72500
  0.2200   45.08417
  0.2220   43.46469
  0.2240   41.82979
  0.2260   40.14789
  0.2280   38.42872
  0.2300   36.68024
  0.2320   34.91785
  0.2340   33.17374
  0.2360   31.48361
  0.2380   29.87250
  0.2400   28.35311
  0.2420   26.92314
  0.2440   25.57571
  0.2460   24.29916
  0.2480   23.06783
  0.2500   21.85784
  0.2520   20.66390
  0.2540   19.47282
  0.2560   18.27419
  0.2580   17.08565
  0.2600   15.90551
  0.2620   14.75585
  0.2640   13.64665
  0.2660   12.59420
  0.2680   11.59462
  0.2700   10.66810
  0.2720    9.81612
  0.2740    9.01443
  0.2760    8.26491
  0.2780    7.53811
  0.2800    6.81620
  0.2820    6.08112
  0.2840    5.33280
  0.2860    4.58356
  0.2880    3.84710
  0.2900    3.13479
  0.2920    2.46490
  0.2940    1.84628
  0.2960    1.28587
  0.2980    0.78005
  0.3000    0.32230
  0.3020   -0.09283
  0.3040   -0.49664
  0.3060   -0.88971
  0.3080   -1.27295
  0.3100   -1.66090
  0.3120   -2.04642
  0.3140   -2.43811
  0.3160   -2.81439
  0.3180   -3.17698
  0.3200   -3.51075
  0.3220   -3.81541
  0.3240   -4.09385
  0.3260   -4.32868
  0.3280   -4.53418
  0.3300   -4.70855
  0.3320   -4.85321
  0.3340   -4.99269
  0.3360   -5.12329
  0.3380   -5.24505
  0.3400   -5.36772
  0.3420   -5.49366
  0.3440   -5.61999
  0.3460   -5.74396
  0.3480   -5.87382
  0.3500   -5.99289
  0.3520   -6.10267
  0.3540   -6.19992
  0.3560   -6.28732
  0.3580   -6.35074
  0.3600   -6.39605
  0.3620   -6.42980
  0.3640   -6.45232
  0.3660   -6.45902
  0.3680   -6.45875
  0.3700   -6.45601
  0.3720   -6.44621
  0.3740   -6.43407
  0.3760   -6.42386
  0.3780   -6.40963
  0.3800   -6.39080
  0.3820   -6.35803
  0.3840   -6.31969
  0.3860   -6.27816
  0.3880   -6.22127
  0.3900   -6.16290
  0.3920   -6.09439
  0.3940   -6.01910
  0.3960   -5.93727
  0.3980   -5.85109
  0.4000   -5.76152
  0.4020   -5.67045
  0.4040   -5.56631
  0.4060   -5.45725
  0.4080   -5.34395
  0.4100   -5.22688
  0.4120   -5.10321
  0.4140   -4.98029
  0.4160   -4.85275
  0.4180   -4.72980
  0.4200   -4.60913
  0.4220   -4.49698
  0.4240   -4.39112
  0.4260   -4.29279
  0.4280   -4.19919
  0.4300   -4.10759
  0.4320   -4.02275
  0.4340   -3.93867
  0.4360   -3.85334
  0.4380   -3.76838
  0.4400   -3.68714
  0.4420   -3.59471
  0.4440   -3.50040
  0.4460   -3.40216
  0.4480   -3.29582
  0.4500   -3.18432
  0.4520   -3.07115
  0.4540   -2.95263
  0.4560   -2.82517
  0.4580   -2.68961
  0.4600   -2.55788
  0.4620   -2.42107
  0.4640   -2.28144
  0.4660   -2.14444
  0.4680   -2.00589
  0.4700   -1.86353
  0.4720   -1.72309
  0.4740   -1.58319
  0.4760   -1.43702
  0.4780   -1.28685
  0.4800   -1.14658
  0.4820   -0.99713
  0.4840   -0.84738
  0.4860   -0.69567
  0.4880   -0.54068
  0.4900   -0.38712
  0.4920   -0.23319
  0.4940   -0.08451
  0.4960    0.06543
  0.4980    0.20362
  0.5000    0.33414
  0.5020    0.46549
  0.5040    0.59141
  0.5060    0.71033
  0.5080    0.83164
  0.5100    0.95237
  0.5120    1.07319
  0.5140    1.20038
  0.5160    1.33077
  0.5180    1.46038
  0.5200    1.59402
  0.5220    1.71987
  0.5240    1.84236
  0.5260    1.94538
  0.5280    2.04220
  0.5300    2.12604
  0.5320    2.20266
  0.5340    2.27688
  0.5360    2.33987
  0.5380    2.39971
  0.5400    2.46155
  0.5420    2.51721
  0.5440    2.57580
  0.5460    2.63824
  0.5480    2.68966
  0.5500    2.73401
  0.5520    2.76776
  0.5540    2.79341
  0.5560    2.81218
  0.5580    2.81868
  0.5600    2.82162
  0.5620    2.82090
  0.5640    2.81630
  0.5660    2.81056
  0.5680    2.80451
  0.5700    2.79242
  0.5720    2.77860
  0.5740    2.76689
  0.5760    2.74360
  0.5780    2.71467
  0.5800    2.68147
  0.5820    2.64050
  0.5840    2.59122
  0.5860    2.53492
  0.5880    2.47342
  0.5900    2.40748
  0.5920    2.33538
  0.5940    2.25230
  0.5960    2.17095
  0.5980    2.08587
  0.6000    1.99811
  0.6020    1.91378
  0.6040    1.82488
  0.6060    1.73952
  0.6080    1.65043
  0.6100    1.56801
  0.6120    1.48768
  0.6140    1.40594
  0.6160    1.33329
  0.6180    1.26126
  0.6200    1.19492
  0.6220    1.12580
  0.6240    1.05845
  0.6260    0.99398
  0.6280    0.93088
  0.6300    0.87139
  0.6320    0.80684
  0.6340    0.73831
  0.6360    0.67525
  0.6380    0.61357
  0.6400    0.55115
  0.6420    0.49318
  0.6440    0.43302
  0.6460    0.36987
  0.6480    0.31639
  0.6500    0.26664
  0.6520    0.21777
  0.6540    0.17979
  0.6560    0.14033
  0.6580    0.10706
  0.6600    0.07744
  0.6620    0.04961
  0.6640    0.02296
  0.6660   -0.00344
  0.6680   -0.03755
  0.6700   -0.06648
  0.6720   -0.09968
  0.6740   -0.13745
  0.6760   -0.17148
  0.6780   -0.21274
  0.6800   -0.24688
  0.6820   -0.28178
  0.6840   -0.31204
  0.6860   -0.33827
  0.6880   -0.35979
  0.6900   -0.37255
  0.6920   -0.38046
  0.6940   -0.38465
  0.6960   -0.38257
  0.6980   -0.37649
  0.7000   -0.36995
  0.7020   -0.36743
  0.7040   -0.37161
  0.7060   -0.37552
  0.7080   -0.38286
  0.7100   -0.39393
  0.7120   -0.41222
  0.7140   -0.43139
  0.7160   -0.44737
  0.7180   -0.45973
  0.7200   -0.47701
  0.7220   -0.48864
  0.7240   -0.49889
  0.7260   -0.50238
  0.7280   -0.50123
  0.7300   -0.49511
  0.7320   -0.48905
  0.7340   -0.47681
  0.7360   -0.46676
  0.7380   -0.45478
  0.7400   -0.44046
  0.7420   -0.43216
  0.7440   -0.42026
  0.7460   -0.40957
  0.7480   -0.39803
  0.7500   -0.39086
  0.7520   -0.37971
  0.7540   -0.37162
  0.7560   -0.35314
  0.7580   -0.33527
  0.7600   -0.31474
  0.7620   -0.29622
  0.7640   -0.28070
  0.7660   -0.26121
  0.7680   -0.24391
  0.7700   -0.22770
  0.7720   -0.21215
  0.7740   -0.19511
  0.7760   -0.17937
  0.7780   -0.15873
  0.7800   -0.13090
  0.7820   -0.10411
  0.7840   -0.07808
  0.7860   -0.04159
  0.7880   -0.01280
  0.7900    0.00997
  0.7920    0.04086
  0.7940    0.06799
  0.7960    0.09872
  0.7980    0.12445
  0.8000    0.15002
  0.8020    0.17120
  0.8040    0.19508
  0.8060    0.22219
  0.8080    0.24742
  0.8100    0.26513
  0.8120    0.28021
  0.8140    0.29118
  0.8160    0.29782
  0.8180    0.29755
  0.8200    0.29887
  0.8220    0.29830
  0.8240    0.29857
  0.8260    0.29729
  0.8280    0.30202
  0.8300    0.31632
  0.8320    0.32702
  0.8340    0.33825
  0.8360    0.35407
  0.8380    0.37100
  0.8400    0.38932
  0.8420    0.40334
  0.8440    0.41436
  0.8460    0.42578
  0.8480    0.43274
  0.8500    0.43756
  0.8520    0.43478
  0.8540    0.43545
  0.8560    0.42771
  0.8580    0.42083
  0.8600    0.40992
  0.8620    0.39593
  0.8640    0.38201
  0.8660    0.37051
  0.8680    0.36306
  0.8700    0.35144
  0.8720    0.34397
  0.8740    0.33999
  0.8760    0.33874
  0.8780    0.34465
  0.8800    0.35161
  0.8820    0.36180
  0.8840    0.36864
  0.8860    0.38246
  0.8880    0.39717
  0.8900    0.40631
  0.8920    0.41298
  0.8940    0.41458
  0.8960    0.41569
  0.8980    0.40708
  0.9000    0.39949
  0.9020    0.38123
  0.9040    0.36486
  0.9060    0.34447
  0.9080    0.31605
  0.9100    0.29124
  0.9120    0.26186
  0.9140    0.23497
  0.9160    0.20929
  0.9180    0.18451
  0.9200    0.16626
  0.9220    0.15273
  0.9240    0.14386
  0.9260    0.13487
  0.9280    0.13627
  0.9300    0.13686
  0.9320    0.13857
  0.9340    0.13998
  0.9360    0.13483
  0.9380    0.12838
  0.9400    0.11625
  0.9420    0.09843
  0.9440    0.08598
  0.9460    0.06410
  0.9480    0.03815
  0.9500    0.02122
  0.9520   -0.00055
  0.9540   -0.01976
  0.9560   -0.03638
  0.9580   -0.04605
  0.9600   -0.05575
  0.9620   -0.06014
  0.9640   -0.06685
  0.9660   -0.07364
  0.9680   -0.08547
  0.9700   -0.10319
  0.9720   -0.12172
  0.9740   -0.13890
  0.9760   -0.16608
  0.9780   -0.19295
  0.9800   -0.21810
  0.9820   -0.24391
  0.9840   -0.26836
  0.9860   -0.28922
  0.9880   -0.30290
  0.9900   -0.31479
  0.9920   -0.31932
  0.9940   -0.32383
  0.9960   -0.32449
  0.9980   -0.32716
  1.0000   -0.32569
