# z (nm)   (kJ/mol)
  0.062000,278.021800
  0.064000,275.447770
  0.066000,272.473960
  0.068000,269.769840
  0.070000,267.217690
  0.072000,264.500150
  0.074000,261.854600
  0.076000,259.194100
  0.078000,256.538110
  0.080000,253.868610
  0.082000,251.156580
  0.084000,248.383840
  0.086000,245.553050
  0.088000,242.658500
  0.090000,239.688890
  0.092000,236.637390
  0.094000,233.496960
  0.096000,230.265570
  0.098000,226.939120
  0.100000,223.520190
  0.102000,220.013310
  0.104000,216.418200
  0.106000,212.740650
  0.108000,208.988970
  0.110000,205.179580
  0.112000,201.313890
  0.114000,197.414150
  0.116000,193.494260
  0.118000,189.565510
  0.120000,185.648440
  0.122000,181.757120
  0.124000,177.897620
  0.126000,174.088480
  0.128000,170.331960
  0.130000,166.632960
  0.132000,162.995070
  0.134000,159.420100
  0.136000,155.900230
  0.138000,152.437350
  0.140000,149.032000
  0.142000,145.681910
  0.144000,142.395740
  0.146000,139.174400
  0.148000,136.014520
  0.150000,132.920910
  0.152000,129.886360
  0.154000,126.898720
  0.156000,123.951630
  0.158000,121.028120
  0.160000,118.112940
  0.162000,115.204950
  0.164000,112.295360
  0.166000,109.394070
  0.168000,106.499070
  0.170000,103.620460
  0.172000,100.769730
  0.174000, 97.946880
  0.176000, 95.161740
  0.178000, 92.420660
  0.180000, 89.730920
  0.182000, 87.115610
  0.184000, 84.569550
  0.186000, 82.091260
  0.188000, 79.679370
  0.190000, 77.322160
  0.192000, 75.000680
  0.194000, 72.689120
  0.196000, 70.377680
  0.198000, 68.036500
  0.200000, 65.671590
  0.202000, 63.291190
  0.204000, 60.919220
  0.206000, 58.574890
  0.208000, 56.310030
  0.210000, 54.143250
  0.212000, 52.102640
  0.214000, 50.201000
  0.216000, 48.412980
  0.218000, 46.725000
  0.220000, 45.084170
  0.222000, 43.464690
  0.224000, 41.829790
  0.226000, 40.147890
  0.228000, 38.428720
  0.230000, 36.680240
  0.232000, 34.917850
  0.234000, 33.173740
  0.236000, 31.483610
  0.238000, 29.872500
  0.240000, 28.353110
  0.242000, 26.923140
  0.244000, 25.575710
  0.246000, 24.299160
  0.248000, 23.067830
  0.250000, 21.857840
  0.252000, 20.663900
  0.254000, 19.472820
  0.256000, 18.274190
  0.258000, 17.085650
  0.260000, 15.905510
  0.262000, 14.755850
  0.264000, 13.646650
  0.266000, 12.594200
  0.268000, 11.594620
  0.270000, 10.668100
  0.272000,  9.816120
  0.274000,  9.014430
  0.276000,  8.264910
  0.278000,  7.538110
  0.280000,  6.816200
  0.282000,  6.081120
  0.284000,  5.332800
  0.286000,  4.583560
  0.288000,  3.847100
  0.290000,  3.134790
  0.292000,  2.464900
  0.294000,  1.846280
  0.296000,  1.285870
  0.298000,  0.780050
  0.300000,  0.322300
  0.302000, -0.092830
  0.304000, -0.496640
  0.306000, -0.889710
  0.308000, -1.272950
  0.310000, -1.660900
  0.312000, -2.046420
  0.314000, -2.438110
  0.316000, -2.814390
  0.318000, -3.176980
  0.320000, -3.510750
  0.322000, -3.815410
  0.324000, -4.093850
  0.326000, -4.328680
  0.328000, -4.534180
  0.330000, -4.708550
  0.332000, -4.853210
  0.334000, -4.992690
  0.336000, -5.123290
  0.338000, -5.245050
  0.340000, -5.367720
  0.342000, -5.493660
  0.344000, -5.619990
  0.346000, -5.743960
  0.348000, -5.873820
  0.350000, -5.992890
  0.352000, -6.102670
  0.354000, -6.199920
  0.356000, -6.287320
  0.358000, -6.350740
  0.360000, -6.396050
  0.362000, -6.429800
  0.364000, -6.452320
  0.366000, -6.459020
  0.368000, -6.458750
  0.370000, -6.456010
  0.372000, -6.446210
  0.374000, -6.434070
  0.376000, -6.423860
  0.378000, -6.409630
  0.380000, -6.390800
  0.382000, -6.358030
  0.384000, -6.319690
  0.386000, -6.278160
  0.388000, -6.221270
  0.390000, -6.162900
  0.392000, -6.094390
  0.394000, -6.019100
  0.396000, -5.937270
  0.398000, -5.851090
  0.400000, -5.761520
  0.402000, -5.670450
  0.404000, -5.566310
  0.406000, -5.457250
  0.408000, -5.343950
  0.410000, -5.226880
  0.412000, -5.103210
  0.414000, -4.980290
  0.416000, -4.852750
  0.418000, -4.729800
  0.420000, -4.609130
  0.422000, -4.496980
  0.424000, -4.391120
  0.426000, -4.292790
  0.428000, -4.199190
  0.430000, -4.107590
  0.432000, -4.022750
  0.434000, -3.938670
  0.436000, -3.853340
  0.438000, -3.768380
  0.440000, -3.687140
  0.442000, -3.594710
  0.444000, -3.500400
  0.446000, -3.402160
  0.448000, -3.295820
  0.450000, -3.184320
  0.452000, -3.071150
  0.454000, -2.952630
  0.456000, -2.825170
  0.458000, -2.689610
  0.460000, -2.557880
  0.462000, -2.421070
  0.464000, -2.281440
  0.466000, -2.144440
  0.468000, -2.005890
  0.470000, -1.863530
  0.472000, -1.723090
  0.474000, -1.583190
  0.476000, -1.437020
  0.478000, -1.286850
  0.480000, -1.146580
  0.482000, -0.997130
  0.484000, -0.847380
  0.486000, -0.695670
  0.488000, -0.540680
  0.490000, -0.387120
  0.492000, -0.233190
  0.494000, -0.084510
  0.496000,  0.065430
  0.498000,  0.203620
  0.500000,  0.334140
  0.502000,  0.465490
  0.504000,  0.591410
  0.506000,  0.710330
  0.508000,  0.831640
  0.510000,  0.952370
  0.512000,  1.073190
  0.514000,  1.200380
  0.516000,  1.330770
  0.518000,  1.460380
  0.520000,  1.594020
  0.522000,  1.719870
  0.524000,  1.842360
  0.526000,  1.945380
  0.528000,  2.042200
  0.530000,  2.126040
  0.532000,  2.202660
  0.534000,  2.276880
  0.536000,  2.339870
  0.538000,  2.399710
  0.540000,  2.461550
  0.542000,  2.517210
  0.544000,  2.575800
  0.546000,  2.638240
  0.548000,  2.689660
  0.550000,  2.734010
  0.552000,  2.767760
  0.554000,  2.793410
  0.556000,  2.812180
  0.558000,  2.818680
  0.560000,  2.821620
  0.562000,  2.820900
  0.564000,  2.816300
  0.566000,  2.810560
  0.568000,  2.804510
  0.570000,  2.792420
  0.572000,  2.778600
  0.574000,  2.766890
  0.576000,  2.743600
  0.578000,  2.714670
  0.580000,  2.681470
  0.582000,  2.640500
  0.584000,  2.591220
  0.586000,  2.534920
  0.588000,  2.473420
  0.590000,  2.407480
  0.592000,  2.335380
  0.594000,  2.252300
  0.596000,  2.170950
  0.598000,  2.085870
  0.600000,  1.998110
  0.602000,  1.913780
  0.604000,  1.824880
  0.606000,  1.739520
  0.608000,  1.650430
  0.610000,  1.568010
  0.612000,  1.487680
  0.614000,  1.405940
  0.616000,  1.333290
  0.618000,  1.261260
  0.620000,  1.194920
  0.622000,  1.125800
  0.624000,  1.058450
  0.626000,  0.993980
  0.628000,  0.930880
  0.630000,  0.871390
  0.632000,  0.806840
  0.634000,  0.738310
  0.636000,  0.675250
  0.638000,  0.613570
  0.640000,  0.551150
  0.642000,  0.493180
  0.644000,  0.433020
  0.646000,  0.369870
  0.648000,  0.316390
  0.650000,  0.266640
  0.652000,  0.217770
  0.654000,  0.179790
  0.656000,  0.140330
  0.658000,  0.107060
  0.660000,  0.077440
  0.662000,  0.049610
  0.664000,  0.022960
  0.666000, -0.003440
  0.668000, -0.037550
  0.670000, -0.066480
  0.672000, -0.099680
  0.674000, -0.137450
  0.676000, -0.171480
  0.678000, -0.212740
  0.680000, -0.246880
  0.682000, -0.281780
  0.684000, -0.312040
  0.686000, -0.338270
  0.688000, -0.359790
  0.690000, -0.372550
  0.692000, -0.380460
  0.694000, -0.384650
  0.696000, -0.382570
  0.698000, -0.376490
  0.700000, -0.369950
  0.702000, -0.367430
  0.704000, -0.371610
  0.706000, -0.375520
  0.708000, -0.382860
  0.710000, -0.393930
  0.712000, -0.412220
  0.714000, -0.431390
  0.716000, -0.447370
  0.718000, -0.459730
  0.720000, -0.477010
  0.722000, -0.488640
  0.724000, -0.498890
  0.726000, -0.502380
  0.728000, -0.501230
  0.730000, -0.495110
  0.732000, -0.489050
  0.734000, -0.476810
  0.736000, -0.466760
  0.738000, -0.454780
  0.740000, -0.440460
  0.742000, -0.432160
  0.744000, -0.420260
  0.746000, -0.409570
  0.748000, -0.398030
  0.750000, -0.390860
  0.752000, -0.379710
  0.754000, -0.371620
  0.756000, -0.353140
  0.758000, -0.335270
  0.760000, -0.314740
  0.762000, -0.296220
  0.764000, -0.280700
  0.766000, -0.261210
  0.768000, -0.243910
  0.770000, -0.227700
  0.772000, -0.212150
  0.774000, -0.195110
  0.776000, -0.179370
  0.778000, -0.158730
  0.780000, -0.130900
  0.782000, -0.104110
  0.784000, -0.078080
  0.786000, -0.041590
  0.788000, -0.012800
  0.790000,  0.009970
  0.792000,  0.040860
  0.794000,  0.067990
  0.796000,  0.098720
  0.798000,  0.124450
  0.800000,  0.150020
  0.802000,  0.171200
  0.804000,  0.195080
  0.806000,  0.222190
  0.808000,  0.247420
  0.810000,  0.265130
  0.812000,  0.280210
  0.814000,  0.291180
  0.816000,  0.297820
  0.818000,  0.297550
  0.820000,  0.298870
  0.822000,  0.298300
  0.824000,  0.298570
  0.826000,  0.297290
  0.828000,  0.302020
  0.830000,  0.316320
  0.832000,  0.327020
  0.834000,  0.338250
  0.836000,  0.354070
  0.838000,  0.371000
  0.840000,  0.389320
  0.842000,  0.403340
  0.844000,  0.414360
  0.846000,  0.425780
  0.848000,  0.432740
  0.850000,  0.437560
  0.852000,  0.434780
  0.854000,  0.435450
  0.856000,  0.427710
  0.858000,  0.420830
  0.860000,  0.409920
  0.862000,  0.395930
  0.864000,  0.382010
  0.866000,  0.370510
  0.868000,  0.363060
  0.870000,  0.351440
  0.872000,  0.343970
  0.874000,  0.339990
  0.876000,  0.338740
  0.878000,  0.344650
  0.880000,  0.351610
  0.882000,  0.361800
  0.884000,  0.368640
  0.886000,  0.382460
  0.888000,  0.397170
  0.890000,  0.406310
  0.892000,  0.412980
  0.894000,  0.414580
  0.896000,  0.415690
  0.898000,  0.407080
  0.900000,  0.399490
  0.902000,  0.381230
  0.904000,  0.364860
  0.906000,  0.344470
  0.908000,  0.316050
  0.910000,  0.291240
  0.912000,  0.261860
  0.914000,  0.234970
  0.916000,  0.209290
  0.918000,  0.184510
  0.920000,  0.166260
  0.922000,  0.152730
  0.924000,  0.143860
  0.926000,  0.134870
  0.928000,  0.136270
  0.930000,  0.136860
  0.932000,  0.138570
  0.934000,  0.139980
  0.936000,  0.134830
  0.938000,  0.128380
  0.940000,  0.116250
  0.942000,  0.098430
  0.944000,  0.085980
  0.946000,  0.064100
  0.948000,  0.038150
  0.950000,  0.021220
  0.952000, -0.000550
  0.954000, -0.019760
  0.956000, -0.036380
  0.958000, -0.046050
  0.960000, -0.055750
  0.962000, -0.060140
  0.964000, -0.066850
  0.966000, -0.073640
  0.968000, -0.085470
  0.970000, -0.103190
  0.972000, -0.121720
  0.974000, -0.138900
  0.976000, -0.166080
  0.978000, -0.192950
  0.980000, -0.218100
  0.982000, -0.243910
  0.984000, -0.268360
  0.986000, -0.289220
  0.988000, -0.302900
  0.990000, -0.314790
  0.992000, -0.319320
  0.994000, -0.323830
  0.996000, -0.324490
  0.998000, -0.327160
  1.000000, -0.325690
