# z (nm)   (kJ/mol)
  0.058000,265.721860
  0.060000,263.364100
  0.062000,261.050550
  0.064000,258.778310
  0.066000,256.541150
  0.068000,254.238680
  0.070000,251.991820
  0.072000,249.727300
  0.074000,247.363140
  0.076000,245.068150
  0.078000,242.715610
  0.080000,240.313870
  0.082000,237.825270
  0.084000,235.249570
  0.086000,232.565300
  0.088000,229.755020
  0.090000,226.806800
  0.092000,223.720600
  0.094000,220.491840
  0.096000,217.119890
  0.098000,213.615730
  0.100000,209.978820
  0.102000,206.204100
  0.104000,202.286020
  0.106000,198.213960
  0.108000,193.980450
  0.110000,189.586590
  0.112000,185.070080
  0.114000,180.484590
  0.116000,175.913920
  0.118000,171.443740
  0.120000,167.120230
  0.122000,162.958030
  0.124000,158.923350
  0.126000,154.973830
  0.128000,151.077680
  0.130000,147.218530
  0.132000,143.391830
  0.134000,139.620310
  0.136000,135.907800
  0.138000,132.254270
  0.140000,128.655910
  0.142000,125.100360
  0.144000,121.583400
  0.146000,118.103720
  0.148000,114.657430
  0.150000,111.241980
  0.152000,107.862000
  0.154000,104.506990
  0.156000,101.187730
  0.158000, 97.913090
  0.160000, 94.722620
  0.162000, 91.606400
  0.164000, 88.590940
  0.166000, 85.656230
  0.168000, 82.797720
  0.170000, 79.996530
  0.172000, 77.231630
  0.174000, 74.492460
  0.176000, 71.746050
  0.178000, 68.983400
  0.180000, 66.202920
  0.182000, 63.390110
  0.184000, 60.575400
  0.186000, 57.787540
  0.188000, 55.055410
  0.190000, 52.406720
  0.192000, 49.879040
  0.194000, 47.475360
  0.196000, 45.182350
  0.198000, 42.980040
  0.200000, 40.828550
  0.202000, 38.690380
  0.204000, 36.552550
  0.206000, 34.396330
  0.208000, 32.226040
  0.210000, 30.057420
  0.212000, 27.915880
  0.214000, 25.825600
  0.216000, 23.807510
  0.218000, 21.874130
  0.220000, 20.025800
  0.222000, 18.247350
  0.224000, 16.539000
  0.226000, 14.893010
  0.228000, 13.298260
  0.230000, 11.748560
  0.232000, 10.228830
  0.234000,  8.713070
  0.236000,  7.178060
  0.238000,  5.626860
  0.240000,  4.072500
  0.242000,  2.557070
  0.244000,  1.132040
  0.246000, -0.183490
  0.248000, -1.375940
  0.250000, -2.472120
  0.252000, -3.494330
  0.254000, -4.473450
  0.256000, -5.425950
  0.258000, -6.399140
  0.260000, -7.373550
  0.262000, -8.352840
  0.264000, -9.318470
  0.266000,-10.243050
  0.268000,-11.111770
  0.270000,-11.912930
  0.272000,-12.636700
  0.274000,-13.295110
  0.276000,-13.883530
  0.278000,-14.429400
  0.280000,-14.924700
  0.282000,-15.392630
  0.284000,-15.829380
  0.286000,-16.263990
  0.288000,-16.692450
  0.290000,-17.116780
  0.292000,-17.535490
  0.294000,-17.932700
  0.296000,-18.305860
  0.298000,-18.645430
  0.300000,-18.938940
  0.302000,-19.181750
  0.304000,-19.378910
  0.306000,-19.527260
  0.308000,-19.638270
  0.310000,-19.719410
  0.312000,-19.790810
  0.314000,-19.849920
  0.316000,-19.909290
  0.318000,-19.962840
  0.320000,-20.003650
  0.322000,-20.025830
  0.324000,-20.027540
  0.326000,-19.994340
  0.328000,-19.934790
  0.330000,-19.850840
  0.332000,-19.753110
  0.334000,-19.638230
  0.336000,-19.520220
  0.338000,-19.394330
  0.340000,-19.248700
  0.342000,-19.083190
  0.344000,-18.888940
  0.346000,-18.668610
  0.348000,-18.426780
  0.350000,-18.157590
  0.352000,-17.879310
  0.354000,-17.591710
  0.356000,-17.307660
  0.358000,-17.020110
  0.360000,-16.734100
  0.362000,-16.462290
  0.364000,-16.189020
  0.366000,-15.914240
  0.368000,-15.631690
  0.370000,-15.340280
  0.372000,-15.040930
  0.374000,-14.740810
  0.376000,-14.444140
  0.378000,-14.152600
  0.380000,-13.870840
  0.382000,-13.592750
  0.384000,-13.324440
  0.386000,-13.062300
  0.388000,-12.798140
  0.390000,-12.539340
  0.392000,-12.280860
  0.394000,-12.020990
  0.396000,-11.772440
  0.398000,-11.530310
  0.400000,-11.300470
  0.402000,-11.094430
  0.404000,-10.921220
  0.406000,-10.782090
  0.408000,-10.665440
  0.410000,-10.569460
  0.412000,-10.475780
  0.414000,-10.372420
  0.416000,-10.234150
  0.418000,-10.059660
  0.420000, -9.873530
  0.422000, -9.683500
  0.424000, -9.513470
  0.426000, -9.386270
  0.428000, -9.311800
  0.430000, -9.272930
  0.432000, -9.257300
  0.434000, -9.245240
  0.436000, -9.208470
  0.438000, -9.151040
  0.440000, -9.060420
  0.442000, -8.954440
  0.444000, -8.841220
  0.446000, -8.735540
  0.448000, -8.634050
  0.450000, -8.549870
  0.452000, -8.465660
  0.454000, -8.383380
  0.456000, -8.292700
  0.458000, -8.196530
  0.460000, -8.098640
  0.462000, -7.991480
  0.464000, -7.900950
  0.466000, -7.823570
  0.468000, -7.743390
  0.470000, -7.674870
  0.472000, -7.595590
  0.474000, -7.512070
  0.476000, -7.413080
  0.478000, -7.295550
  0.480000, -7.169300
  0.482000, -7.027940
  0.484000, -6.886870
  0.486000, -6.746210
  0.488000, -6.616560
  0.490000, -6.497370
  0.492000, -6.380710
  0.494000, -6.267350
  0.496000, -6.148490
  0.498000, -6.032610
  0.500000, -5.918230
  0.502000, -5.804580
  0.504000, -5.688310
  0.506000, -5.574950
  0.508000, -5.458900
  0.510000, -5.343960
  0.512000, -5.226450
  0.514000, -5.107810
  0.516000, -4.989500
  0.518000, -4.872530
  0.520000, -4.759180
  0.522000, -4.647860
  0.524000, -4.540930
  0.526000, -4.438120
  0.528000, -4.351820
  0.530000, -4.264140
  0.532000, -4.177620
  0.534000, -4.087070
  0.536000, -3.990670
  0.538000, -3.893390
  0.540000, -3.791300
  0.542000, -3.691320
  0.544000, -3.594340
  0.546000, -3.500540
  0.548000, -3.415600
  0.550000, -3.333250
  0.552000, -3.257110
  0.554000, -3.178720
  0.556000, -3.108270
  0.558000, -3.039720
  0.560000, -2.972830
  0.562000, -2.905720
  0.564000, -2.841540
  0.566000, -2.796520
  0.568000, -2.765380
  0.570000, -2.740590
  0.572000, -2.724780
  0.574000, -2.714840
  0.576000, -2.698540
  0.578000, -2.671980
  0.580000, -2.644530
  0.582000, -2.602500
  0.584000, -2.551580
  0.586000, -2.502850
  0.588000, -2.457540
  0.590000, -2.414460
  0.592000, -2.379510
  0.594000, -2.342100
  0.596000, -2.306310
  0.598000, -2.257980
  0.600000, -2.203110
  0.602000, -2.139130
  0.604000, -2.086460
  0.606000, -2.033670
  0.608000, -1.991690
  0.610000, -1.953750
  0.612000, -1.921450
  0.614000, -1.884710
  0.616000, -1.849290
  0.618000, -1.805230
  0.620000, -1.745720
  0.622000, -1.670150
  0.624000, -1.583900
  0.626000, -1.487410
  0.628000, -1.379420
  0.630000, -1.265280
  0.632000, -1.152450
  0.634000, -1.048040
  0.636000, -0.944080
  0.638000, -0.852680
  0.640000, -0.775550
  0.642000, -0.708150
  0.644000, -0.650210
  0.646000, -0.605400
  0.648000, -0.560750
  0.650000, -0.517790
  0.652000, -0.468560
  0.654000, -0.419760
  0.656000, -0.355840
  0.658000, -0.283070
  0.660000, -0.204010
  0.662000, -0.116360
  0.664000, -0.026110
  0.666000,  0.061510
  0.668000,  0.141590
  0.670000,  0.219860
  0.672000,  0.286860
  0.674000,  0.335690
  0.676000,  0.378250
  0.678000,  0.401840
  0.680000,  0.415300
  0.682000,  0.425480
  0.684000,  0.420080
  0.686000,  0.402020
  0.688000,  0.375700
  0.690000,  0.348660
  0.692000,  0.323440
  0.694000,  0.303010
  0.696000,  0.291780
  0.698000,  0.301650
  0.700000,  0.310450
  0.702000,  0.320150
  0.704000,  0.333520
  0.706000,  0.348670
  0.708000,  0.364680
  0.710000,  0.368140
  0.712000,  0.361510
  0.714000,  0.348550
  0.716000,  0.314980
  0.718000,  0.279690
  0.720000,  0.240830
  0.722000,  0.196340
  0.724000,  0.168280
  0.726000,  0.138410
  0.728000,  0.124190
  0.730000,  0.116560
  0.732000,  0.107190
  0.734000,  0.085210
  0.736000,  0.039890
  0.738000, -0.015820
  0.740000, -0.081560
  0.742000, -0.139130
  0.744000, -0.178070
  0.746000, -0.180670
  0.748000, -0.157600
  0.750000, -0.109360
  0.752000, -0.061450
  0.754000, -0.031590
  0.756000, -0.018040
  0.758000, -0.041300
  0.760000, -0.089810
  0.762000, -0.159820
  0.764000, -0.228070
  0.766000, -0.295560
  0.768000, -0.349620
  0.770000, -0.386320
  0.772000, -0.399970
  0.774000, -0.395010
  0.776000, -0.387240
  0.778000, -0.359150
  0.780000, -0.329840
  0.782000, -0.305470
  0.784000, -0.285190
  0.786000, -0.276400
  0.788000, -0.273150
  0.790000, -0.272330
  0.792000, -0.279770
  0.794000, -0.293320
  0.796000, -0.301160
  0.798000, -0.311330
  0.800000, -0.322650
  0.802000, -0.322370
  0.804000, -0.320530
  0.806000, -0.316500
  0.808000, -0.307310
  0.810000, -0.293340
  0.812000, -0.278630
  0.814000, -0.251850
  0.816000, -0.229090
  0.818000, -0.199750
  0.820000, -0.175300
  0.822000, -0.157670
  0.824000, -0.149200
  0.826000, -0.138800
  0.828000, -0.140610
  0.830000, -0.137430
  0.832000, -0.139310
  0.834000, -0.136540
  0.836000, -0.122320
  0.838000, -0.104810
  0.840000, -0.073690
  0.842000, -0.037690
  0.844000, -0.005820
  0.846000,  0.015900
  0.848000,  0.017060
  0.850000,  0.013970
  0.852000,  0.002080
  0.854000, -0.022980
  0.856000, -0.047350
  0.858000, -0.074290
  0.860000, -0.099230
  0.862000, -0.118850
  0.864000, -0.135630
  0.866000, -0.139330
  0.868000, -0.132740
  0.870000, -0.114890
  0.872000, -0.091660
  0.874000, -0.064850
  0.876000, -0.042070
  0.878000, -0.009540
  0.880000,  0.008170
  0.882000,  0.020150
  0.884000,  0.018500
  0.886000,  0.015290
  0.888000,  0.010520
  0.890000,  0.003880
  0.892000, -0.004370
  0.894000, -0.012180
  0.896000, -0.016050
  0.898000, -0.011160
  0.900000, -0.003790
  0.902000,  0.002690
  0.904000,  0.013080
  0.906000, -0.000300
  0.908000, -0.013340
  0.910000, -0.029060
  0.912000, -0.057120
  0.914000, -0.080510
  0.916000, -0.101010
  0.918000, -0.111780
  0.920000, -0.112380
  0.922000, -0.093620
  0.924000, -0.059540
  0.926000, -0.017560
  0.928000,  0.033610
  0.930000,  0.082980
  0.932000,  0.124510
  0.934000,  0.145480
  0.936000,  0.141790
  0.938000,  0.116160
  0.940000,  0.075550
  0.942000,  0.019290
  0.944000, -0.039500
  0.946000, -0.090980
  0.948000, -0.136510
  0.950000, -0.156550
  0.952000, -0.151260
  0.954000, -0.111880
  0.956000, -0.060770
  0.958000,  0.007600
  0.960000,  0.076470
  0.962000,  0.141720
  0.964000,  0.192620
  0.966000,  0.224150
  0.968000,  0.234290
  0.970000,  0.222680
  0.972000,  0.195550
  0.974000,  0.158430
  0.976000,  0.115210
  0.978000,  0.072900
  0.980000,  0.042170
  0.982000,  0.003980
  0.984000, -0.026110
  0.986000, -0.054560
  0.988000, -0.081910
  0.990000, -0.103950
  0.992000, -0.124430
  0.994000, -0.141350
  0.996000, -0.152800
  0.998000, -0.162400
  1.000000, -0.171710
