# z (nm)   (kJ/mol)
  0.0960  280.19714
  0.0980  277.75935
  0.1000  274.83569
  0.1020  272.44841
  0.1040  269.91679
  0.1060  274.59919
  0.1080  271.46514
  0.1100  268.67609
  0.1120  266.03607
  0.1140  263.39455
  0.1160  260.71887
  0.1180  258.12612
  0.1200  255.52938
  0.1220  252.88235
  0.1240  250.17518
  0.1260  247.42553
  0.1280  244.60279
  0.1300  241.70164
  0.1320  238.69952
  0.1340  235.59083
  0.1360  232.37052
  0.1380  229.02866
  0.1400  225.56907
  0.1420  221.99401
  0.1440  218.31180
  0.1460  214.53022
  0.1480  210.67095
  0.1500  206.75446
  0.1520  202.79526
  0.1540  198.81961
  0.1560  194.84386
  0.1580  190.88277
  0.1600  186.94778
  0.1620  183.04747
  0.1640  179.18255
  0.1660  175.35094
  0.1680  171.55342
  0.1700  167.78593
  0.1720  164.05024
  0.1740  160.34575
  0.1760  156.68993
  0.1780  153.08276
  0.1800  149.54045
  0.1820  146.07031
  0.1840  142.66985
  0.1860  139.33394
  0.1880  136.05060
  0.1900  132.81098
  0.1920  129.61377
  0.1940  126.45496
  0.1960  123.33820
  0.1980  120.27109
  0.2000  117.27134
  0.2020  114.33822
  0.2040  111.47850
  0.2060  108.68096
  0.2080  105.92024
  0.2100  103.18080
  0.2120  100.44311
  0.2140   97.69938
  0.2160   94.94343
  0.2180   92.18523
  0.2200   89.43935
  0.2220   86.71970
  0.2240   84.03973
  0.2260   81.41044
  0.2280   78.83786
  0.2300   76.32769
  0.2320   73.87037
  0.2340   71.46179
  0.2360   69.09943
  0.2380   66.78291
  0.2400   64.50312
  0.2420   62.25915
  0.2440   60.04763
  0.2460   57.87782
  0.2480   55.74605
  0.2500   53.65526
  0.2520   51.60277
  0.2540   49.60040
  0.2560   47.63826
  0.2580   45.72090
  0.2600   43.83924
  0.2620   41.99738
  0.2640   40.18793
  0.2660   38.41952
  0.2680   36.67696
  0.2700   34.97607
  0.2720   33.30423
  0.2740   31.66753
  0.2760   30.06235
  0.2780   28.49148
  0.2800   26.94956
  0.2820   25.44367
  0.2840   23.96515
  0.2860   22.52049
  0.2880   21.10417
  0.2900   19.71461
  0.2920   18.35213
  0.2940   17.02569
  0.2960   15.73734
  0.2980   14.49779
  0.3000   13.31234
  0.3020   12.18249
  0.3040   11.10564
  0.3060   10.07732
  0.3080    9.09338
  0.3100    8.13615
  0.3120    7.21316
  0.3140    6.31141
  0.3160    5.42835
  0.3180    4.55741
  0.3200    3.70795
  0.3220    2.87118
  0.3240    2.07250
  0.3260    1.29097
  0.3280    0.53744
  0.3300   -0.17947
  0.3320   -0.85467
  0.3340   -1.49232
  0.3360   -2.09503
  0.3380   -2.65385
  0.3400   -3.16873
  0.3420   -3.66545
  0.3440   -4.13225
  0.3460   -4.57076
  0.3480   -4.99043
  0.3500   -5.38810
  0.3520   -5.77345
  0.3540   -6.14166
  0.3560   -6.50239
  0.3580   -6.84842
  0.3600   -7.17147
  0.3620   -7.48093
  0.3640   -7.75890
  0.3660   -8.02310
  0.3680   -8.26506
  0.3700   -8.47690
  0.3720   -8.66410
  0.3740   -8.81686
  0.3760   -8.95163
  0.3780   -9.06678
  0.3800   -9.15845
  0.3820   -9.22603
  0.3840   -9.28430
  0.3860   -9.33229
  0.3880   -9.37256
  0.3900   -9.41148
  0.3920   -9.44981
  0.3940   -9.49251
  0.3960   -9.52479
  0.3980   -9.54698
  0.4000   -9.55589
  0.4020   -9.54876
  0.4040   -9.52655
  0.4060   -9.47989
  0.4080   -9.42387
  0.4100   -9.35296
  0.4120   -9.27759
  0.4140   -9.19753
  0.4160   -9.11813
  0.4180   -9.02881
  0.4200   -8.93951
  0.4220   -8.84315
  0.4240   -8.74236
  0.4260   -8.62082
  0.4280   -8.48677
  0.4300   -8.32948
  0.4320   -8.15872
  0.4340   -7.97346
  0.4360   -7.78208
  0.4380   -7.59288
  0.4400   -7.41890
  0.4420   -7.28736
  0.4440   -7.19470
  0.4460   -7.14681
  0.4480   -7.13487
  0.4500   -7.14218
  0.4520   -7.13117
  0.4540   -7.09139
  0.4560   -6.99196
  0.4580   -6.82396
  0.4600   -6.59309
  0.4620   -6.31789
  0.4640   -6.02811
  0.4660   -5.75425
  0.4680   -5.52184
  0.4700   -5.33036
  0.4720   -5.18501
  0.4740   -5.07850
  0.4760   -4.99905
  0.4780   -4.92778
  0.4800   -4.84200
  0.4820   -4.73959
  0.4840   -4.60647
  0.4860   -4.45198
  0.4880   -4.27345
  0.4900   -4.07598
  0.4920   -3.86777
  0.4940   -3.64376
  0.4960   -3.41977
  0.4980   -3.18632
  0.5000   -2.95905
  0.5020   -2.72937
  0.5040   -2.50447
  0.5060   -2.29753
  0.5080   -2.09909
  0.5100   -1.90448
  0.5120   -1.72468
  0.5140   -1.55104
  0.5160   -1.38223
  0.5180   -1.21485
  0.5200   -1.04569
  0.5220   -0.87226
  0.5240   -0.69257
  0.5260   -0.50711
  0.5280   -0.31167
  0.5300   -0.10689
  0.5320    0.10697
  0.5340    0.31859
  0.5360    0.53413
  0.5380    0.74837
  0.5400    0.95166
  0.5420    1.14618
  0.5440    1.32923
  0.5460    1.50013
  0.5480    1.65088
  0.5500    1.79154
  0.5520    1.92217
  0.5540    2.04624
  0.5560    2.15825
  0.5580    2.26530
  0.5600    2.37920
  0.5620    2.49054
  0.5640    2.61479
  0.5660    2.73830
  0.5680    2.86287
  0.5700    2.98265
  0.5720    3.10541
  0.5740    3.22306
  0.5760    3.33334
  0.5780    3.43185
  0.5800    3.52798
  0.5820    3.61845
  0.5840    3.70676
  0.5860    3.79062
  0.5880    3.87213
  0.5900    3.94375
  0.5920    4.01128
  0.5940    4.06708
  0.5960    4.11988
  0.5980    4.16219
  0.6000    4.19432
  0.6020    4.22029
  0.6040    4.23991
  0.6060    4.25730
  0.6080    4.27217
  0.6100    4.28033
  0.6120    4.28217
  0.6140    4.28876
  0.6160    4.28474
  0.6180    4.27267
  0.6200    4.25498
  0.6220    4.22283
  0.6240    4.18167
  0.6260    4.13231
  0.6280    4.07230
  0.6300    4.01444
  0.6320    3.94199
  0.6340    3.85950
  0.6360    3.76846
  0.6380    3.66819
  0.6400    3.55949
  0.6420    3.44490
  0.6440    3.32473
  0.6460    3.21527
  0.6480    3.10235
  0.6500    3.00117
  0.6520    2.91421
  0.6540    2.83389
  0.6560    2.74804
  0.6580    2.66548
  0.6600    2.58811
  0.6620    2.50154
  0.6640    2.40856
  0.6660    2.30942
  0.6680    2.20219
  0.6700    2.09808
  0.6720    1.98955
  0.6740    1.88002
  0.6760    1.77031
  0.6780    1.65990
  0.6800    1.55743
  0.6820    1.45027
  0.6840    1.34040
  0.6860    1.23392
  0.6880    1.12768
  0.6900    1.02673
  0.6920    0.92497
  0.6940    0.82782
  0.6960    0.73442
  0.6980    0.64279
  0.7000    0.55138
  0.7020    0.46245
  0.7040    0.37934
  0.7060    0.30443
  0.7080    0.23311
  0.7100    0.15972
  0.7120    0.08957
  0.7140    0.02229
  0.7160   -0.04197
  0.7180   -0.10290
  0.7200   -0.16556
  0.7220   -0.21954
  0.7240   -0.27723
  0.7260   -0.32504
  0.7280   -0.37910
  0.7300   -0.43282
  0.7320   -0.47989
  0.7340   -0.52157
  0.7360   -0.56254
  0.7380   -0.59296
  0.7400   -0.62081
  0.7420   -0.64394
  0.7440   -0.65774
  0.7460   -0.67165
  0.7480   -0.67780
  0.7500   -0.67707
  0.7520   -0.67645
  0.7540   -0.67579
  0.7560   -0.67641
  0.7580   -0.67032
  0.7600   -0.67157
  0.7620   -0.67025
  0.7640   -0.67384
  0.7660   -0.68085
  0.7680   -0.69147
  0.7700   -0.70196
  0.7720   -0.71453
  0.7740   -0.72142
  0.7760   -0.72988
  0.7780   -0.73497
  0.7800   -0.73111
  0.7820   -0.72246
  0.7840   -0.71334
  0.7860   -0.69474
  0.7880   -0.67267
  0.7900   -0.64266
  0.7920   -0.60495
  0.7940   -0.55794
  0.7960   -0.52108
  0.7980   -0.47536
  0.8000   -0.43552
  0.8020   -0.39791
  0.8040   -0.36189
  0.8060   -0.33314
  0.8080   -0.31525
  0.8100   -0.30035
  0.8120   -0.28848
  0.8140   -0.28421
  0.8160   -0.28209
  0.8180   -0.27836
  0.8200   -0.26785
  0.8220   -0.25206
  0.8240   -0.23595
  0.8260   -0.21135
  0.8280   -0.17559
  0.8300   -0.14003
  0.8320   -0.09066
  0.8340   -0.04526
  0.8360    0.00165
  0.8380    0.04710
  0.8400    0.08892
  0.8420    0.13598
  0.8440    0.17365
  0.8460    0.21232
  0.8480    0.25187
  0.8500    0.28306
  0.8520    0.31183
  0.8540    0.33374
  0.8560    0.35590
  0.8580    0.37417
  0.8600    0.38645
  0.8620    0.39604
  0.8640    0.40336
  0.8660    0.41953
  0.8680    0.42802
  0.8700    0.43764
  0.8720    0.44147
  0.8740    0.45619
  0.8760    0.46918
  0.8780    0.49043
  0.8800    0.50762
  0.8820    0.52566
  0.8840    0.53732
  0.8860    0.54755
  0.8880    0.55973
  0.8900    0.56645
  0.8920    0.57642
  0.8940    0.57788
  0.8960    0.58152
  0.8980    0.57783
  0.9000    0.56734
  0.9020    0.55551
  0.9040    0.53992
  0.9060    0.51683
  0.9080    0.49989
  0.9100    0.47657
  0.9120    0.45571
  0.9140    0.44570
  0.9160    0.44247
  0.9180    0.44286
  0.9200    0.44433
  0.9220    0.44152
  0.9240    0.44106
  0.9260    0.43340
  0.9280    0.41615
  0.9300    0.39055
  0.9320    0.35467
  0.9340    0.31091
  0.9360    0.26834
  0.9380    0.22970
  0.9400    0.19667
  0.9420    0.17238
  0.9440    0.15246
  0.9460    0.13591
  0.9480    0.12406
  0.9500    0.10799
  0.9520    0.08613
  0.9540    0.06041
  0.9560    0.02755
  0.9580   -0.00576
  0.9600   -0.04358
  0.9620   -0.07827
  0.9640   -0.11600
  0.9660   -0.15525
  0.9680   -0.19851
  0.9700   -0.23745
  0.9720   -0.28292
  0.9740   -0.32969
  0.9760   -0.38074
  0.9780   -0.43051
  0.9800   -0.47948
  0.9820   -0.52661
  0.9840   -0.57054
  0.9860   -0.60332
  0.9880   -0.63100
  0.9900   -0.64875
  0.9920   -0.66036
  0.9940   -0.67391
  0.9960   -0.68898
  0.9980   -0.70373
  1.0000   -0.72427
