# z (nm)   (kJ/mol)
  0.1620  262.94007
  0.1640  260.93104
  0.1660  257.55099
  0.1680  255.20583
  0.1700  253.08933
  0.1720  250.97494
  0.1740  248.87523
  0.1760  246.78609
  0.1780  244.67896
  0.1800  242.50333
  0.1820  240.21356
  0.1840  237.81167
  0.1860  235.26347
  0.1880  232.52580
  0.1900  229.56659
  0.1920  226.33548
  0.1940  222.79458
  0.1960  218.92973
  0.1980  214.76914
  0.2000  210.41196
  0.2020  205.98060
  0.2040  201.59372
  0.2060  197.30537
  0.2080  193.08182
  0.2100  188.84523
  0.2120  184.54318
  0.2140  180.18876
  0.2160  175.85402
  0.2180  171.63534
  0.2200  167.60596
  0.2220  163.78319
  0.2240  160.12882
  0.2260  156.58549
  0.2280  153.08546
  0.2300  149.60863
  0.2320  146.14426
  0.2340  142.71277
  0.2360  139.32309
  0.2380  135.97036
  0.2400  132.64276
  0.2420  129.33053
  0.2440  126.03970
  0.2460  122.79422
  0.2480  119.62733
  0.2500  116.54085
  0.2520  113.53104
  0.2540  110.55630
  0.2560  107.60571
  0.2580  104.71767
  0.2600  101.96854
  0.2620   99.40071
  0.2640   96.97540
  0.2660   94.57389
  0.2680   92.11699
  0.2700   89.60704
  0.2720   87.11674
  0.2740   84.72775
  0.2760   82.47005
  0.2780   80.34285
  0.2800   78.32153
  0.2820   76.38829
  0.2840   74.50353
  0.2860   72.65401
  0.2880   70.82236
  0.2900   69.01796
  0.2920   67.25957
  0.2940   65.55971
  0.2960   63.92380
  0.2980   62.35010
  0.3000   60.81271
  0.3020   59.29438
  0.3040   57.78562
  0.3060   56.31621
  0.3080   54.89433
  0.3100   53.54237
  0.3120   52.24447
  0.3140   50.97502
  0.3160   49.71382
  0.3180   48.46325
  0.3200   47.23410
  0.3220   46.03259
  0.3240   44.86971
  0.3260   43.72915
  0.3280   42.58779
  0.3300   41.42827
  0.3320   40.21497
  0.3340   38.94849
  0.3360   37.61554
  0.3380   36.24688
  0.3400   34.87082
  0.3420   33.49774
  0.3440   32.15543
  0.3460   30.84269
  0.3480   29.53969
  0.3500   28.21713
  0.3520   26.87984
  0.3540   25.55073
  0.3560   24.25067
  0.3580   22.98692
  0.3600   21.77744
  0.3620   20.64353
  0.3640   19.59393
  0.3660   18.63741
  0.3680   17.75288
  0.3700   16.93842
  0.3720   16.16745
  0.3740   15.42636
  0.3760   14.72223
  0.3780   14.04861
  0.3800   13.40965
  0.3820   12.81800
  0.3840   12.28699
  0.3860   11.80677
  0.3880   11.37929
  0.3900   10.95589
  0.3920   10.52409
  0.3940   10.04718
  0.3960    9.51498
  0.3980    8.92323
  0.4000    8.28386
  0.4020    7.61915
  0.4040    6.94439
  0.4060    6.26716
  0.4080    5.57929
  0.4100    4.89635
  0.4120    4.20836
  0.4140    3.51005
  0.4160    2.78523
  0.4180    2.03878
  0.4200    1.25029
  0.4220    0.45530
  0.4240   -0.29073
  0.4260   -0.93090
  0.4280   -1.43828
  0.4300   -1.83324
  0.4320   -2.15772
  0.4340   -2.46096
  0.4360   -2.76680
  0.4380   -3.09538
  0.4400   -3.42104
  0.4420   -3.72537
  0.4440   -3.97749
  0.4460   -4.15163
  0.4480   -4.24812
  0.4500   -4.28756
  0.4520   -4.28849
  0.4540   -4.29894
  0.4560   -4.34034
  0.4580   -4.42557
  0.4600   -4.51883
  0.4620   -4.59943
  0.4640   -4.62516
  0.4660   -4.58745
  0.4680   -4.49872
  0.4700   -4.39186
  0.4720   -4.30903
  0.4740   -4.26164
  0.4760   -4.24082
  0.4780   -4.23387
  0.4800   -4.21285
  0.4820   -4.15982
  0.4840   -4.07987
  0.4860   -3.98633
  0.4880   -3.90028
  0.4900   -3.85906
  0.4920   -3.85779
  0.4940   -3.89139
  0.4960   -3.92878
  0.4980   -3.94722
  0.5000   -3.97077
  0.5020   -3.98865
  0.5040   -4.03512
  0.5060   -4.12953
  0.5080   -4.28479
  0.5100   -4.48878
  0.5120   -4.72480
  0.5140   -4.96084
  0.5160   -5.19412
  0.5180   -5.42910
  0.5200   -5.66325
  0.5220   -5.89774
  0.5240   -6.11788
  0.5260   -6.31972
  0.5280   -6.48130
  0.5300   -6.59368
  0.5320   -6.65499
  0.5340   -6.68865
  0.5360   -6.71331
  0.5380   -6.74260
  0.5400   -6.78871
  0.5420   -6.82124
  0.5440   -6.82643
  0.5460   -6.78371
  0.5480   -6.68876
  0.5500   -6.56910
  0.5520   -6.45317
  0.5540   -6.35680
  0.5560   -6.28410
  0.5580   -6.23455
  0.5600   -6.19079
  0.5620   -6.12658
  0.5640   -6.05071
  0.5660   -5.96383
  0.5680   -5.88547
  0.5700   -5.81891
  0.5720   -5.77272
  0.5740   -5.74065
  0.5760   -5.73167
  0.5780   -5.73049
  0.5800   -5.72607
  0.5820   -5.72046
  0.5840   -5.71441
  0.5860   -5.71231
  0.5880   -5.70291
  0.5900   -5.69771
  0.5920   -5.69472
  0.5940   -5.69603
  0.5960   -5.69837
  0.5980   -5.69431
  0.6000   -5.68277
  0.6020   -5.66251
  0.6040   -5.63014
  0.6060   -5.61204
  0.6080   -5.59230
  0.6100   -5.58461
  0.6120   -5.59200
  0.6140   -5.60816
  0.6160   -5.61301
  0.6180   -5.60777
  0.6200   -5.58897
  0.6220   -5.55169
  0.6240   -5.49990
  0.6260   -5.44583
  0.6280   -5.39854
  0.6300   -5.36482
  0.6320   -5.34003
  0.6340   -5.33733
  0.6360   -5.32425
  0.6380   -5.30675
  0.6400   -5.28765
  0.6420   -5.27440
  0.6440   -5.25392
  0.6460   -5.22808
  0.6480   -5.18939
  0.6500   -5.14516
  0.6520   -5.09833
  0.6540   -5.05152
  0.6560   -5.03436
  0.6580   -5.03912
  0.6600   -5.05917
  0.6620   -5.07971
  0.6640   -5.08512
  0.6660   -5.05650
  0.6680   -5.00889
  0.6700   -4.94099
  0.6720   -4.86496
  0.6740   -4.80373
  0.6760   -4.77287
  0.6780   -4.76388
  0.6800   -4.77179
  0.6820   -4.78072
  0.6840   -4.78277
  0.6860   -4.76859
  0.6880   -4.76538
  0.6900   -4.76341
  0.6920   -4.76514
  0.6940   -4.75157
  0.6960   -4.68693
  0.6980   -4.56409
  0.7000   -4.40305
  0.7020   -4.24158
  0.7040   -4.14494
  0.7060   -4.13626
  0.7080   -4.21274
  0.7100   -4.29200
  0.7120   -4.29798
  0.7140   -4.20612
  0.7160   -4.05032
  0.7180   -3.91380
  0.7200   -3.83594
  0.7220   -3.82046
  0.7240   -3.83539
  0.7260   -3.84359
  0.7280   -3.82215
  0.7300   -3.76867
  0.7320   -3.69504
  0.7340   -3.60944
  0.7360   -3.53040
  0.7380   -3.46172
  0.7400   -3.39430
  0.7420   -3.33057
  0.7440   -3.27434
  0.7460   -3.22759
  0.7480   -3.18539
  0.7500   -3.13816
  0.7520   -3.09093
  0.7540   -3.04088
  0.7560   -2.99121
  0.7580   -2.94022
  0.7600   -2.88941
  0.7620   -2.82645
  0.7640   -2.74193
  0.7660   -2.64925
  0.7680   -2.53873
  0.7700   -2.42157
  0.7720   -2.30638
  0.7740   -2.19719
  0.7760   -2.12079
  0.7780   -2.06734
  0.7800   -2.02885
  0.7820   -1.99554
  0.7840   -1.96520
  0.7860   -1.92948
  0.7880   -1.86728
  0.7900   -1.79754
  0.7920   -1.70900
  0.7940   -1.62826
  0.7960   -1.54686
  0.7980   -1.46169
  0.8000   -1.37643
  0.8020   -1.29168
  0.8040   -1.21304
  0.8060   -1.14185
  0.8080   -1.07364
  0.8100   -1.01708
  0.8120   -0.95770
  0.8140   -0.89877
  0.8160   -0.83333
  0.8180   -0.77651
  0.8200   -0.72714
  0.8220   -0.68637
  0.8240   -0.65311
  0.8260   -0.61949
  0.8280   -0.59178
  0.8300   -0.55088
  0.8320   -0.50771
  0.8340   -0.45840
  0.8360   -0.40821
  0.8380   -0.35871
  0.8400   -0.31999
  0.8420   -0.28749
  0.8440   -0.26746
  0.8460   -0.25054
  0.8480   -0.22512
  0.8500   -0.18924
  0.8520   -0.15952
  0.8540   -0.12337
  0.8560   -0.09201
  0.8580   -0.06711
  0.8600   -0.05148
  0.8620   -0.04052
  0.8640   -0.02938
  0.8660   -0.01872
  0.8680   -0.01703
  0.8700   -0.00628
  0.8720    0.00350
  0.8740    0.01367
  0.8760    0.01570
  0.8780    0.02545
  0.8800    0.01612
  0.8820   -0.00015
  0.8840   -0.01947
  0.8860   -0.03502
  0.8880   -0.04831
  0.8900   -0.05253
  0.8920   -0.05813
  0.8940   -0.05592
  0.8960   -0.05468
  0.8980   -0.04446
  0.9000   -0.02993
  0.9020   -0.00766
  0.9040    0.00378
  0.9060   -0.00145
  0.9080   -0.00610
  0.9100   -0.02135
  0.9120   -0.04981
  0.9140   -0.07368
  0.9160   -0.09605
  0.9180   -0.10567
  0.9200   -0.09627
  0.9220   -0.08014
  0.9240   -0.04567
  0.9260   -0.01354
  0.9280    0.00746
  0.9300    0.01565
  0.9320    0.00782
  0.9340   -0.01038
  0.9360   -0.04616
  0.9380   -0.08059
  0.9400   -0.11389
  0.9420   -0.14225
  0.9440   -0.15274
  0.9460   -0.15138
  0.9480   -0.13347
  0.9500   -0.09862
  0.9520   -0.05656
  0.9540   -0.00901
  0.9560    0.03546
  0.9580    0.07836
  0.9600    0.11094
  0.9620    0.13588
  0.9640    0.14981
  0.9660    0.15281
  0.9680    0.13371
  0.9700    0.08899
  0.9720    0.03328
  0.9740   -0.03154
  0.9760   -0.08842
  0.9780   -0.13045
  0.9800   -0.14036
  0.9820   -0.12301
  0.9840   -0.07773
  0.9860   -0.01882
  0.9880    0.04547
  0.9900    0.11127
  0.9920    0.16933
  0.9940    0.22175
  0.9960    0.24957
  0.9980    0.24213
  1.0000    0.20928
