# z (nm)   (kJ/mol)
  0.2680  300.92408
  0.2700  292.06826
  0.2720  286.60357
  0.2740  281.67267
  0.2760  276.80770
  0.2780  271.83563
  0.2800  266.88038
  0.2820  261.87700
  0.2840  256.80981
  0.2860  251.63199
  0.2880  246.32265
  0.2900  240.87862
  0.2920  235.28771
  0.2940  229.54069
  0.2960  223.63450
  0.2980  217.57030
  0.3000  211.35049
  0.3020  204.97701
  0.3040  198.46120
  0.3060  191.82063
  0.3080  185.06950
  0.3100  178.23105
  0.3120  171.34220
  0.3140  164.43192
  0.3160  157.53550
  0.3180  150.69705
  0.3200  143.95625
  0.3220  137.34359
  0.3240  130.89416
  0.3260  124.62981
  0.3280  118.58028
  0.3300  112.75373
  0.3320  107.16149
  0.3340  101.81367
  0.3360   96.70074
  0.3380   91.82952
  0.3400   87.18419
  0.3420   82.75609
  0.3440   78.52250
  0.3460   74.46558
  0.3480   70.56610
  0.3500   66.80061
  0.3520   63.15918
  0.3540   59.63698
  0.3560   56.23476
  0.3580   52.95049
  0.3600   49.79072
  0.3620   46.76952
  0.3640   43.88565
  0.3660   41.14465
  0.3680   38.54418
  0.3700   36.08690
  0.3720   33.77232
  0.3740   31.59150
  0.3760   29.54947
  0.3780   27.63200
  0.3800   25.82572
  0.3820   24.13175
  0.3840   22.54015
  0.3860   21.03812
  0.3880   19.61916
  0.3900   18.27509
  0.3920   16.99805
  0.3940   15.78971
  0.3960   14.64954
  0.3980   13.57614
  0.4000   12.57254
  0.4020   11.64062
  0.4040   10.78048
  0.4060    9.98654
  0.4080    9.26523
  0.4100    8.60963
  0.4120    8.01484
  0.4140    7.47546
  0.4160    6.98270
  0.4180    6.52962
  0.4200    6.11853
  0.4220    5.74166
  0.4240    5.39429
  0.4260    5.07603
  0.4280    4.78808
  0.4300    4.52270
  0.4320    4.27923
  0.4340    4.06108
  0.4360    3.86403
  0.4380    3.68767
  0.4400    3.52746
  0.4420    3.38909
  0.4440    3.26647
  0.4460    3.15604
  0.4480    3.06025
  0.4500    2.97842
  0.4520    2.89812
  0.4540    2.83436
  0.4560    2.77154
  0.4580    2.72224
  0.4600    2.67755
  0.4620    2.63983
  0.4640    2.61487
  0.4660    2.59191
  0.4680    2.58419
  0.4700    2.57542
  0.4720    2.57530
  0.4740    2.58082
  0.4760    2.60041
  0.4780    2.62520
  0.4800    2.65749
  0.4820    2.69654
  0.4840    2.73536
  0.4860    2.78055
  0.4880    2.82428
  0.4900    2.87040
  0.4920    2.91069
  0.4940    2.94649
  0.4960    2.98112
  0.4980    3.01134
  0.5000    3.03826
  0.5020    3.06584
  0.5040    3.09420
  0.5060    3.11905
  0.5080    3.14228
  0.5100    3.16855
  0.5120    3.19466
  0.5140    3.22439
  0.5160    3.25215
  0.5180    3.28981
  0.5200    3.32879
  0.5220    3.37035
  0.5240    3.41311
  0.5260    3.45988
  0.5280    3.50764
  0.5300    3.55190
  0.5320    3.60145
  0.5340    3.64661
  0.5360    3.69257
  0.5380    3.73291
  0.5400    3.76531
  0.5420    3.80665
  0.5440    3.83503
  0.5460    3.86681
  0.5480    3.89181
  0.5500    3.91545
  0.5520    3.93815
  0.5540    3.95520
  0.5560    3.96922
  0.5580    3.98067
  0.5600    3.98734
  0.5620    3.99638
  0.5640    4.00215
  0.5660    4.00040
  0.5680    3.99642
  0.5700    3.99401
  0.5720    3.98881
  0.5740    3.98032
  0.5760    3.97238
  0.5780    3.96648
  0.5800    3.95868
  0.5820    3.94979
  0.5840    3.94263
  0.5860    3.93403
  0.5880    3.92019
  0.5900    3.90374
  0.5920    3.89180
  0.5940    3.87515
  0.5960    3.85207
  0.5980    3.82373
  0.6000    3.79665
  0.6020    3.76689
  0.6040    3.73253
  0.6060    3.69499
  0.6080    3.65832
  0.6100    3.61453
  0.6120    3.57101
  0.6140    3.52605
  0.6160    3.47793
  0.6180    3.42774
  0.6200    3.37488
  0.6220    3.32283
  0.6240    3.26526
  0.6260    3.20781
  0.6280    3.15436
  0.6300    3.09526
  0.6320    3.04333
  0.6340    2.97645
  0.6360    2.90655
  0.6380    2.83047
  0.6400    2.76262
  0.6420    2.68750
  0.6440    2.60703
  0.6460    2.52684
  0.6480    2.44396
  0.6500    2.36081
  0.6520    2.27073
  0.6540    2.17968
  0.6560    2.08363
  0.6580    1.99075
  0.6600    1.89303
  0.6620    1.78954
  0.6640    1.68441
  0.6660    1.57887
  0.6680    1.47193
  0.6700    1.36064
  0.6720    1.24181
  0.6740    1.12422
  0.6760    1.00135
  0.6780    0.88082
  0.6800    0.75521
  0.6820    0.63231
  0.6840    0.51213
  0.6860    0.38786
  0.6880    0.26489
  0.6900    0.15039
  0.6920    0.03810
  0.6940   -0.07245
  0.6960   -0.17482
  0.6980   -0.27685
  0.7000   -0.37179
  0.7020   -0.46662
  0.7040   -0.55436
  0.7060   -0.64034
  0.7080   -0.72201
  0.7100   -0.79701
  0.7120   -0.87435
  0.7140   -0.94561
  0.7160   -1.01226
  0.7180   -1.07518
  0.7200   -1.13227
  0.7220   -1.18492
  0.7240   -1.23233
  0.7260   -1.27688
  0.7280   -1.31884
  0.7300   -1.35181
  0.7320   -1.37948
  0.7340   -1.40228
  0.7360   -1.42085
  0.7380   -1.43410
  0.7400   -1.43938
  0.7420   -1.44166
  0.7440   -1.44539
  0.7460   -1.44668
  0.7480   -1.44174
  0.7500   -1.43104
  0.7520   -1.42198
  0.7540   -1.41229
  0.7560   -1.39589
  0.7580   -1.38443
  0.7600   -1.37336
  0.7620   -1.35209
  0.7640   -1.33415
  0.7660   -1.31271
  0.7680   -1.29139
  0.7700   -1.26675
  0.7720   -1.24053
  0.7740   -1.21060
  0.7760   -1.18122
  0.7780   -1.15680
  0.7800   -1.13026
  0.7820   -1.09917
  0.7840   -1.07143
  0.7860   -1.04081
  0.7880   -1.01124
  0.7900   -0.97565
  0.7920   -0.94136
  0.7940   -0.90639
  0.7960   -0.86887
  0.7980   -0.83203
  0.8000   -0.79270
  0.8020   -0.75175
  0.8040   -0.71581
  0.8060   -0.67385
  0.8080   -0.62833
  0.8100   -0.58387
  0.8120   -0.53980
  0.8140   -0.49299
  0.8160   -0.44791
  0.8180   -0.40417
  0.8200   -0.35998
  0.8220   -0.31443
  0.8240   -0.27353
  0.8260   -0.23568
  0.8280   -0.20742
  0.8300   -0.17304
  0.8320   -0.13735
  0.8340   -0.10387
  0.8360   -0.07286
  0.8380   -0.04096
  0.8400   -0.00825
  0.8420    0.03028
  0.8440    0.06415
  0.8460    0.09436
  0.8480    0.12687
  0.8500    0.15987
  0.8520    0.19373
  0.8540    0.21983
  0.8560    0.24422
  0.8580    0.27454
  0.8600    0.30034
  0.8620    0.33162
  0.8640    0.35958
  0.8660    0.38672
  0.8680    0.40780
  0.8700    0.43348
  0.8720    0.45551
  0.8740    0.47614
  0.8760    0.49594
  0.8780    0.51635
  0.8800    0.54193
  0.8820    0.56127
  0.8840    0.57632
  0.8860    0.59136
  0.8880    0.60684
  0.8900    0.62250
  0.8920    0.63697
  0.8940    0.65030
  0.8960    0.66318
  0.8980    0.67526
  0.9000    0.68449
  0.9020    0.68674
  0.9040    0.69282
  0.9060    0.70027
  0.9080    0.70697
  0.9100    0.71114
  0.9120    0.71599
  0.9140    0.71827
  0.9160    0.71586
  0.9180    0.71440
  0.9200    0.71487
  0.9220    0.70921
  0.9240    0.70037
  0.9260    0.69373
  0.9280    0.68243
  0.9300    0.66638
  0.9320    0.65109
  0.9340    0.63555
  0.9360    0.62006
  0.9380    0.60372
  0.9400    0.59083
  0.9420    0.57192
  0.9440    0.55651
  0.9460    0.54102
  0.9480    0.52672
  0.9500    0.51086
  0.9520    0.49572
  0.9540    0.47929
  0.9560    0.45948
  0.9580    0.44478
  0.9600    0.42655
  0.9620    0.40404
  0.9640    0.38004
  0.9660    0.35594
  0.9680    0.32616
  0.9700    0.29758
  0.9720    0.26995
  0.9740    0.24441
  0.9760    0.22005
  0.9780    0.19771
  0.9800    0.16719
  0.9820    0.14286
  0.9840    0.12177
  0.9860    0.10093
  0.9880    0.07942
  0.9900    0.06011
  0.9920    0.03174
  0.9940    0.01064
  0.9960   -0.01408
  0.9980   -0.04043
  1.0000   -0.06144
  1.0020   -0.07707
  1.0040   -0.09840
  1.0060   -0.11614
  1.0080   -0.13631
  1.0100   -0.15559
  1.0120   -0.16962
  1.0140   -0.18079
  1.0160   -0.19221
  1.0180   -0.20145
  1.0200   -0.20660
  1.0220   -0.21125
  1.0240   -0.21779
  1.0260   -0.22579
  1.0280   -0.23588
  1.0300   -0.24509
  1.0320   -0.25218
  1.0340   -0.25978
  1.0360   -0.26628
  1.0380   -0.27223
  1.0400   -0.27839
  1.0420   -0.28573
  1.0440   -0.28583
  1.0460   -0.29262
  1.0480   -0.29183
  1.0500   -0.29030
  1.0520   -0.29230
  1.0540   -0.29289
  1.0560   -0.29205
  1.0580   -0.28974
  1.0600   -0.28837
  1.0620   -0.28667
  1.0640   -0.28170
  1.0660   -0.28606
  1.0680   -0.29089
  1.0700   -0.28708
  1.0720   -0.28875
  1.0740   -0.29023
  1.0760   -0.28641
  1.0780   -0.28662
  1.0800   -0.28645
  1.0820   -0.28289
  1.0840   -0.28046
  1.0860   -0.27513
  1.0880   -0.27623
  1.0900   -0.27662
  1.0920   -0.27104
  1.0940   -0.26765
  1.0960   -0.26670
  1.0980   -0.26350
  1.1000   -0.25935
  1.1020   -0.26041
  1.1040   -0.25918
  1.1060   -0.26156
  1.1080   -0.26303
  1.1100   -0.26017
  1.1120   -0.26170
  1.1140   -0.25738
  1.1160   -0.25609
  1.1180   -0.25337
  1.1200   -0.24831
  1.1220   -0.24571
  1.1240   -0.23896
  1.1260   -0.22726
  1.1280   -0.21894
  1.1300   -0.21198
  1.1320   -0.20198
  1.1340   -0.19503
  1.1360   -0.18585
  1.1380   -0.17790
  1.1400   -0.16648
  1.1420   -0.15910
  1.1440   -0.15820
  1.1460   -0.15589
  1.1480   -0.15645
  1.1500   -0.15704
  1.1520   -0.15856
  1.1540   -0.15696
  1.1560   -0.16549
  1.1580   -0.16609
  1.1600   -0.16451
  1.1620   -0.16528
  1.1640   -0.16657
  1.1660   -0.16989
  1.1680   -0.17105
  1.1700   -0.17330
  1.1720   -0.17280
  1.1740   -0.17534
  1.1760   -0.17454
  1.1780   -0.16938
  1.1800   -0.17096
  1.1820   -0.17005
  1.1840   -0.16522
  1.1860   -0.15755
  1.1880   -0.15396
  1.1900   -0.14789
  1.1920   -0.14473
  1.1940   -0.13996
  1.1960   -0.13929
  1.1980   -0.13728
  1.2000   -0.13266
