# z (nm)   (kJ/mol)
  0.2800  309.21252
  0.2820  305.59813
  0.2840  301.14867
  0.2860  296.34827
  0.2880  291.71138
  0.2900  287.09068
  0.2920  282.34449
  0.2940  277.40096
  0.2960  272.48803
  0.2980  267.44122
  0.3000  262.24060
  0.3020  256.87409
  0.3040  251.31332
  0.3060  245.54665
  0.3080  239.57184
  0.3100  233.37593
  0.3120  226.95703
  0.3140  220.31665
  0.3160  213.44151
  0.3180  206.36648
  0.3200  199.08920
  0.3220  191.63207
  0.3240  184.02421
  0.3260  176.30389
  0.3280  168.50623
  0.3300  160.68347
  0.3320  152.89064
  0.3340  145.19120
  0.3360  137.64810
  0.3380  130.31362
  0.3400  123.21782
  0.3420  116.37217
  0.3440  109.80629
  0.3460  103.52807
  0.3480   97.53185
  0.3500   91.80895
  0.3520   86.35665
  0.3540   81.16072
  0.3560   76.20639
  0.3580   71.49038
  0.3600   67.00862
  0.3620   62.77101
  0.3640   58.79778
  0.3660   55.12518
  0.3680   51.74749
  0.3700   48.63609
  0.3720   45.70002
  0.3740   42.84279
  0.3760   40.00825
  0.3780   37.20320
  0.3800   34.46607
  0.3820   31.87134
  0.3840   29.45526
  0.3860   27.23166
  0.3880   25.17516
  0.3900   23.26402
  0.3920   21.46177
  0.3940   19.75262
  0.3960   18.12683
  0.3980   16.58578
  0.4000   15.14815
  0.4020   13.79755
  0.4040   12.54954
  0.4060   11.40130
  0.4080   10.35260
  0.4100    9.39968
  0.4120    8.53394
  0.4140    7.75653
  0.4160    7.05601
  0.4180    6.42689
  0.4200    5.86558
  0.4220    5.36767
  0.4240    4.92435
  0.4260    4.53256
  0.4280    4.18370
  0.4300    3.87294
  0.4320    3.59799
  0.4340    3.34968
  0.4360    3.13362
  0.4380    2.93427
  0.4400    2.76218
  0.4420    2.60179
  0.4440    2.45589
  0.4460    2.32830
  0.4480    2.20794
  0.4500    2.09959
  0.4520    2.00371
  0.4540    1.91604
  0.4560    1.82572
  0.4580    1.74450
  0.4600    1.67396
  0.4620    1.61007
  0.4640    1.55493
  0.4660    1.51301
  0.4680    1.48278
  0.4700    1.46658
  0.4720    1.44903
  0.4740    1.44500
  0.4760    1.44148
  0.4780    1.44130
  0.4800    1.44275
  0.4820    1.44257
  0.4840    1.43482
  0.4860    1.43227
  0.4880    1.41662
  0.4900    1.40438
  0.4920    1.38497
  0.4940    1.37805
  0.4960    1.37760
  0.4980    1.37177
  0.5000    1.38272
  0.5020    1.39983
  0.5040    1.42332
  0.5060    1.44673
  0.5080    1.47082
  0.5100    1.49434
  0.5120    1.51665
  0.5140    1.53838
  0.5160    1.56004
  0.5180    1.58309
  0.5200    1.61155
  0.5220    1.63591
  0.5240    1.66244
  0.5260    1.70086
  0.5280    1.73156
  0.5300    1.76324
  0.5320    1.79352
  0.5340    1.82528
  0.5360    1.85995
  0.5380    1.89358
  0.5400    1.92529
  0.5420    1.96463
  0.5440    2.00560
  0.5460    2.04336
  0.5480    2.08604
  0.5500    2.14017
  0.5520    2.19109
  0.5540    2.24568
  0.5560    2.30467
  0.5580    2.37476
  0.5600    2.43549
  0.5620    2.49816
  0.5640    2.56701
  0.5660    2.63955
  0.5680    2.70651
  0.5700    2.76565
  0.5720    2.82153
  0.5740    2.87375
  0.5760    2.92158
  0.5780    2.96547
  0.5800    3.00022
  0.5820    3.03217
  0.5840    3.05847
  0.5860    3.08568
  0.5880    3.11005
  0.5900    3.12882
  0.5920    3.15145
  0.5940    3.17400
  0.5960    3.18579
  0.5980    3.19740
  0.6000    3.21298
  0.6020    3.22419
  0.6040    3.23207
  0.6060    3.24143
  0.6080    3.24675
  0.6100    3.25595
  0.6120    3.25366
  0.6140    3.26125
  0.6160    3.25515
  0.6180    3.24404
  0.6200    3.22749
  0.6220    3.20783
  0.6240    3.17714
  0.6260    3.13557
  0.6280    3.08816
  0.6300    3.03079
  0.6320    2.97088
  0.6340    2.90331
  0.6360    2.83707
  0.6380    2.76047
  0.6400    2.68755
  0.6420    2.61271
  0.6440    2.54508
  0.6460    2.47245
  0.6480    2.38940
  0.6500    2.30272
  0.6520    2.21013
  0.6540    2.11823
  0.6560    2.02273
  0.6580    1.93397
  0.6600    1.83914
  0.6620    1.73477
  0.6640    1.63551
  0.6660    1.53510
  0.6680    1.43396
  0.6700    1.33055
  0.6720    1.22544
  0.6740    1.11995
  0.6760    1.00879
  0.6780    0.89334
  0.6800    0.77910
  0.6820    0.65813
  0.6840    0.54316
  0.6860    0.42195
  0.6880    0.30496
  0.6900    0.20243
  0.6920    0.09739
  0.6940   -0.00308
  0.6960   -0.09639
  0.6980   -0.18685
  0.7000   -0.26749
  0.7020   -0.34298
  0.7040   -0.41133
  0.7060   -0.47959
  0.7080   -0.54786
  0.7100   -0.61509
  0.7120   -0.68204
  0.7140   -0.74773
  0.7160   -0.81463
  0.7180   -0.88757
  0.7200   -0.95908
  0.7220   -1.02728
  0.7240   -1.09476
  0.7260   -1.16151
  0.7280   -1.21960
  0.7300   -1.26755
  0.7320   -1.31595
  0.7340   -1.35092
  0.7360   -1.38594
  0.7380   -1.41094
  0.7400   -1.42495
  0.7420   -1.43996
  0.7440   -1.45048
  0.7460   -1.45758
  0.7480   -1.46528
  0.7500   -1.47225
  0.7520   -1.47490
  0.7540   -1.48469
  0.7560   -1.49493
  0.7580   -1.50306
  0.7600   -1.51352
  0.7620   -1.52406
  0.7640   -1.53063
  0.7660   -1.53333
  0.7680   -1.53448
  0.7700   -1.53348
  0.7720   -1.52802
  0.7740   -1.51899
  0.7760   -1.50860
  0.7780   -1.50032
  0.7800   -1.48690
  0.7820   -1.46784
  0.7840   -1.45652
  0.7860   -1.43893
  0.7880   -1.42144
  0.7900   -1.40713
  0.7920   -1.38956
  0.7940   -1.36889
  0.7960   -1.35235
  0.7980   -1.33646
  0.8000   -1.31755
  0.8020   -1.29270
  0.8040   -1.27735
  0.8060   -1.25365
  0.8080   -1.23460
  0.8100   -1.20822
  0.8120   -1.18684
  0.8140   -1.16189
  0.8160   -1.13658
  0.8180   -1.11068
  0.8200   -1.07963
  0.8220   -1.04659
  0.8240   -1.02001
  0.8260   -0.99945
  0.8280   -0.97907
  0.8300   -0.95724
  0.8320   -0.93227
  0.8340   -0.90712
  0.8360   -0.87978
  0.8380   -0.85442
  0.8400   -0.82400
  0.8420   -0.79746
  0.8440   -0.76481
  0.8460   -0.73109
  0.8480   -0.69548
  0.8500   -0.66567
  0.8520   -0.63042
  0.8540   -0.59513
  0.8560   -0.55901
  0.8580   -0.52683
  0.8600   -0.49033
  0.8620   -0.45562
  0.8640   -0.42141
  0.8660   -0.38661
  0.8680   -0.35423
  0.8700   -0.31418
  0.8720   -0.27451
  0.8740   -0.23780
  0.8760   -0.19937
  0.8780   -0.16170
  0.8800   -0.12898
  0.8820   -0.09979
  0.8840   -0.07034
  0.8860   -0.05086
  0.8880   -0.02969
  0.8900   -0.01321
  0.8920    0.00194
  0.8940    0.01113
  0.8960    0.01910
  0.8980    0.02864
  0.9000    0.03877
  0.9020    0.05317
  0.9040    0.06545
  0.9060    0.08583
  0.9080    0.10880
  0.9100    0.13975
  0.9120    0.16997
  0.9140    0.19984
  0.9160    0.22757
  0.9180    0.25006
  0.9200    0.26527
  0.9220    0.27854
  0.9240    0.28877
  0.9260    0.29508
  0.9280    0.29593
  0.9300    0.28552
  0.9320    0.27178
  0.9340    0.25872
  0.9360    0.25378
  0.9380    0.24611
  0.9400    0.23858
  0.9420    0.23638
  0.9440    0.23293
  0.9460    0.23295
  0.9480    0.23391
  0.9500    0.23851
  0.9520    0.23761
  0.9540    0.23564
  0.9560    0.23856
  0.9580    0.24088
  0.9600    0.23788
  0.9620    0.23757
  0.9640    0.23036
  0.9660    0.22247
  0.9680    0.21493
  0.9700    0.20949
  0.9720    0.20043
  0.9740    0.19361
  0.9760    0.18780
  0.9780    0.17863
  0.9800    0.16871
  0.9820    0.16010
  0.9840    0.14470
  0.9860    0.13962
  0.9880    0.13570
  0.9900    0.12374
  0.9920    0.11125
  0.9940    0.09473
  0.9960    0.07606
  0.9980    0.05762
  1.0000    0.04054
  1.0020    0.02127
  1.0040    0.00866
  1.0060   -0.01015
  1.0080   -0.02895
  1.0100   -0.04063
  1.0120   -0.05298
  1.0140   -0.06710
  1.0160   -0.08271
  1.0180   -0.09404
  1.0200   -0.10853
  1.0220   -0.12387
  1.0240   -0.13557
  1.0260   -0.14865
  1.0280   -0.16137
  1.0300   -0.17249
  1.0320   -0.18058
  1.0340   -0.18744
  1.0360   -0.19417
  1.0380   -0.19776
  1.0400   -0.20342
  1.0420   -0.20608
  1.0440   -0.20650
  1.0460   -0.20632
  1.0480   -0.20565
  1.0500   -0.20915
  1.0520   -0.21386
  1.0540   -0.21391
  1.0560   -0.21587
  1.0580   -0.22372
  1.0600   -0.23022
  1.0620   -0.23160
  1.0640   -0.24142
  1.0660   -0.24671
  1.0680   -0.24364
  1.0700   -0.24634
  1.0720   -0.24765
  1.0740   -0.24975
  1.0760   -0.25603
  1.0780   -0.25247
  1.0800   -0.25934
  1.0820   -0.26180
  1.0840   -0.26215
  1.0860   -0.26360
  1.0880   -0.26841
  1.0900   -0.27155
  1.0920   -0.27110
  1.0940   -0.26955
  1.0960   -0.26325
  1.0980   -0.26191
  1.1000   -0.24598
  1.1020   -0.23344
  1.1040   -0.22016
  1.1060   -0.20478
  1.1080   -0.19785
  1.1100   -0.18109
  1.1120   -0.16116
  1.1140   -0.14871
  1.1160   -0.13343
  1.1180   -0.12484
  1.1200   -0.11274
  1.1220   -0.09958
  1.1240   -0.08903
  1.1260   -0.07918
  1.1280   -0.07189
  1.1300   -0.05977
  1.1320   -0.05379
  1.1340   -0.04603
  1.1360   -0.03943
  1.1380   -0.03536
  1.1400   -0.03034
  1.1420   -0.02297
  1.1440   -0.01965
  1.1460   -0.01215
  1.1480   -0.00386
  1.1500   -0.00007
  1.1520    0.00901
  1.1540    0.02043
  1.1560    0.02873
  1.1580    0.03208
  1.1600    0.04198
  1.1620    0.05179
  1.1640    0.06047
  1.1660    0.06513
  1.1680    0.06821
  1.1700    0.07279
  1.1720    0.07505
  1.1740    0.07713
  1.1760    0.07675
  1.1780    0.07850
  1.1800    0.08246
  1.1820    0.08401
  1.1840    0.08680
  1.1860    0.08858
  1.1880    0.09676
  1.1900    0.10508
  1.1920    0.11580
  1.1940    0.13175
  1.1960    0.14381
  1.1980    0.15658
  1.2000    0.16579
