# z (nm)   (kJ/mol)
  0.3080  300.53088
  0.3100  296.82622
  0.3120  293.32023
  0.3140  290.04091
  0.3160  286.55362
  0.3180  282.93495
  0.3200  279.23139
  0.3220  275.27380
  0.3240  271.04846
  0.3260  266.49922
  0.3280  261.58396
  0.3300  256.27321
  0.3320  250.53351
  0.3340  244.34286
  0.3360  237.68090
  0.3380  230.53465
  0.3400  222.91490
  0.3420  214.83474
  0.3440  206.34568
  0.3460  197.51759
  0.3480  188.45003
  0.3500  179.28128
  0.3520  170.14742
  0.3540  161.18498
  0.3560  152.49314
  0.3580  144.13310
  0.3600  136.12044
  0.3620  128.46943
  0.3640  121.20661
  0.3660  114.38405
  0.3680  108.03226
  0.3700  102.14536
  0.3720   96.64659
  0.3740   91.41613
  0.3760   86.34728
  0.3780   81.43011
  0.3800   76.73742
  0.3820   72.35181
  0.3840   68.25425
  0.3860   64.35533
  0.3880   60.54508
  0.3900   56.77430
  0.3920   53.10653
  0.3940   49.61394
  0.3960   46.36833
  0.3980   43.37395
  0.4000   40.59050
  0.4020   37.94383
  0.4040   35.37783
  0.4060   32.88042
  0.4080   30.46040
  0.4100   28.12229
  0.4120   25.87368
  0.4140   23.70543
  0.4160   21.61381
  0.4180   19.61004
  0.4200   17.69432
  0.4220   15.89014
  0.4240   14.20164
  0.4260   12.61931
  0.4280   11.13025
  0.4300    9.73868
  0.4320    8.41930
  0.4340    7.17030
  0.4360    5.98737
  0.4380    4.88147
  0.4400    3.84045
  0.4420    2.86724
  0.4440    1.94706
  0.4460    1.06240
  0.4480    0.21749
  0.4500   -0.59082
  0.4520   -1.37592
  0.4540   -2.11488
  0.4560   -2.81227
  0.4580   -3.44739
  0.4600   -4.00810
  0.4620   -4.48424
  0.4640   -4.87785
  0.4660   -5.19439
  0.4680   -5.43991
  0.4700   -5.63090
  0.4720   -5.77405
  0.4740   -5.87715
  0.4760   -5.94786
  0.4780   -5.98907
  0.4800   -6.00650
  0.4820   -6.01146
  0.4840   -5.99567
  0.4860   -5.97031
  0.4880   -5.93679
  0.4900   -5.89477
  0.4920   -5.85561
  0.4940   -5.81649
  0.4960   -5.78238
  0.4980   -5.76994
  0.5000   -5.77425
  0.5020   -5.80960
  0.5040   -5.86070
  0.5060   -5.93339
  0.5080   -6.01710
  0.5100   -6.10956
  0.5120   -6.22534
  0.5140   -6.36095
  0.5160   -6.52775
  0.5180   -6.73442
  0.5200   -6.96657
  0.5220   -7.22668
  0.5240   -7.48916
  0.5260   -7.73374
  0.5280   -7.96417
  0.5300   -8.18322
  0.5320   -8.40245
  0.5340   -8.60289
  0.5360   -8.76586
  0.5380   -8.85469
  0.5400   -8.84879
  0.5420   -8.75762
  0.5440   -8.59983
  0.5460   -8.40639
  0.5480   -8.19786
  0.5500   -7.99640
  0.5520   -7.78636
  0.5540   -7.56193
  0.5560   -7.31752
  0.5580   -7.05184
  0.5600   -6.77969
  0.5620   -6.51028
  0.5640   -6.24947
  0.5660   -6.01575
  0.5680   -5.80118
  0.5700   -5.61333
  0.5720   -5.43806
  0.5740   -5.28034
  0.5760   -5.11373
  0.5780   -4.94277
  0.5800   -4.76280
  0.5820   -4.58434
  0.5840   -4.42847
  0.5860   -4.29211
  0.5880   -4.15586
  0.5900   -4.01181
  0.5920   -3.83664
  0.5940   -3.60682
  0.5960   -3.32946
  0.5980   -3.00852
  0.6000   -2.67501
  0.6020   -2.35723
  0.6040   -2.06373
  0.6060   -1.79400
  0.6080   -1.54673
  0.6100   -1.30921
  0.6120   -1.06503
  0.6140   -0.79351
  0.6160   -0.48817
  0.6180   -0.16657
  0.6200    0.16352
  0.6220    0.49001
  0.6240    0.79814
  0.6260    1.07842
  0.6280    1.30014
  0.6300    1.48547
  0.6320    1.63053
  0.6340    1.74031
  0.6360    1.81724
  0.6380    1.87993
  0.6400    1.92213
  0.6420    1.95983
  0.6440    1.98719
  0.6460    2.00227
  0.6480    2.00943
  0.6500    2.00545
  0.6520    1.98809
  0.6540    1.94485
  0.6560    1.88518
  0.6580    1.80412
  0.6600    1.70394
  0.6620    1.59095
  0.6640    1.47147
  0.6660    1.36209
  0.6680    1.26772
  0.6700    1.19688
  0.6720    1.13864
  0.6740    1.09090
  0.6760    1.03962
  0.6780    0.98587
  0.6800    0.91530
  0.6820    0.83856
  0.6840    0.75063
  0.6860    0.66345
  0.6880    0.58180
  0.6900    0.52042
  0.6920    0.46739
  0.6940    0.42316
  0.6960    0.37997
  0.6980    0.34432
  0.7000    0.31461
  0.7020    0.27677
  0.7040    0.24967
  0.7060    0.22472
  0.7080    0.20738
  0.7100    0.18549
  0.7120    0.16456
  0.7140    0.13130
  0.7160    0.08857
  0.7180    0.03829
  0.7200   -0.02716
  0.7220   -0.09812
  0.7240   -0.17528
  0.7260   -0.24534
  0.7280   -0.31079
  0.7300   -0.36836
  0.7320   -0.42065
  0.7340   -0.46906
  0.7360   -0.51425
  0.7380   -0.56077
  0.7400   -0.60019
  0.7420   -0.64645
  0.7440   -0.68763
  0.7460   -0.73736
  0.7480   -0.77553
  0.7500   -0.81233
  0.7520   -0.84712
  0.7540   -0.87754
  0.7560   -0.90094
  0.7580   -0.91685
  0.7600   -0.93144
  0.7620   -0.93784
  0.7640   -0.94266
  0.7660   -0.94772
  0.7680   -0.95581
  0.7700   -0.96371
  0.7720   -0.97389
  0.7740   -0.98197
  0.7760   -0.98828
  0.7780   -0.98620
  0.7800   -0.98867
  0.7820   -0.98341
  0.7840   -0.97334
  0.7860   -0.95585
  0.7880   -0.93948
  0.7900   -0.91218
  0.7920   -0.88240
  0.7940   -0.84822
  0.7960   -0.81860
  0.7980   -0.78419
  0.8000   -0.74924
  0.8020   -0.71125
  0.8040   -0.67313
  0.8060   -0.64629
  0.8080   -0.62677
  0.8100   -0.61277
  0.8120   -0.60135
  0.8140   -0.59716
  0.8160   -0.59096
  0.8180   -0.58563
  0.8200   -0.56507
  0.8220   -0.54460
  0.8240   -0.51478
  0.8260   -0.48813
  0.8280   -0.45774
  0.8300   -0.42776
  0.8320   -0.40142
  0.8340   -0.38144
  0.8360   -0.36003
  0.8380   -0.34095
  0.8400   -0.32003
  0.8420   -0.29526
  0.8440   -0.26984
  0.8460   -0.25422
  0.8480   -0.23677
  0.8500   -0.20702
  0.8520   -0.18737
  0.8540   -0.17233
  0.8560   -0.15837
  0.8580   -0.14505
  0.8600   -0.13772
  0.8620   -0.13210
  0.8640   -0.13155
  0.8660   -0.13042
  0.8680   -0.13823
  0.8700   -0.13937
  0.8720   -0.13172
  0.8740   -0.11603
  0.8760   -0.09958
  0.8780   -0.08478
  0.8800   -0.07029
  0.8820   -0.05047
  0.8840   -0.03843
  0.8860   -0.02556
  0.8880   -0.02061
  0.8900   -0.01016
  0.8920   -0.00678
  0.8940   -0.00624
  0.8960   -0.00561
  0.8980   -0.00099
  0.9000    0.00022
  0.9020    0.00401
  0.9040    0.01348
  0.9060    0.02432
  0.9080    0.03433
  0.9100    0.04137
  0.9120    0.05216
  0.9140    0.06570
  0.9160    0.07920
  0.9180    0.10039
  0.9200    0.12004
  0.9220    0.14787
  0.9240    0.16189
  0.9260    0.16486
  0.9280    0.16514
  0.9300    0.15896
  0.9320    0.15048
  0.9340    0.14203
  0.9360    0.13386
  0.9380    0.13428
  0.9400    0.13086
  0.9420    0.13236
  0.9440    0.13527
  0.9460    0.14536
  0.9480    0.15120
  0.9500    0.14908
  0.9520    0.15518
  0.9540    0.15357
  0.9560    0.14473
  0.9580    0.13553
  0.9600    0.11935
  0.9620    0.10570
  0.9640    0.09489
  0.9660    0.09058
  0.9680    0.09101
  0.9700    0.09404
  0.9720    0.10551
  0.9740    0.11275
  0.9760    0.11865
  0.9780    0.11732
  0.9800    0.10677
  0.9820    0.08522
  0.9840    0.06531
  0.9860    0.04041
  0.9880    0.01872
  0.9900    0.00555
  0.9920   -0.00282
  0.9940   -0.00470
  0.9960   -0.00830
  0.9980   -0.00693
  1.0000   -0.00485
  1.0020   -0.00345
  1.0040   -0.01306
  1.0060   -0.02451
  1.0080   -0.03439
  1.0100   -0.04208
  1.0120   -0.04754
  1.0140   -0.04602
  1.0160   -0.04943
  1.0180   -0.05227
  1.0200   -0.05273
  1.0220   -0.05682
  1.0240   -0.06337
  1.0260   -0.07157
  1.0280   -0.07864
  1.0300   -0.08727
  1.0320   -0.09956
  1.0340   -0.10792
  1.0360   -0.11440
  1.0380   -0.11498
  1.0400   -0.11249
  1.0420   -0.11044
  1.0440   -0.11213
  1.0460   -0.10839
  1.0480   -0.11661
  1.0500   -0.12420
  1.0520   -0.13017
  1.0540   -0.13892
  1.0560   -0.14374
  1.0580   -0.14279
  1.0600   -0.13343
  1.0620   -0.11449
  1.0640   -0.08624
  1.0660   -0.05621
  1.0680   -0.02887
  1.0700   -0.00353
  1.0720    0.01080
  1.0740    0.02274
  1.0760    0.01707
  1.0780    0.00820
  1.0800   -0.01267
  1.0820   -0.03702
  1.0840   -0.06233
  1.0860   -0.08966
  1.0880   -0.11059
  1.0900   -0.12270
  1.0920   -0.13268
  1.0940   -0.13238
  1.0960   -0.12121
  1.0980   -0.09171
  1.1000   -0.04769
  1.1020    0.01249
  1.1040    0.08050
  1.1060    0.15839
  1.1080    0.21265
  1.1100    0.23739
  1.1120    0.21127
  1.1140    0.13329
  1.1160    0.00892
  1.1180   -0.13784
  1.1200   -0.27687
  1.1220   -0.35607
  1.1240   -0.36372
  1.1260   -0.30084
  1.1280   -0.17135
  1.1300   -0.02310
  1.1320    0.11057
  1.1340    0.19647
  1.1360    0.21834
  1.1380    0.18987
  1.1400    0.10538
  1.1420   -0.00097
  1.1440   -0.10036
  1.1460   -0.19029
  1.1480   -0.24974
  1.1500   -0.27225
  1.1520   -0.26078
  1.1540   -0.22956
  1.1560   -0.17802
  1.1580   -0.12024
  1.1600   -0.05988
  1.1620    0.00177
  1.1640    0.05207
  1.1660    0.08939
  1.1680    0.10388
  1.1700    0.10716
  1.1720    0.09251
  1.1740    0.07002
  1.1760    0.03455
  1.1780   -0.00687
  1.1800   -0.04289
  1.1820   -0.07053
  1.1840   -0.08681
  1.1860   -0.09591
  1.1880   -0.08013
  1.1900   -0.05406
  1.1920   -0.01568
  1.1940    0.02587
  1.1960    0.07343
  1.1980    0.11704
  1.2000    0.15438
