# z (nm)   (kJ/mol)
  0.3100  311.31633
  0.3120  304.60075
  0.3140  300.11828
  0.3160  295.68164
  0.3180  291.63726
  0.3200  287.54729
  0.3220  283.37265
  0.3240  279.01181
  0.3260  274.43523
  0.3280  269.61782
  0.3300  264.50482
  0.3320  259.06444
  0.3340  253.27336
  0.3360  247.10795
  0.3380  240.54911
  0.3400  233.58825
  0.3420  226.21264
  0.3440  218.42246
  0.3460  210.22776
  0.3480  201.67312
  0.3500  192.80853
  0.3520  183.72421
  0.3540  174.53724
  0.3560  165.38142
  0.3580  156.38158
  0.3600  147.61259
  0.3620  139.11090
  0.3640  130.89406
  0.3660  122.99120
  0.3680  115.44676
  0.3700  108.31169
  0.3720  101.62422
  0.3740   95.39787
  0.3760   89.61878
  0.3780   84.25421
  0.3800   79.24014
  0.3820   74.53768
  0.3840   70.07647
  0.3860   65.84180
  0.3880   61.80003
  0.3900   57.93296
  0.3920   54.22019
  0.3940   50.65028
  0.3960   47.22433
  0.3980   43.93936
  0.4000   40.80887
  0.4020   37.84718
  0.4040   35.06416
  0.4060   32.46189
  0.4080   30.03657
  0.4100   27.77268
  0.4120   25.65375
  0.4140   23.65708
  0.4160   21.77735
  0.4180   20.00792
  0.4200   18.35641
  0.4220   16.81176
  0.4240   15.39732
  0.4260   14.10665
  0.4280   12.94015
  0.4300   11.87372
  0.4320   10.90117
  0.4340   10.00182
  0.4360    9.15980
  0.4380    8.36163
  0.4400    7.60874
  0.4420    6.90657
  0.4440    6.25216
  0.4460    5.65470
  0.4480    5.12488
  0.4500    4.64846
  0.4520    4.21795
  0.4540    3.84571
  0.4560    3.51206
  0.4580    3.21465
  0.4600    2.94219
  0.4620    2.68825
  0.4640    2.45742
  0.4660    2.26360
  0.4680    2.09766
  0.4700    1.96690
  0.4720    1.86261
  0.4740    1.77845
  0.4760    1.69904
  0.4780    1.61750
  0.4800    1.52767
  0.4820    1.42438
  0.4840    1.31919
  0.4860    1.21719
  0.4880    1.11549
  0.4900    1.01992
  0.4920    0.94021
  0.4940    0.84998
  0.4960    0.76544
  0.4980    0.66469
  0.5000    0.54010
  0.5020    0.39827
  0.5040    0.22921
  0.5060    0.04088
  0.5080   -0.15549
  0.5100   -0.34288
  0.5120   -0.50017
  0.5140   -0.62335
  0.5160   -0.71690
  0.5180   -0.78796
  0.5200   -0.85916
  0.5220   -0.93712
  0.5240   -1.03713
  0.5260   -1.16067
  0.5280   -1.29706
  0.5300   -1.42014
  0.5320   -1.51555
  0.5340   -1.57825
  0.5360   -1.59241
  0.5380   -1.56118
  0.5400   -1.51194
  0.5420   -1.44110
  0.5440   -1.37253
  0.5460   -1.29382
  0.5480   -1.21415
  0.5500   -1.14036
  0.5520   -1.05542
  0.5540   -0.95756
  0.5560   -0.83562
  0.5580   -0.70081
  0.5600   -0.55068
  0.5620   -0.39859
  0.5640   -0.24051
  0.5660   -0.08309
  0.5680    0.07703
  0.5700    0.23753
  0.5720    0.41022
  0.5740    0.56645
  0.5760    0.72674
  0.5780    0.88254
  0.5800    1.03668
  0.5820    1.18579
  0.5840    1.32623
  0.5860    1.45440
  0.5880    1.57472
  0.5900    1.68582
  0.5920    1.78426
  0.5940    1.87982
  0.5960    1.96885
  0.5980    2.06444
  0.6000    2.15215
  0.6020    2.25091
  0.6040    2.35309
  0.6060    2.45721
  0.6080    2.55604
  0.6100    2.65467
  0.6120    2.74609
  0.6140    2.81542
  0.6160    2.87190
  0.6180    2.91187
  0.6200    2.94214
  0.6220    2.96581
  0.6240    2.98232
  0.6260    2.99592
  0.6280    3.01301
  0.6300    3.03570
  0.6320    3.06007
  0.6340    3.08961
  0.6360    3.11603
  0.6380    3.13151
  0.6400    3.14652
  0.6420    3.16301
  0.6440    3.17790
  0.6460    3.18952
  0.6480    3.19567
  0.6500    3.19424
  0.6520    3.17063
  0.6540    3.14263
  0.6560    3.10334
  0.6580    3.06603
  0.6600    3.03058
  0.6620    3.00036
  0.6640    2.97951
  0.6660    2.96109
  0.6680    2.94625
  0.6700    2.92857
  0.6720    2.90373
  0.6740    2.86958
  0.6760    2.82107
  0.6780    2.75981
  0.6800    2.67240
  0.6820    2.56783
  0.6840    2.44877
  0.6860    2.31267
  0.6880    2.17732
  0.6900    2.04770
  0.6920    1.91872
  0.6940    1.80938
  0.6960    1.71038
  0.6980    1.62062
  0.7000    1.53992
  0.7020    1.45244
  0.7040    1.35649
  0.7060    1.24852
  0.7080    1.13211
  0.7100    1.00692
  0.7120    0.86850
  0.7140    0.72796
  0.7160    0.58915
  0.7180    0.45734
  0.7200    0.34054
  0.7220    0.23737
  0.7240    0.15229
  0.7260    0.07750
  0.7280    0.00636
  0.7300   -0.05974
  0.7320   -0.12088
  0.7340   -0.18300
  0.7360   -0.25297
  0.7380   -0.33278
  0.7400   -0.41892
  0.7420   -0.50458
  0.7440   -0.59979
  0.7460   -0.68681
  0.7480   -0.77504
  0.7500   -0.85974
  0.7520   -0.93622
  0.7540   -0.99443
  0.7560   -1.04110
  0.7580   -1.07138
  0.7600   -1.09721
  0.7620   -1.12012
  0.7640   -1.13598
  0.7660   -1.15419
  0.7680   -1.17265
  0.7700   -1.19089
  0.7720   -1.21486
  0.7740   -1.23683
  0.7760   -1.26275
  0.7780   -1.29481
  0.7800   -1.31827
  0.7820   -1.34099
  0.7840   -1.35089
  0.7860   -1.35091
  0.7880   -1.34802
  0.7900   -1.33822
  0.7920   -1.32012
  0.7940   -1.30366
  0.7960   -1.28261
  0.7980   -1.26390
  0.8000   -1.25230
  0.8020   -1.24445
  0.8040   -1.23728
  0.8060   -1.23408
  0.8080   -1.23153
  0.8100   -1.22163
  0.8120   -1.23443
  0.8140   -1.23919
  0.8160   -1.24263
  0.8180   -1.24154
  0.8200   -1.23369
  0.8220   -1.22180
  0.8240   -1.20055
  0.8260   -1.17653
  0.8280   -1.14414
  0.8300   -1.10776
  0.8320   -1.06586
  0.8340   -1.03519
  0.8360   -0.99557
  0.8380   -0.96825
  0.8400   -0.94135
  0.8420   -0.91538
  0.8440   -0.89132
  0.8460   -0.86832
  0.8480   -0.84706
  0.8500   -0.82446
  0.8520   -0.80171
  0.8540   -0.78680
  0.8560   -0.77364
  0.8580   -0.75979
  0.8600   -0.74940
  0.8620   -0.73242
  0.8640   -0.71098
  0.8660   -0.68821
  0.8680   -0.66739
  0.8700   -0.64060
  0.8720   -0.61067
  0.8740   -0.58552
  0.8760   -0.56250
  0.8780   -0.54276
  0.8800   -0.52798
  0.8820   -0.51321
  0.8840   -0.50988
  0.8860   -0.49734
  0.8880   -0.49489
  0.8900   -0.49234
  0.8920   -0.48682
  0.8940   -0.48068
  0.8960   -0.47284
  0.8980   -0.45933
  0.9000   -0.43838
  0.9020   -0.41960
  0.9040   -0.39701
  0.9060   -0.37380
  0.9080   -0.35731
  0.9100   -0.34558
  0.9120   -0.33592
  0.9140   -0.32896
  0.9160   -0.32615
  0.9180   -0.32816
  0.9200   -0.32727
  0.9220   -0.32286
  0.9240   -0.31806
  0.9260   -0.31004
  0.9280   -0.30465
  0.9300   -0.29525
  0.9320   -0.27933
  0.9340   -0.25687
  0.9360   -0.23130
  0.9380   -0.19521
  0.9400   -0.16346
  0.9420   -0.12293
  0.9440   -0.09432
  0.9460   -0.07370
  0.9480   -0.06432
  0.9500   -0.06076
  0.9520   -0.07144
  0.9540   -0.08040
  0.9560   -0.09148
  0.9580   -0.09701
  0.9600   -0.09992
  0.9620   -0.09689
  0.9640   -0.08041
  0.9660   -0.06438
  0.9680   -0.04528
  0.9700   -0.01696
  0.9720    0.01387
  0.9740    0.04485
  0.9760    0.07537
  0.9780    0.10317
  0.9800    0.12316
  0.9820    0.14038
  0.9840    0.15086
  0.9860    0.15378
  0.9880    0.15690
  0.9900    0.15594
  0.9920    0.14804
  0.9940    0.15263
  0.9960    0.15326
  0.9980    0.15473
  1.0000    0.15069
  1.0020    0.14096
  1.0040    0.12673
  1.0060    0.10451
  1.0080    0.08535
  1.0100    0.07178
  1.0120    0.06049
  1.0140    0.05576
  1.0160    0.06462
  1.0180    0.07306
  1.0200    0.08578
  1.0220    0.09527
  1.0240    0.11489
  1.0260    0.12978
  1.0280    0.13952
  1.0300    0.14784
  1.0320    0.15006
  1.0340    0.14411
  1.0360    0.13041
  1.0380    0.11594
  1.0400    0.09898
  1.0420    0.07453
  1.0440    0.05543
  1.0460    0.04154
  1.0480    0.03991
  1.0500    0.03162
  1.0520    0.04292
  1.0540    0.05247
  1.0560    0.06559
  1.0580    0.07692
  1.0600    0.09214
  1.0620    0.09465
  1.0640    0.10287
  1.0660    0.10371
  1.0680    0.10158
  1.0700    0.09271
  1.0720    0.08291
  1.0740    0.07212
  1.0760    0.05928
  1.0780    0.04952
  1.0800    0.03855
  1.0820    0.01754
  1.0840   -0.00266
  1.0860   -0.01826
  1.0880   -0.03511
  1.0900   -0.04977
  1.0920   -0.06216
  1.0940   -0.06417
  1.0960   -0.06563
  1.0980   -0.05994
  1.1000   -0.04750
  1.1020   -0.03593
  1.1040   -0.02059
  1.1060   -0.01355
  1.1080    0.00184
  1.1100    0.02160
  1.1120    0.02922
  1.1140    0.04092
  1.1160    0.04229
  1.1180    0.04834
  1.1200    0.04864
  1.1220    0.04992
  1.1240    0.04400
  1.1260    0.04311
  1.1280    0.04397
  1.1300    0.04488
  1.1320    0.04716
  1.1340    0.04586
  1.1360    0.04544
  1.1380    0.04505
  1.1400    0.04740
  1.1420    0.05084
  1.1440    0.04624
  1.1460    0.04352
  1.1480    0.04384
  1.1500    0.04298
  1.1520    0.04193
  1.1540    0.04512
  1.1560    0.04127
  1.1580    0.04054
  1.1600    0.04319
  1.1620    0.04474
  1.1640    0.04436
  1.1660    0.03850
  1.1680    0.03617
  1.1700    0.03416
  1.1720    0.02973
  1.1740    0.03090
  1.1760    0.02629
  1.1780    0.02561
  1.1800    0.02772
  1.1820    0.03713
  1.1840    0.04374
  1.1860    0.05512
  1.1880    0.07276
  1.1900    0.09031
  1.1920    0.10595
  1.1940    0.12256
  1.1960    0.13653
  1.1980    0.15298
  1.2000    0.16592
