# z (nm)   (kJ/mol)
  0.1160  299.27320
  0.1180  295.41753
  0.1200  291.49191
  0.1220  286.74625
  0.1240  282.05850
  0.1260  277.09328
  0.1280  272.15792
  0.1300  267.10702
  0.1320  262.02331
  0.1340  256.81724
  0.1360  251.48795
  0.1380  246.00718
  0.1400  240.37925
  0.1420  234.57966
  0.1440  228.60522
  0.1460  222.46384
  0.1480  216.15183
  0.1500  209.67674
  0.1520  203.04045
  0.1540  196.25706
  0.1560  189.33534
  0.1580  182.29724
  0.1600  175.16262
  0.1620  167.95834
  0.1640  160.71315
  0.1660  153.46102
  0.1680  146.24281
  0.1700  139.10365
  0.1720  132.07939
  0.1740  125.21065
  0.1760  118.53055
  0.1780  112.07340
  0.1800  105.86713
  0.1820   99.93568
  0.1840   94.30255
  0.1860   88.97216
  0.1880   83.95316
  0.1900   79.23696
  0.1920   74.80851
  0.1940   70.65280
  0.1960   66.74856
  0.1980   63.07414
  0.2000   59.60845
  0.2020   56.34100
  0.2040   53.25476
  0.2060   50.33878
  0.2080   47.58589
  0.2100   44.99845
  0.2120   42.57108
  0.2140   40.30068
  0.2160   38.17697
  0.2180   36.19330
  0.2200   34.34253
  0.2220   32.61000
  0.2240   30.99848
  0.2260   29.49798
  0.2280   28.10998
  0.2300   26.84253
  0.2320   25.70676
  0.2340   24.71157
  0.2360   23.86465
  0.2380   23.16796
  0.2400   22.60493
  0.2420   22.16532
  0.2440   21.82917
  0.2460   21.58362
  0.2480   21.43395
  0.2500   21.37736
  0.2520   21.42307
  0.2540   21.57093
  0.2560   21.81328
  0.2580   22.13530
  0.2600   22.52044
  0.2620   22.95529
  0.2640   23.42950
  0.2660   23.92858
  0.2680   24.43768
  0.2700   24.94962
  0.2720   25.47050
  0.2740   26.01450
  0.2760   26.60552
  0.2780   27.25246
  0.2800   27.95318
  0.2820   28.66638
  0.2840   29.36321
  0.2860   30.02026
  0.2880   30.61842
  0.2900   31.15605
  0.2920   31.64976
  0.2940   32.10730
  0.2960   32.56437
  0.2980   33.00297
  0.3000   33.46952
  0.3020   34.00325
  0.3040   34.61973
  0.3060   35.31279
  0.3080   36.01377
  0.3100   36.71819
  0.3120   37.44127
  0.3140   38.18026
  0.3160   38.90679
  0.3180   39.60147
  0.3200   40.23244
  0.3220   40.79542
  0.3240   41.27976
  0.3260   41.68175
  0.3280   42.01121
  0.3300   42.27395
  0.3320   42.45710
  0.3340   42.55892
  0.3360   42.56582
  0.3380   42.43133
  0.3400   42.14618
  0.3420   41.68425
  0.3440   41.01655
  0.3460   40.12631
  0.3480   39.00292
  0.3500   37.63187
  0.3520   36.04668
  0.3540   34.29054
  0.3560   32.39170
  0.3580   30.39640
  0.3600   28.32553
  0.3620   26.20269
  0.3640   24.03791
  0.3660   21.84356
  0.3680   19.65554
  0.3700   17.51749
  0.3720   15.46623
  0.3740   13.54542
  0.3760   11.77153
  0.3780   10.15505
  0.3800    8.69306
  0.3820    7.37393
  0.3840    6.19362
  0.3860    5.13522
  0.3880    4.20025
  0.3900    3.38606
  0.3920    2.69130
  0.3940    2.12422
  0.3960    1.68157
  0.3980    1.33914
  0.4000    1.09814
  0.4020    0.94212
  0.4040    0.84721
  0.4060    0.80391
  0.4080    0.79494
  0.4100    0.81060
  0.4120    0.83695
  0.4140    0.86839
  0.4160    0.91489
  0.4180    0.96041
  0.4200    1.01145
  0.4220    1.06590
  0.4240    1.11752
  0.4260    1.17049
  0.4280    1.21508
  0.4300    1.25328
  0.4320    1.27100
  0.4340    1.27315
  0.4360    1.25246
  0.4380    1.20944
  0.4400    1.14892
  0.4420    1.08612
  0.4440    1.01425
  0.4460    0.92673
  0.4480    0.84713
  0.4500    0.76345
  0.4520    0.69187
  0.4540    0.63173
  0.4560    0.58699
  0.4580    0.56125
  0.4600    0.54797
  0.4620    0.54880
  0.4640    0.56032
  0.4660    0.57145
  0.4680    0.57804
  0.4700    0.58373
  0.4720    0.59167
  0.4740    0.59108
  0.4760    0.58609
  0.4780    0.58354
  0.4800    0.57800
  0.4820    0.57504
  0.4840    0.57100
  0.4860    0.57505
  0.4880    0.57735
  0.4900    0.58236
  0.4920    0.59081
  0.4940    0.60143
  0.4960    0.62657
  0.4980    0.65789
  0.5000    0.70760
  0.5020    0.77181
  0.5040    0.84728
  0.5060    0.92315
  0.5080    1.00581
  0.5100    1.08298
  0.5120    1.14451
  0.5140    1.20587
  0.5160    1.25742
  0.5180    1.29860
  0.5200    1.33649
  0.5220    1.37836
  0.5240    1.41800
  0.5260    1.46117
  0.5280    1.51386
  0.5300    1.57335
  0.5320    1.64399
  0.5340    1.72796
  0.5360    1.81533
  0.5380    1.90059
  0.5400    1.98719
  0.5420    2.06870
  0.5440    2.14433
  0.5460    2.21695
  0.5480    2.28522
  0.5500    2.33972
  0.5520    2.38587
  0.5540    2.42655
  0.5560    2.45823
  0.5580    2.48906
  0.5600    2.51921
  0.5620    2.55503
  0.5640    2.59055
  0.5660    2.62872
  0.5680    2.67274
  0.5700    2.71914
  0.5720    2.76028
  0.5740    2.79995
  0.5760    2.84180
  0.5780    2.88019
  0.5800    2.92122
  0.5820    2.95305
  0.5840    2.97181
  0.5860    2.98564
  0.5880    2.99500
  0.5900    2.99890
  0.5920    2.99860
  0.5940    2.99389
  0.5960    2.98356
  0.5980    2.97420
  0.6000    2.96168
  0.6020    2.94904
  0.6040    2.92935
  0.6060    2.91048
  0.6080    2.88521
  0.6100    2.86329
  0.6120    2.83519
  0.6140    2.80387
  0.6160    2.77563
  0.6180    2.73733
  0.6200    2.69693
  0.6220    2.64760
  0.6240    2.59443
  0.6260    2.53687
  0.6280    2.47058
  0.6300    2.39960
  0.6320    2.32993
  0.6340    2.25132
  0.6360    2.17670
  0.6380    2.09510
  0.6400    2.01301
  0.6420    1.93310
  0.6440    1.85834
  0.6460    1.78126
  0.6480    1.70693
  0.6500    1.62660
  0.6520    1.54986
  0.6540    1.48064
  0.6560    1.41299
  0.6580    1.35389
  0.6600    1.29541
  0.6620    1.25084
  0.6640    1.21843
  0.6660    1.19455
  0.6680    1.17102
  0.6700    1.14692
  0.6720    1.11883
  0.6740    1.08213
  0.6760    1.03323
  0.6780    0.96322
  0.6800    0.88312
  0.6820    0.78965
  0.6840    0.68556
  0.6860    0.57945
  0.6880    0.46743
  0.6900    0.36668
  0.6920    0.27701
  0.6940    0.20988
  0.6960    0.15629
  0.6980    0.12013
  0.7000    0.09598
  0.7020    0.07657
  0.7040    0.06001
  0.7060    0.04475
  0.7080    0.01687
  0.7100   -0.01836
  0.7120   -0.06600
  0.7140   -0.12569
  0.7160   -0.19109
  0.7180   -0.26307
  0.7200   -0.33094
  0.7220   -0.39503
  0.7240   -0.45312
  0.7260   -0.49378
  0.7280   -0.53551
  0.7300   -0.57003
  0.7320   -0.59591
  0.7340   -0.62097
  0.7360   -0.64092
  0.7380   -0.66308
  0.7400   -0.68169
  0.7420   -0.69896
  0.7440   -0.70929
  0.7460   -0.72126
  0.7480   -0.73227
  0.7500   -0.74335
  0.7520   -0.75926
  0.7540   -0.77065
  0.7560   -0.77574
  0.7580   -0.78218
  0.7600   -0.78734
  0.7620   -0.78710
  0.7640   -0.78701
  0.7660   -0.78414
  0.7680   -0.77898
  0.7700   -0.77459
  0.7720   -0.76110
  0.7740   -0.75437
  0.7760   -0.75189
  0.7780   -0.74268
  0.7800   -0.73829
  0.7820   -0.73246
  0.7840   -0.72849
  0.7860   -0.71833
  0.7880   -0.70845
  0.7900   -0.70243
  0.7920   -0.68903
  0.7940   -0.67296
  0.7960   -0.66209
  0.7980   -0.64282
  0.8000   -0.62122
  0.8020   -0.60122
  0.8040   -0.57512
  0.8060   -0.54525
  0.8080   -0.51840
  0.8100   -0.49068
  0.8120   -0.45483
  0.8140   -0.42109
  0.8160   -0.39593
  0.8180   -0.36359
  0.8200   -0.33458
  0.8220   -0.30132
  0.8240   -0.27538
  0.8260   -0.25199
  0.8280   -0.23044
  0.8300   -0.21772
  0.8320   -0.20345
  0.8340   -0.18819
  0.8360   -0.18053
  0.8380   -0.17107
  0.8400   -0.16746
  0.8420   -0.16596
  0.8440   -0.16486
  0.8460   -0.15815
  0.8480   -0.15115
  0.8500   -0.14224
  0.8520   -0.12782
  0.8540   -0.10492
  0.8560   -0.08238
  0.8580   -0.05750
  0.8600   -0.02613
  0.8620    0.00879
  0.8640    0.04503
  0.8660    0.08037
  0.8680    0.12089
  0.8700    0.15899
  0.8720    0.18743
  0.8740    0.21623
  0.8760    0.24025
  0.8780    0.26196
  0.8800    0.28000
  0.8820    0.29639
  0.8840    0.30777
  0.8860    0.31155
  0.8880    0.31093
  0.8900    0.30850
  0.8920    0.30525
  0.8940    0.30300
  0.8960    0.29948
  0.8980    0.29990
  0.9000    0.29980
  0.9020    0.30378
  0.9040    0.31541
  0.9060    0.33169
  0.9080    0.34826
  0.9100    0.37175
  0.9120    0.39443
  0.9140    0.41378
  0.9160    0.43660
  0.9180    0.45877
  0.9200    0.48715
  0.9220    0.49586
  0.9240    0.50221
  0.9260    0.50144
  0.9280    0.49566
  0.9300    0.48578
  0.9320    0.46843
  0.9340    0.45037
  0.9360    0.42871
  0.9380    0.40370
  0.9400    0.37708
  0.9420    0.35186
  0.9440    0.32618
  0.9460    0.30041
  0.9480    0.27183
  0.9500    0.24835
  0.9520    0.23011
  0.9540    0.21398
  0.9560    0.20170
  0.9580    0.19536
  0.9600    0.18099
  0.9620    0.17227
  0.9640    0.16610
  0.9660    0.16177
  0.9680    0.16424
  0.9700    0.16528
  0.9720    0.16480
  0.9740    0.16625
  0.9760    0.16601
  0.9780    0.16543
  0.9800    0.15317
  0.9820    0.14701
  0.9840    0.13828
  0.9860    0.12467
  0.9880    0.11233
  0.9900    0.09843
  0.9920    0.07917
  0.9940    0.06776
  0.9960    0.04889
  0.9980    0.02455
  1.0000   -0.00059
  1.0020   -0.02514
  1.0040   -0.05079
  1.0060   -0.07476
  1.0080   -0.09741
  1.0100   -0.11616
  1.0120   -0.13096
  1.0140   -0.14126
  1.0160   -0.14562
  1.0180   -0.14507
  1.0200   -0.14257
  1.0220   -0.13637
  1.0240   -0.13215
  1.0260   -0.12089
  1.0280   -0.10800
  1.0300   -0.09742
  1.0320   -0.08971
  1.0340   -0.08906
  1.0360   -0.08679
  1.0380   -0.10275
  1.0400   -0.11073
  1.0420   -0.12301
  1.0440   -0.14194
  1.0460   -0.15955
  1.0480   -0.17716
  1.0500   -0.20117
  1.0520   -0.22355
  1.0540   -0.24149
  1.0560   -0.25910
  1.0580   -0.27096
  1.0600   -0.28752
  1.0620   -0.29761
  1.0640   -0.30796
  1.0660   -0.31411
  1.0680   -0.31976
  1.0700   -0.32135
  1.0720   -0.31719
  1.0740   -0.31000
  1.0760   -0.30502
  1.0780   -0.29482
  1.0800   -0.28497
  1.0820   -0.27180
  1.0840   -0.26202
  1.0860   -0.25011
  1.0880   -0.24111
  1.0900   -0.23307
  1.0920   -0.22153
  1.0940   -0.21787
  1.0960   -0.21967
  1.0980   -0.21798
  1.1000   -0.21691
  1.1020   -0.22416
  1.1040   -0.22355
  1.1060   -0.22228
  1.1080   -0.21984
  1.1100   -0.22000
  1.1120   -0.21915
  1.1140   -0.21201
  1.1160   -0.20463
  1.1180   -0.20388
  1.1200   -0.19422
  1.1220   -0.18844
  1.1240   -0.17618
  1.1260   -0.16548
  1.1280   -0.15611
  1.1300   -0.14151
  1.1320   -0.12843
  1.1340   -0.11557
  1.1360   -0.10041
  1.1380   -0.08894
  1.1400   -0.07635
  1.1420   -0.06886
  1.1440   -0.05912
  1.1460   -0.05243
  1.1480   -0.04335
  1.1500   -0.04389
  1.1520   -0.03799
  1.1540   -0.04059
  1.1560   -0.04165
  1.1580   -0.04205
  1.1600   -0.04601
  1.1620   -0.04951
  1.1640   -0.04640
  1.1660   -0.04479
  1.1680   -0.03781
  1.1700   -0.03234
  1.1720   -0.02069
  1.1740   -0.01153
  1.1760   -0.00449
  1.1780    0.00208
  1.1800    0.01169
  1.1820    0.01658
  1.1840    0.02343
  1.1860    0.02987
  1.1880    0.03233
  1.1900    0.03579
  1.1920    0.03673
  1.1940    0.03944
  1.1960    0.04431
  1.1980    0.04860
  1.2000    0.06031
