# z (nm)   (kJ/mol)
  0.3180  306.15890
  0.3200  302.73853
  0.3220  298.62835
  0.3240  294.97678
  0.3260  291.47431
  0.3280  287.92678
  0.3300  284.27644
  0.3320  280.45970
  0.3340  276.43271
  0.3360  272.12776
  0.3380  267.50548
  0.3400  262.51593
  0.3420  257.11712
  0.3440  251.27164
  0.3460  244.93827
  0.3480  238.08543
  0.3500  230.68230
  0.3520  222.71393
  0.3540  214.19540
  0.3560  205.20366
  0.3580  195.85937
  0.3600  186.32045
  0.3620  176.76113
  0.3640  167.31371
  0.3660  158.10009
  0.3680  149.23200
  0.3700  140.78791
  0.3720  132.82906
  0.3740  125.35950
  0.3760  118.32257
  0.3780  111.62218
  0.3800  105.15318
  0.3820   98.88411
  0.3840   92.87583
  0.3860   87.23377
  0.3880   82.03394
  0.3900   77.25365
  0.3920   72.79724
  0.3940   68.56202
  0.3960   64.48531
  0.3980   60.53505
  0.4000   56.67228
  0.4020   52.88017
  0.4040   49.19671
  0.4060   45.71273
  0.4080   42.50193
  0.4100   39.58626
  0.4120   36.93020
  0.4140   34.47320
  0.4160   32.15742
  0.4180   29.94243
  0.4200   27.81044
  0.4220   25.77409
  0.4240   23.84451
  0.4260   22.01518
  0.4280   20.29858
  0.4300   18.69573
  0.4320   17.19896
  0.4340   15.81712
  0.4360   14.53570
  0.4380   13.34915
  0.4400   12.24828
  0.4420   11.23104
  0.4440   10.28992
  0.4460    9.41862
  0.4480    8.61400
  0.4500    7.87563
  0.4520    7.21171
  0.4540    6.62235
  0.4560    6.10964
  0.4580    5.66911
  0.4600    5.28953
  0.4620    4.96961
  0.4640    4.70551
  0.4660    4.48069
  0.4680    4.28859
  0.4700    4.11961
  0.4720    3.97282
  0.4740    3.83662
  0.4760    3.70849
  0.4780    3.59200
  0.4800    3.49047
  0.4820    3.42839
  0.4840    3.40858
  0.4860    3.43653
  0.4880    3.50533
  0.4900    3.60615
  0.4920    3.72314
  0.4940    3.83276
  0.4960    3.90277
  0.4980    3.94046
  0.5000    3.94199
  0.5020    3.92613
  0.5040    3.91167
  0.5060    3.89437
  0.5080    3.88214
  0.5100    3.87596
  0.5120    3.87494
  0.5140    3.87182
  0.5160    3.87447
  0.5180    3.87543
  0.5200    3.87248
  0.5220    3.86744
  0.5240    3.84548
  0.5260    3.80204
  0.5280    3.75401
  0.5300    3.69178
  0.5320    3.62229
  0.5340    3.54967
  0.5360    3.47731
  0.5380    3.40034
  0.5400    3.31038
  0.5420    3.21828
  0.5440    3.12414
  0.5460    3.02934
  0.5480    2.93435
  0.5500    2.84827
  0.5520    2.75208
  0.5540    2.64318
  0.5560    2.52901
  0.5580    2.40765
  0.5600    2.27519
  0.5620    2.14366
  0.5640    2.03533
  0.5660    1.92934
  0.5680    1.85823
  0.5700    1.80992
  0.5720    1.78446
  0.5740    1.77100
  0.5760    1.77871
  0.5780    1.78252
  0.5800    1.79080
  0.5820    1.78821
  0.5840    1.78483
  0.5860    1.79383
  0.5880    1.80441
  0.5900    1.83129
  0.5920    1.87956
  0.5940    1.93751
  0.5960    1.98811
  0.5980    2.02830
  0.6000    2.06161
  0.6020    2.08095
  0.6040    2.08181
  0.6060    2.09991
  0.6080    2.11825
  0.6100    2.15783
  0.6120    2.21245
  0.6140    2.28692
  0.6160    2.37899
  0.6180    2.46835
  0.6200    2.53607
  0.6220    2.57363
  0.6240    2.56603
  0.6260    2.52631
  0.6280    2.46527
  0.6300    2.39870
  0.6320    2.34542
  0.6340    2.31799
  0.6360    2.33064
  0.6380    2.37964
  0.6400    2.45329
  0.6420    2.54055
  0.6440    2.62601
  0.6460    2.68996
  0.6480    2.71987
  0.6500    2.70724
  0.6520    2.65753
  0.6540    2.58564
  0.6560    2.49608
  0.6580    2.41955
  0.6600    2.36588
  0.6620    2.33627
  0.6640    2.33294
  0.6660    2.33924
  0.6680    2.34800
  0.6700    2.35097
  0.6720    2.34148
  0.6740    2.32299
  0.6760    2.28082
  0.6780    2.22598
  0.6800    2.17381
  0.6820    2.11525
  0.6840    2.05260
  0.6860    1.98609
  0.6880    1.91557
  0.6900    1.83761
  0.6920    1.75834
  0.6940    1.67416
  0.6960    1.59060
  0.6980    1.49646
  0.7000    1.39734
  0.7020    1.29322
  0.7040    1.19591
  0.7060    1.08948
  0.7080    0.97277
  0.7100    0.85194
  0.7120    0.71974
  0.7140    0.57906
  0.7160    0.44133
  0.7180    0.29296
  0.7200    0.14884
  0.7220    0.00667
  0.7240   -0.12429
  0.7260   -0.23623
  0.7280   -0.33234
  0.7300   -0.40998
  0.7320   -0.47515
  0.7340   -0.53861
  0.7360   -0.59611
  0.7380   -0.66067
  0.7400   -0.73183
  0.7420   -0.80905
  0.7440   -0.88677
  0.7460   -0.94895
  0.7480   -1.00342
  0.7500   -1.04720
  0.7520   -1.07434
  0.7540   -1.08166
  0.7560   -1.07157
  0.7580   -1.05406
  0.7600   -1.02817
  0.7620   -1.00690
  0.7640   -0.98944
  0.7660   -0.98019
  0.7680   -0.97282
  0.7700   -0.97147
  0.7720   -0.95346
  0.7740   -0.92879
  0.7760   -0.90537
  0.7780   -0.88492
  0.7800   -0.86414
  0.7820   -0.86013
  0.7840   -0.87930
  0.7860   -0.91172
  0.7880   -0.94906
  0.7900   -0.98346
  0.7920   -0.99010
  0.7940   -0.97618
  0.7960   -0.91334
  0.7980   -0.80510
  0.8000   -0.66498
  0.8020   -0.53728
  0.8040   -0.46503
  0.8060   -0.50903
  0.8080   -0.70720
  0.8100   -1.04286
  0.8120   -1.40668
  0.8140   -1.63369
  0.8160   -1.60705
  0.8180   -1.34447
  0.8200   -0.97422
  0.8220   -0.65071
  0.8240   -0.48530
  0.8260   -0.48719
  0.8280   -0.60070
  0.8300   -0.75076
  0.8320   -0.89140
  0.8340   -0.99709
  0.8360   -1.05462
  0.8380   -1.07942
  0.8400   -1.07075
  0.8420   -1.04018
  0.8440   -0.99771
  0.8460   -0.95696
  0.8480   -0.91329
  0.8500   -0.87605
  0.8520   -0.84941
  0.8540   -0.82801
  0.8560   -0.82302
  0.8580   -0.82573
  0.8600   -0.84181
  0.8620   -0.87370
  0.8640   -0.91180
  0.8660   -0.93846
  0.8680   -0.94357
  0.8700   -0.93127
  0.8720   -0.91091
  0.8740   -0.88813
  0.8760   -0.87093
  0.8780   -0.86222
  0.8800   -0.84719
  0.8820   -0.83126
  0.8840   -0.81287
  0.8860   -0.78198
  0.8880   -0.75255
  0.8900   -0.72715
  0.8920   -0.69855
  0.8940   -0.67175
  0.8960   -0.64642
  0.8980   -0.62361
  0.9000   -0.60147
  0.9020   -0.58331
  0.9040   -0.55985
  0.9060   -0.54091
  0.9080   -0.52408
  0.9100   -0.50980
  0.9120   -0.48885
  0.9140   -0.46039
  0.9160   -0.42735
  0.9180   -0.39063
  0.9200   -0.34817
  0.9220   -0.30942
  0.9240   -0.27156
  0.9260   -0.25473
  0.9280   -0.24611
  0.9300   -0.24325
  0.9320   -0.24885
  0.9340   -0.25858
  0.9360   -0.27267
  0.9380   -0.28538
  0.9400   -0.28900
  0.9420   -0.29642
  0.9440   -0.29921
  0.9460   -0.29871
  0.9480   -0.29662
  0.9500   -0.28024
  0.9520   -0.26265
  0.9540   -0.24043
  0.9560   -0.21527
  0.9580   -0.18276
  0.9600   -0.16537
  0.9620   -0.15411
  0.9640   -0.14522
  0.9660   -0.15025
  0.9680   -0.15706
  0.9700   -0.16332
  0.9720   -0.17465
  0.9740   -0.18436
  0.9760   -0.19758
  0.9780   -0.20807
  0.9800   -0.20666
  0.9820   -0.19976
  0.9840   -0.18632
  0.9860   -0.16827
  0.9880   -0.13842
  0.9900   -0.10535
  0.9920   -0.07340
  0.9940   -0.04275
  0.9960   -0.01682
  0.9980    0.00024
  1.0000    0.01605
  1.0020    0.02600
  1.0040    0.02067
  1.0060    0.01687
  1.0080    0.00748
  1.0100    0.00126
  1.0120   -0.00878
  1.0140   -0.02305
  1.0160   -0.03083
  1.0180   -0.04149
  1.0200   -0.05170
  1.0220   -0.05873
  1.0240   -0.06538
  1.0260   -0.06012
  1.0280   -0.04189
  1.0300   -0.01612
  1.0320    0.01542
  1.0340    0.05649
  1.0360    0.10323
  1.0380    0.13514
  1.0400    0.15971
  1.0420    0.17919
  1.0440    0.18145
  1.0460    0.16758
  1.0480    0.14992
  1.0500    0.12935
  1.0520    0.10309
  1.0540    0.08437
  1.0560    0.07510
  1.0580    0.07212
  1.0600    0.08187
  1.0620    0.10311
  1.0640    0.12291
  1.0660    0.14557
  1.0680    0.18039
  1.0700    0.20227
  1.0720    0.22215
  1.0740    0.22448
  1.0760    0.23225
  1.0780    0.23021
  1.0800    0.22312
  1.0820    0.20985
  1.0840    0.19960
  1.0860    0.18700
  1.0880    0.18271
  1.0900    0.18109
  1.0920    0.18239
  1.0940    0.17852
  1.0960    0.17665
  1.0980    0.17734
  1.1000    0.17555
  1.1020    0.17510
  1.1040    0.17042
  1.1060    0.17004
  1.1080    0.16618
  1.1100    0.16060
  1.1120    0.15430
  1.1140    0.15708
  1.1160    0.15394
  1.1180    0.14932
  1.1200    0.14702
  1.1220    0.14592
  1.1240    0.14406
  1.1260    0.14186
  1.1280    0.13466
  1.1300    0.13259
  1.1320    0.13381
  1.1340    0.13548
  1.1360    0.13485
  1.1380    0.13219
  1.1400    0.13603
  1.1420    0.14564
  1.1440    0.15357
  1.1460    0.15900
  1.1480    0.15881
  1.1500    0.15914
  1.1520    0.16653
  1.1540    0.16537
  1.1560    0.16306
  1.1580    0.15527
  1.1600    0.15301
  1.1620    0.14596
  1.1640    0.13338
  1.1660    0.12846
  1.1680    0.12531
  1.1700    0.12136
  1.1720    0.11907
  1.1740    0.11847
  1.1760    0.11971
  1.1780    0.11975
  1.1800    0.12107
  1.1820    0.13146
  1.1840    0.14721
  1.1860    0.16294
  1.1880    0.18447
  1.1900    0.20143
  1.1920    0.20416
  1.1940    0.20311
  1.1960    0.19790
  1.1980    0.18574
  1.2000    0.17542
