# z (nm)   (kJ/mol)
  0.0640  282.86135
  0.0660  279.66737
  0.0680  276.39309
  0.0700  273.51464
  0.0720  270.74941
  0.0740  267.80464
  0.0760  264.90480
  0.0780  262.03473
  0.0800  259.15427
  0.0820  256.23302
  0.0840  253.26772
  0.0860  250.24479
  0.0880  247.16360
  0.0900  244.02248
  0.0920  240.81093
  0.0940  237.51821
  0.0960  234.14473
  0.0980  230.67436
  0.1000  227.12290
  0.1020  223.47760
  0.1040  219.74198
  0.1060  215.92005
  0.1080  212.01031
  0.1100  208.03720
  0.1120  204.00932
  0.1140  199.93463
  0.1160  195.83653
  0.1180  191.73174
  0.1200  187.62938
  0.1220  183.53975
  0.1240  179.47577
  0.1260  175.44772
  0.1280  171.46190
  0.1300  167.52576
  0.1320  163.64363
  0.1340  159.82785
  0.1360  156.08947
  0.1380  152.42946
  0.1400  148.85745
  0.1420  145.37208
  0.1440  141.97649
  0.1460  138.66192
  0.1480  135.41909
  0.1500  132.23784
  0.1520  129.11255
  0.1540  126.02449
  0.1560  122.98104
  0.1580  119.97472
  0.1600  117.00348
  0.1620  114.07547
  0.1640  111.17569
  0.1660  108.31076
  0.1680  105.46855
  0.1700  102.65260
  0.1720   99.85058
  0.1740   97.06377
  0.1760   94.29546
  0.1780   91.54559
  0.1800   88.82179
  0.1820   86.13149
  0.1840   83.48037
  0.1860   80.87424
  0.1880   78.31414
  0.1900   75.80648
  0.1920   73.35009
  0.1940   70.94371
  0.1960   68.57518
  0.1980   66.24698
  0.2000   63.94280
  0.2020   61.66933
  0.2040   59.42043
  0.2060   57.19992
  0.2080   55.00712
  0.2100   52.84774
  0.2120   50.73264
  0.2140   48.67140
  0.2160   46.67320
  0.2180   44.74515
  0.2200   42.88971
  0.2220   41.10639
  0.2240   39.38224
  0.2260   37.70774
  0.2280   36.06507
  0.2300   34.43535
  0.2320   32.81046
  0.2340   31.16520
  0.2360   29.51184
  0.2380   27.85536
  0.2400   26.22833
  0.2420   24.65413
  0.2440   23.17051
  0.2460   21.78661
  0.2480   20.49673
  0.2500   19.29246
  0.2520   18.13067
  0.2540   16.98717
  0.2560   15.82986
  0.2580   14.65873
  0.2600   13.46494
  0.2620   12.27202
  0.2640   11.10658
  0.2660   10.00050
  0.2680    8.95510
  0.2700    7.98805
  0.2720    7.10490
  0.2740    6.30004
  0.2760    5.55750
  0.2780    4.84400
  0.2800    4.15493
  0.2820    3.47386
  0.2840    2.79653
  0.2860    2.12312
  0.2880    1.45397
  0.2900    0.79871
  0.2920    0.16365
  0.2940   -0.44293
  0.2960   -1.00960
  0.2980   -1.53360
  0.3000   -2.01944
  0.3020   -2.46237
  0.3040   -2.86485
  0.3060   -3.23231
  0.3080   -3.56814
  0.3100   -3.87966
  0.3120   -4.17413
  0.3140   -4.46191
  0.3160   -4.73465
  0.3180   -5.00349
  0.3200   -5.26081
  0.3220   -5.49521
  0.3240   -5.71112
  0.3260   -5.90333
  0.3280   -6.06815
  0.3300   -6.20999
  0.3320   -6.32269
  0.3340   -6.41777
  0.3360   -6.48495
  0.3380   -6.54016
  0.3400   -6.58429
  0.3420   -6.61352
  0.3440   -6.63658
  0.3460   -6.64924
  0.3480   -6.65815
  0.3500   -6.65528
  0.3520   -6.65395
  0.3540   -6.64745
  0.3560   -6.62928
  0.3580   -6.60397
  0.3600   -6.56522
  0.3620   -6.51639
  0.3640   -6.45876
  0.3660   -6.38802
  0.3680   -6.31388
  0.3700   -6.23099
  0.3720   -6.14368
  0.3740   -6.05055
  0.3760   -5.95479
  0.3780   -5.86234
  0.3800   -5.76500
  0.3820   -5.67084
  0.3840   -5.58242
  0.3860   -5.49765
  0.3880   -5.40822
  0.3900   -5.32236
  0.3920   -5.23696
  0.3940   -5.14589
  0.3960   -5.05646
  0.3980   -4.96903
  0.4000   -4.87515
  0.4020   -4.78282
  0.4040   -4.70007
  0.4060   -4.61260
  0.4080   -4.52175
  0.4100   -4.43946
  0.4120   -4.36228
  0.4140   -4.29264
  0.4160   -4.22546
  0.4180   -4.16323
  0.4200   -4.10479
  0.4220   -4.04838
  0.4240   -4.00339
  0.4260   -3.95710
  0.4280   -3.90940
  0.4300   -3.86400
  0.4320   -3.81775
  0.4340   -3.77134
  0.4360   -3.71832
  0.4380   -3.65945
  0.4400   -3.59013
  0.4420   -3.51279
  0.4440   -3.42310
  0.4460   -3.32268
  0.4480   -3.21824
  0.4500   -3.10264
  0.4520   -2.98095
  0.4540   -2.85140
  0.4560   -2.71354
  0.4580   -2.57781
  0.4600   -2.44205
  0.4620   -2.29702
  0.4640   -2.15815
  0.4660   -2.01508
  0.4680   -1.87333
  0.4700   -1.73097
  0.4720   -1.58523
  0.4740   -1.43052
  0.4760   -1.28457
  0.4780   -1.13414
  0.4800   -0.98342
  0.4820   -0.82746
  0.4840   -0.66933
  0.4860   -0.51633
  0.4880   -0.36654
  0.4900   -0.21444
  0.4920   -0.06671
  0.4940    0.08231
  0.4960    0.22915
  0.4980    0.37100
  0.5000    0.51424
  0.5020    0.65424
  0.5040    0.78744
  0.5060    0.91780
  0.5080    1.04103
  0.5100    1.15647
  0.5120    1.26553
  0.5140    1.37365
  0.5160    1.46866
  0.5180    1.56059
  0.5200    1.64497
  0.5220    1.72025
  0.5240    1.79378
  0.5260    1.86854
  0.5280    1.93787
  0.5300    2.00734
  0.5320    2.07190
  0.5340    2.12691
  0.5360    2.18689
  0.5380    2.24047
  0.5400    2.29064
  0.5420    2.33646
  0.5440    2.36881
  0.5460    2.39916
  0.5480    2.41964
  0.5500    2.43076
  0.5520    2.43347
  0.5540    2.42968
  0.5560    2.41465
  0.5580    2.39661
  0.5600    2.37738
  0.5620    2.35411
  0.5640    2.33586
  0.5660    2.31572
  0.5680    2.28856
  0.5700    2.25741
  0.5720    2.22237
  0.5740    2.18570
  0.5760    2.14503
  0.5780    2.09499
  0.5800    2.04030
  0.5820    1.98065
  0.5840    1.91169
  0.5860    1.83751
  0.5880    1.76131
  0.5900    1.67975
  0.5920    1.59999
  0.5940    1.51666
  0.5960    1.43006
  0.5980    1.35256
  0.6000    1.27455
  0.6020    1.19986
  0.6040    1.12764
  0.6060    1.06010
  0.6080    0.99389
  0.6100    0.93437
  0.6120    0.87178
  0.6140    0.81039
  0.6160    0.74452
  0.6180    0.67955
  0.6200    0.61404
  0.6220    0.54735
  0.6240    0.47812
  0.6260    0.40452
  0.6280    0.32257
  0.6300    0.24645
  0.6320    0.17490
  0.6340    0.09602
  0.6360    0.02482
  0.6380   -0.04126
  0.6400   -0.10380
  0.6420   -0.15850
  0.6440   -0.20375
  0.6460   -0.24055
  0.6480   -0.26298
  0.6500   -0.28745
  0.6520   -0.30356
  0.6540   -0.31001
  0.6560   -0.31639
  0.6580   -0.32203
  0.6600   -0.32257
  0.6620   -0.32716
  0.6640   -0.32780
  0.6660   -0.32785
  0.6680   -0.33611
  0.6700   -0.34611
  0.6720   -0.35804
  0.6740   -0.37315
  0.6760   -0.38900
  0.6780   -0.40217
  0.6800   -0.42383
  0.6820   -0.43908
  0.6840   -0.46621
  0.6860   -0.48796
  0.6880   -0.50307
  0.6900   -0.52378
  0.6920   -0.54382
  0.6940   -0.55772
  0.6960   -0.56355
  0.6980   -0.56872
  0.7000   -0.56595
  0.7020   -0.55913
  0.7040   -0.54969
  0.7060   -0.53293
  0.7080   -0.51296
  0.7100   -0.48672
  0.7120   -0.46490
  0.7140   -0.44739
  0.7160   -0.42869
  0.7180   -0.41359
  0.7200   -0.39632
  0.7220   -0.38111
  0.7240   -0.37355
  0.7260   -0.36426
  0.7280   -0.35676
  0.7300   -0.34451
  0.7320   -0.33105
  0.7340   -0.31726
  0.7360   -0.29919
  0.7380   -0.27452
  0.7400   -0.25599
  0.7420   -0.22930
  0.7440   -0.20285
  0.7460   -0.17775
  0.7480   -0.14982
  0.7500   -0.12475
  0.7520   -0.09430
  0.7540   -0.06148
  0.7560   -0.02908
  0.7580    0.00058
  0.7600    0.03240
  0.7620    0.06396
  0.7640    0.09790
  0.7660    0.12963
  0.7680    0.16274
  0.7700    0.19601
  0.7720    0.22512
  0.7740    0.25620
  0.7760    0.28580
  0.7780    0.31467
  0.7800    0.34371
  0.7820    0.36411
  0.7840    0.38558
  0.7860    0.40017
  0.7880    0.41187
  0.7900    0.41689
  0.7920    0.41840
  0.7940    0.42102
  0.7960    0.42302
  0.7980    0.42153
  0.8000    0.41865
  0.8020    0.41661
  0.8040    0.41945
  0.8060    0.42557
  0.8080    0.43976
  0.8100    0.45525
  0.8120    0.47185
  0.8140    0.49205
  0.8160    0.51357
  0.8180    0.54184
  0.8200    0.57737
  0.8220    0.60500
  0.8240    0.63347
  0.8260    0.65960
  0.8280    0.68273
  0.8300    0.70680
  0.8320    0.72080
  0.8340    0.72962
  0.8360    0.73193
  0.8380    0.72640
  0.8400    0.72014
  0.8420    0.70522
  0.8440    0.69133
  0.8460    0.67327
  0.8480    0.65885
  0.8500    0.64697
  0.8520    0.63656
  0.8540    0.63105
  0.8560    0.63366
  0.8580    0.63840
  0.8600    0.64726
  0.8620    0.65830
  0.8640    0.67205
  0.8660    0.68500
  0.8680    0.69528
  0.8700    0.69953
  0.8720    0.70007
  0.8740    0.69462
  0.8760    0.68556
  0.8780    0.66429
  0.8800    0.64510
  0.8820    0.62612
  0.8840    0.60364
  0.8860    0.57334
  0.8880    0.54173
  0.8900    0.52022
  0.8920    0.49346
  0.8940    0.47209
  0.8960    0.45436
  0.8980    0.42955
  0.9000    0.40964
  0.9020    0.39129
  0.9040    0.37454
  0.9060    0.35747
  0.9080    0.33998
  0.9100    0.32515
  0.9120    0.31698
  0.9140    0.30121
  0.9160    0.29257
  0.9180    0.28454
  0.9200    0.27064
  0.9220    0.25978
  0.9240    0.25248
  0.9260    0.24188
  0.9280    0.22532
  0.9300    0.21061
  0.9320    0.19238
  0.9340    0.17226
  0.9360    0.16168
  0.9380    0.14311
  0.9400    0.12635
  0.9420    0.10794
  0.9440    0.09372
  0.9460    0.08076
  0.9480    0.06753
  0.9500    0.05238
  0.9520    0.03255
  0.9540    0.00919
  0.9560   -0.02050
  0.9580   -0.04989
  0.9600   -0.08125
  0.9620   -0.11080
  0.9640   -0.14040
  0.9660   -0.16244
  0.9680   -0.17269
  0.9700   -0.18741
  0.9720   -0.20716
  0.9740   -0.22603
  0.9760   -0.24015
  0.9780   -0.26161
  0.9800   -0.28379
  0.9820   -0.30887
  0.9840   -0.33134
  0.9860   -0.35358
  0.9880   -0.36740
  0.9900   -0.37388
  0.9920   -0.37615
  0.9940   -0.37247
  0.9960   -0.36552
  0.9980   -0.35278
  1.0000   -0.33818
