# z (nm)   (kJ/mol)
  0.076000,272.856950
  0.078000,270.204400
  0.080000,266.618520
  0.082000,263.400070
  0.084000,260.399440
  0.086000,257.436590
  0.088000,254.495420
  0.090000,251.584400
  0.092000,248.606750
  0.094000,245.585570
  0.096000,242.499630
  0.098000,239.336910
  0.100000,236.098970
  0.102000,232.771210
  0.104000,229.352060
  0.106000,225.834370
  0.108000,222.212640
  0.110000,218.486340
  0.112000,214.654350
  0.114000,210.715910
  0.116000,206.681620
  0.118000,202.554270
  0.120000,198.346230
  0.122000,194.078080
  0.124000,189.766510
  0.126000,185.435440
  0.128000,181.103660
  0.130000,176.799420
  0.132000,172.537860
  0.134000,168.319810
  0.136000,164.163130
  0.138000,160.060670
  0.140000,156.008210
  0.142000,152.005700
  0.144000,148.066890
  0.146000,144.214700
  0.148000,140.484340
  0.150000,136.894860
  0.152000,133.459940
  0.154000,130.152220
  0.156000,126.937690
  0.158000,123.775920
  0.160000,120.633380
  0.162000,117.496340
  0.164000,114.367130
  0.166000,111.247640
  0.168000,108.149270
  0.170000,105.064170
  0.172000,101.987410
  0.174000, 98.916560
  0.176000, 95.852120
  0.178000, 92.796960
  0.180000, 89.760320
  0.182000, 86.746790
  0.184000, 83.770900
  0.186000, 80.844390
  0.188000, 77.972520
  0.190000, 75.166380
  0.192000, 72.423940
  0.194000, 69.746400
  0.196000, 67.129220
  0.198000, 64.567740
  0.200000, 62.054640
  0.202000, 59.595040
  0.204000, 57.175790
  0.206000, 54.791280
  0.208000, 52.450610
  0.210000, 50.147700
  0.212000, 47.881560
  0.214000, 45.662920
  0.216000, 43.492880
  0.218000, 41.374710
  0.220000, 39.317040
  0.222000, 37.307620
  0.224000, 35.360700
  0.226000, 33.467980
  0.228000, 31.625240
  0.230000, 29.827370
  0.232000, 28.062750
  0.234000, 26.328650
  0.236000, 24.630620
  0.238000, 22.950190
  0.240000, 21.292330
  0.242000, 19.663000
  0.244000, 18.081400
  0.246000, 16.534120
  0.248000, 15.034660
  0.250000, 13.588910
  0.252000, 12.200660
  0.254000, 10.873560
  0.256000,  9.600470
  0.258000,  8.383800
  0.260000,  7.212650
  0.262000,  6.081540
  0.264000,  4.990680
  0.266000,  3.930940
  0.268000,  2.900720
  0.270000,  1.912750
  0.272000,  0.963130
  0.274000,  0.045010
  0.276000, -0.835820
  0.278000, -1.662610
  0.280000, -2.436970
  0.282000, -3.171250
  0.284000, -3.858980
  0.286000, -4.503270
  0.288000, -5.115880
  0.290000, -5.686510
  0.292000, -6.234840
  0.294000, -6.755520
  0.296000, -7.242760
  0.298000, -7.708080
  0.300000, -8.150520
  0.302000, -8.569770
  0.304000, -8.958650
  0.306000, -9.313790
  0.308000, -9.653160
  0.310000, -9.965030
  0.312000,-10.233120
  0.314000,-10.486490
  0.316000,-10.713650
  0.318000,-10.907310
  0.320000,-11.075700
  0.322000,-11.219950
  0.324000,-11.343260
  0.326000,-11.450610
  0.328000,-11.536450
  0.330000,-11.610130
  0.332000,-11.663500
  0.334000,-11.697380
  0.336000,-11.710820
  0.338000,-11.704170
  0.340000,-11.679320
  0.342000,-11.633150
  0.344000,-11.579730
  0.346000,-11.512830
  0.348000,-11.446890
  0.350000,-11.372020
  0.352000,-11.295560
  0.354000,-11.207700
  0.356000,-11.105000
  0.358000,-10.990240
  0.360000,-10.856840
  0.362000,-10.705310
  0.364000,-10.544180
  0.366000,-10.370170
  0.368000,-10.194220
  0.370000,-10.023670
  0.372000, -9.851590
  0.374000, -9.691870
  0.376000, -9.539350
  0.378000, -9.390380
  0.380000, -9.246820
  0.382000, -9.099460
  0.384000, -8.939800
  0.386000, -8.785950
  0.388000, -8.620630
  0.390000, -8.445470
  0.392000, -8.261860
  0.394000, -8.067980
  0.396000, -7.878280
  0.398000, -7.687660
  0.400000, -7.501710
  0.402000, -7.324100
  0.404000, -7.157690
  0.406000, -7.000290
  0.408000, -6.847530
  0.410000, -6.699750
  0.412000, -6.554590
  0.414000, -6.412180
  0.416000, -6.275480
  0.418000, -6.139060
  0.420000, -6.011450
  0.422000, -5.888730
  0.424000, -5.769520
  0.426000, -5.652110
  0.428000, -5.524790
  0.430000, -5.394230
  0.432000, -5.254940
  0.434000, -5.112750
  0.436000, -4.970520
  0.438000, -4.835590
  0.440000, -4.706580
  0.442000, -4.594200
  0.444000, -4.491600
  0.446000, -4.408480
  0.448000, -4.336880
  0.450000, -4.270920
  0.452000, -4.220200
  0.454000, -4.176120
  0.456000, -4.127710
  0.458000, -4.070100
  0.460000, -4.008930
  0.462000, -3.942620
  0.464000, -3.869940
  0.466000, -3.795370
  0.468000, -3.724290
  0.470000, -3.656960
  0.472000, -3.607250
  0.474000, -3.572500
  0.476000, -3.550770
  0.478000, -3.536570
  0.480000, -3.535520
  0.482000, -3.528980
  0.484000, -3.519450
  0.486000, -3.497110
  0.488000, -3.472570
  0.490000, -3.424460
  0.492000, -3.373290
  0.494000, -3.323930
  0.496000, -3.274590
  0.498000, -3.225470
  0.500000, -3.177990
  0.502000, -3.135090
  0.504000, -3.090090
  0.506000, -3.038950
  0.508000, -2.976650
  0.510000, -2.896930
  0.512000, -2.797830
  0.514000, -2.681980
  0.516000, -2.551480
  0.518000, -2.409640
  0.520000, -2.270670
  0.522000, -2.134040
  0.524000, -1.996600
  0.526000, -1.871560
  0.528000, -1.752960
  0.530000, -1.632480
  0.532000, -1.515290
  0.534000, -1.385510
  0.536000, -1.255100
  0.538000, -1.117490
  0.540000, -0.965540
  0.542000, -0.806250
  0.544000, -0.637960
  0.546000, -0.467320
  0.548000, -0.299340
  0.550000, -0.135520
  0.552000,  0.036150
  0.554000,  0.198450
  0.556000,  0.363170
  0.558000,  0.519220
  0.560000,  0.675170
  0.562000,  0.827770
  0.564000,  0.970030
  0.566000,  1.114970
  0.568000,  1.252490
  0.570000,  1.393460
  0.572000,  1.522630
  0.574000,  1.647680
  0.576000,  1.771700
  0.578000,  1.885920
  0.580000,  1.994150
  0.582000,  2.091040
  0.584000,  2.180020
  0.586000,  2.259700
  0.588000,  2.330370
  0.590000,  2.382250
  0.592000,  2.426830
  0.594000,  2.449030
  0.596000,  2.461490
  0.598000,  2.465150
  0.600000,  2.464360
  0.602000,  2.460900
  0.604000,  2.455100
  0.606000,  2.459170
  0.608000,  2.459850
  0.610000,  2.456670
  0.612000,  2.448730
  0.614000,  2.430890
  0.616000,  2.397790
  0.618000,  2.345290
  0.620000,  2.276000
  0.622000,  2.191710
  0.624000,  2.089340
  0.626000,  1.987640
  0.628000,  1.875570
  0.630000,  1.772890
  0.632000,  1.673130
  0.634000,  1.582600
  0.636000,  1.507810
  0.638000,  1.441630
  0.640000,  1.384600
  0.642000,  1.338240
  0.644000,  1.291070
  0.646000,  1.242340
  0.648000,  1.193020
  0.650000,  1.137850
  0.652000,  1.075880
  0.654000,  1.009740
  0.656000,  0.929220
  0.658000,  0.850090
  0.660000,  0.775960
  0.662000,  0.700890
  0.664000,  0.637700
  0.666000,  0.582350
  0.668000,  0.539500
  0.670000,  0.501730
  0.672000,  0.473880
  0.674000,  0.451320
  0.676000,  0.427530
  0.678000,  0.407470
  0.680000,  0.379170
  0.682000,  0.350140
  0.684000,  0.320020
  0.686000,  0.291170
  0.688000,  0.265810
  0.690000,  0.248170
  0.692000,  0.241990
  0.694000,  0.251710
  0.696000,  0.268980
  0.698000,  0.289690
  0.700000,  0.309480
  0.702000,  0.327400
  0.704000,  0.336470
  0.706000,  0.337410
  0.708000,  0.325600
  0.710000,  0.305270
  0.712000,  0.277850
  0.714000,  0.246870
  0.716000,  0.212460
  0.718000,  0.187910
  0.720000,  0.170160
  0.722000,  0.154520
  0.724000,  0.139950
  0.726000,  0.129670
  0.728000,  0.123240
  0.730000,  0.120330
  0.732000,  0.119510
  0.734000,  0.122170
  0.736000,  0.132750
  0.738000,  0.144840
  0.740000,  0.158870
  0.742000,  0.176410
  0.744000,  0.190480
  0.746000,  0.191640
  0.748000,  0.178730
  0.750000,  0.151530
  0.752000,  0.108070
  0.754000,  0.059820
  0.756000,  0.006030
  0.758000, -0.042310
  0.760000, -0.083170
  0.762000, -0.120540
  0.764000, -0.147470
  0.766000, -0.155580
  0.768000, -0.160080
  0.770000, -0.151420
  0.772000, -0.129350
  0.774000, -0.103150
  0.776000, -0.070060
  0.778000, -0.038420
  0.780000, -0.004440
  0.782000,  0.024550
  0.784000,  0.046460
  0.786000,  0.061410
  0.788000,  0.077140
  0.790000,  0.082880
  0.792000,  0.085020
  0.794000,  0.078060
  0.796000,  0.074840
  0.798000,  0.069080
  0.800000,  0.059520
  0.802000,  0.057100
  0.804000,  0.051810
  0.806000,  0.059400
  0.808000,  0.060620
  0.810000,  0.060700
  0.812000,  0.058050
  0.814000,  0.057410
  0.816000,  0.060480
  0.818000,  0.057090
  0.820000,  0.054600
  0.822000,  0.060540
  0.824000,  0.069830
  0.826000,  0.084890
  0.828000,  0.107630
  0.830000,  0.129810
  0.832000,  0.154060
  0.834000,  0.179040
  0.836000,  0.200800
  0.838000,  0.216450
  0.840000,  0.233030
  0.842000,  0.239760
  0.844000,  0.244820
  0.846000,  0.251040
  0.848000,  0.250140
  0.850000,  0.244860
  0.852000,  0.244040
  0.854000,  0.243920
  0.856000,  0.254870
  0.858000,  0.269480
  0.860000,  0.275170
  0.862000,  0.290270
  0.864000,  0.300610
  0.866000,  0.312440
  0.868000,  0.318790
  0.870000,  0.323860
  0.872000,  0.320320
  0.874000,  0.311370
  0.876000,  0.295710
  0.878000,  0.280780
  0.880000,  0.269880
  0.882000,  0.256640
  0.884000,  0.245600
  0.886000,  0.234150
  0.888000,  0.223360
  0.890000,  0.217990
  0.892000,  0.210900
  0.894000,  0.214610
  0.896000,  0.217390
  0.898000,  0.212220
  0.900000,  0.206530
  0.902000,  0.203170
  0.904000,  0.191790
  0.906000,  0.181140
  0.908000,  0.170020
  0.910000,  0.159960
  0.912000,  0.151590
  0.914000,  0.154410
  0.916000,  0.150900
  0.918000,  0.152750
  0.920000,  0.156620
  0.922000,  0.164050
  0.924000,  0.170080
  0.926000,  0.176590
  0.928000,  0.183260
  0.930000,  0.183720
  0.932000,  0.182860
  0.934000,  0.174990
  0.936000,  0.162490
  0.938000,  0.144010
  0.940000,  0.125080
  0.942000,  0.108370
  0.944000,  0.089030
  0.946000,  0.071580
  0.948000,  0.057920
  0.950000,  0.043040
  0.952000,  0.024020
  0.954000,  0.007490
  0.956000, -0.011750
  0.958000, -0.026860
  0.960000, -0.049540
  0.962000, -0.069540
  0.964000, -0.098800
  0.966000, -0.126880
  0.968000, -0.146310
  0.970000, -0.165960
  0.972000, -0.187240
  0.974000, -0.211780
  0.976000, -0.223290
  0.978000, -0.236670
  0.980000, -0.242340
  0.982000, -0.245680
  0.984000, -0.241460
  0.986000, -0.225420
  0.988000, -0.212970
  0.990000, -0.195280
  0.992000, -0.179120
  0.994000, -0.160990
  0.996000, -0.156340
  0.998000, -0.158670
  1.000000, -0.168060
