# z (nm)   (kJ/mol)
  0.1260  265.80307
  0.1280  263.42070
  0.1300  261.07132
  0.1320  258.46108
  0.1340  255.83588
  0.1360  253.47291
  0.1380  251.02548
  0.1400  248.42635
  0.1420  245.94384
  0.1440  243.37098
  0.1460  240.74510
  0.1480  238.08097
  0.1500  235.32689
  0.1520  232.48023
  0.1540  229.52796
  0.1560  226.46692
  0.1580  223.29303
  0.1600  220.00293
  0.1620  216.60963
  0.1640  213.12103
  0.1660  209.55896
  0.1680  205.93185
  0.1700  202.26825
  0.1720  198.57579
  0.1740  194.85954
  0.1760  191.10424
  0.1780  187.29098
  0.1800  183.39579
  0.1820  179.40114
  0.1840  175.31582
  0.1860  171.18808
  0.1880  167.08373
  0.1900  163.05892
  0.1920  159.15812
  0.1940  155.39475
  0.1960  151.76972
  0.1980  148.26843
  0.2000  144.88038
  0.2020  141.58781
  0.2040  138.37396
  0.2060  135.20443
  0.2080  132.06685
  0.2100  128.94457
  0.2120  125.84289
  0.2140  122.76217
  0.2160  119.71654
  0.2180  116.70388
  0.2200  113.73308
  0.2220  110.78765
  0.2240  107.85759
  0.2260  104.93957
  0.2280  102.03661
  0.2300   99.17109
  0.2320   96.36847
  0.2340   93.65934
  0.2360   91.05950
  0.2380   88.56607
  0.2400   86.15301
  0.2420   83.77664
  0.2440   81.41690
  0.2460   79.05814
  0.2480   76.70090
  0.2500   74.36298
  0.2520   72.06207
  0.2540   69.82636
  0.2560   67.65557
  0.2580   65.55930
  0.2600   63.52227
  0.2620   61.54969
  0.2640   59.62793
  0.2660   57.75278
  0.2680   55.90459
  0.2700   54.08555
  0.2720   52.28059
  0.2740   50.47920
  0.2760   48.69916
  0.2780   46.96454
  0.2800   45.30625
  0.2820   43.74146
  0.2840   42.26862
  0.2860   40.87333
  0.2880   39.49195
  0.2900   38.07992
  0.2920   36.60756
  0.2940   35.07502
  0.2960   33.51140
  0.2980   31.96294
  0.3000   30.48196
  0.3020   29.07394
  0.3040   27.75209
  0.3060   26.47852
  0.3080   25.23207
  0.3100   24.00770
  0.3120   22.81554
  0.3140   21.66172
  0.3160   20.53628
  0.3180   19.43348
  0.3200   18.33537
  0.3220   17.21893
  0.3240   16.09887
  0.3260   15.00507
  0.3280   13.94872
  0.3300   12.95378
  0.3320   12.02686
  0.3340   11.14522
  0.3360   10.29601
  0.3380    9.44973
  0.3400    8.59741
  0.3420    7.73064
  0.3440    6.85600
  0.3460    5.97406
  0.3480    5.10180
  0.3500    4.26827
  0.3520    3.46259
  0.3540    2.70094
  0.3560    1.98274
  0.3580    1.30467
  0.3600    0.66627
  0.3620    0.04581
  0.3640   -0.56171
  0.3660   -1.15892
  0.3680   -1.75338
  0.3700   -2.33699
  0.3720   -2.89895
  0.3740   -3.42704
  0.3760   -3.91403
  0.3780   -4.34888
  0.3800   -4.73448
  0.3820   -5.06697
  0.3840   -5.36189
  0.3860   -5.62410
  0.3880   -5.87895
  0.3900   -6.13607
  0.3920   -6.39832
  0.3940   -6.66411
  0.3960   -6.91928
  0.3980   -7.15206
  0.4000   -7.35655
  0.4020   -7.53002
  0.4040   -7.66080
  0.4060   -7.75758
  0.4080   -7.83579
  0.4100   -7.90383
  0.4120   -7.97541
  0.4140   -8.06268
  0.4160   -8.16916
  0.4180   -8.28903
  0.4200   -8.40332
  0.4220   -8.50412
  0.4240   -8.58452
  0.4260   -8.64106
  0.4280   -8.66791
  0.4300   -8.66895
  0.4320   -8.66325
  0.4340   -8.65189
  0.4360   -8.64954
  0.4380   -8.66582
  0.4400   -8.70896
  0.4420   -8.76437
  0.4440   -8.83063
  0.4460   -8.89436
  0.4480   -8.95230
  0.4500   -8.99172
  0.4520   -9.01645
  0.4540   -9.03207
  0.4560   -9.03398
  0.4580   -9.03836
  0.4600   -9.04828
  0.4620   -9.07219
  0.4640   -9.10070
  0.4660   -9.13531
  0.4680   -9.18095
  0.4700   -9.23153
  0.4720   -9.27987
  0.4740   -9.33064
  0.4760   -9.37695
  0.4780   -9.40992
  0.4800   -9.41543
  0.4820   -9.40923
  0.4840   -9.38808
  0.4860   -9.35471
  0.4880   -9.31496
  0.4900   -9.28983
  0.4920   -9.28197
  0.4940   -9.30171
  0.4960   -9.34463
  0.4980   -9.40746
  0.5000   -9.47664
  0.5020   -9.54092
  0.5040   -9.60061
  0.5060   -9.64953
  0.5080   -9.70522
  0.5100   -9.76256
  0.5120   -9.83716
  0.5140   -9.92695
  0.5160  -10.02936
  0.5180  -10.14769
  0.5200  -10.24858
  0.5220  -10.34473
  0.5240  -10.42751
  0.5260  -10.48334
  0.5280  -10.53355
  0.5300  -10.57890
  0.5320  -10.63013
  0.5340  -10.68949
  0.5360  -10.76158
  0.5380  -10.84177
  0.5400  -10.92835
  0.5420  -11.00089
  0.5440  -11.06213
  0.5460  -11.11384
  0.5480  -11.14683
  0.5500  -11.17670
  0.5520  -11.18203
  0.5540  -11.19304
  0.5560  -11.20438
  0.5580  -11.21825
  0.5600  -11.24653
  0.5620  -11.28161
  0.5640  -11.32344
  0.5660  -11.36340
  0.5680  -11.39504
  0.5700  -11.40567
  0.5720  -11.39633
  0.5740  -11.36016
  0.5760  -11.29474
  0.5780  -11.19699
  0.5800  -11.07849
  0.5820  -10.94354
  0.5840  -10.82700
  0.5860  -10.72314
  0.5880  -10.64016
  0.5900  -10.57584
  0.5920  -10.50568
  0.5940  -10.41459
  0.5960  -10.28577
  0.5980  -10.11724
  0.6000   -9.90930
  0.6020   -9.67438
  0.6040   -9.43753
  0.6060   -9.20603
  0.6080   -8.99498
  0.6100   -8.81618
  0.6120   -8.66675
  0.6140   -8.53864
  0.6160   -8.43559
  0.6180   -8.33955
  0.6200   -8.26262
  0.6220   -8.17423
  0.6240   -8.07849
  0.6260   -7.97284
  0.6280   -7.83526
  0.6300   -7.68215
  0.6320   -7.51188
  0.6340   -7.35796
  0.6360   -7.22930
  0.6380   -7.14190
  0.6400   -7.11371
  0.6420   -7.14131
  0.6440   -7.20533
  0.6460   -7.27876
  0.6480   -7.33316
  0.6500   -7.35081
  0.6520   -7.32472
  0.6540   -7.26584
  0.6560   -7.20346
  0.6580   -7.15648
  0.6600   -7.13970
  0.6620   -7.15810
  0.6640   -7.19743
  0.6660   -7.24708
  0.6680   -7.29238
  0.6700   -7.32892
  0.6720   -7.33817
  0.6740   -7.32468
  0.6760   -7.28796
  0.6780   -7.22675
  0.6800   -7.15191
  0.6820   -7.07153
  0.6840   -6.98522
  0.6860   -6.90517
  0.6880   -6.82733
  0.6900   -6.75891
  0.6920   -6.68159
  0.6940   -6.60168
  0.6960   -6.49684
  0.6980   -6.36540
  0.7000   -6.21736
  0.7020   -6.05220
  0.7040   -5.87961
  0.7060   -5.71336
  0.7080   -5.55849
  0.7100   -5.41081
  0.7120   -5.27372
  0.7140   -5.12636
  0.7160   -4.96697
  0.7180   -4.78323
  0.7200   -4.58048
  0.7220   -4.34501
  0.7240   -4.08021
  0.7260   -3.81220
  0.7280   -3.55130
  0.7300   -3.30501
  0.7320   -3.08940
  0.7340   -2.90138
  0.7360   -2.72940
  0.7380   -2.57830
  0.7400   -2.42895
  0.7420   -2.27689
  0.7440   -2.11351
  0.7460   -1.94176
  0.7480   -1.76699
  0.7500   -1.60091
  0.7520   -1.43999
  0.7540   -1.29523
  0.7560   -1.16265
  0.7580   -1.04031
  0.7600   -0.92883
  0.7620   -0.82708
  0.7640   -0.73140
  0.7660   -0.64228
  0.7680   -0.55921
  0.7700   -0.48884
  0.7720   -0.42318
  0.7740   -0.36975
  0.7760   -0.33491
  0.7780   -0.31583
  0.7800   -0.30304
  0.7820   -0.29820
  0.7840   -0.30272
  0.7860   -0.30640
  0.7880   -0.30599
  0.7900   -0.29750
  0.7920   -0.29086
  0.7940   -0.27452
  0.7960   -0.26684
  0.7980   -0.25168
  0.8000   -0.24329
  0.8020   -0.22839
  0.8040   -0.21940
  0.8060   -0.20782
  0.8080   -0.19934
  0.8100   -0.19213
  0.8120   -0.18880
  0.8140   -0.19510
  0.8160   -0.21174
  0.8180   -0.24035
  0.8200   -0.27335
  0.8220   -0.31130
  0.8240   -0.33009
  0.8260   -0.34307
  0.8280   -0.35256
  0.8300   -0.35322
  0.8320   -0.35521
  0.8340   -0.36093
  0.8360   -0.36917
  0.8380   -0.38120
  0.8400   -0.40082
  0.8420   -0.41900
  0.8440   -0.43351
  0.8460   -0.44501
  0.8480   -0.44962
  0.8500   -0.45230
  0.8520   -0.45482
  0.8540   -0.45093
  0.8560   -0.45171
  0.8580   -0.45008
  0.8600   -0.44856
  0.8620   -0.45236
  0.8640   -0.45906
  0.8660   -0.46027
  0.8680   -0.44999
  0.8700   -0.44620
  0.8720   -0.42656
  0.8740   -0.40651
  0.8760   -0.37689
  0.8780   -0.34808
  0.8800   -0.31457
  0.8820   -0.28992
  0.8840   -0.26968
  0.8860   -0.25470
  0.8880   -0.24474
  0.8900   -0.24108
  0.8920   -0.24047
  0.8940   -0.23480
  0.8960   -0.22284
  0.8980   -0.20638
  0.9000   -0.18256
  0.9020   -0.14810
  0.9040   -0.10560
  0.9060   -0.06354
  0.9080   -0.02700
  0.9100    0.00519
  0.9120    0.00886
  0.9140    0.00540
  0.9160    0.00051
  0.9180   -0.00575
  0.9200   -0.00844
  0.9220   -0.00050
  0.9240    0.01304
  0.9260    0.03846
  0.9280    0.07830
  0.9300    0.11957
  0.9320    0.16095
  0.9340    0.19152
  0.9360    0.21380
  0.9380    0.22269
  0.9400    0.21784
  0.9420    0.19783
  0.9440    0.16208
  0.9460    0.12048
  0.9480    0.08015
  0.9500    0.03235
  0.9520   -0.00494
  0.9540   -0.02984
  0.9560   -0.04811
  0.9580   -0.04756
  0.9600   -0.03471
  0.9620   -0.00883
  0.9640    0.01462
  0.9660    0.03669
  0.9680    0.04784
  0.9700    0.05430
  0.9720    0.04118
  0.9740    0.02440
  0.9760    0.00262
  0.9780   -0.01728
  0.9800   -0.04015
  0.9820   -0.06722
  0.9840   -0.09082
  0.9860   -0.11046
  0.9880   -0.13025
  0.9900   -0.15135
  0.9920   -0.16442
  0.9940   -0.17769
  0.9960   -0.19101
  0.9980   -0.20026
  1.0000   -0.21683
