# z (nm)   (kJ/mol)
  0.080000,274.677850
  0.082000,270.896780
  0.084000,267.946110
  0.086000,265.208990
  0.088000,262.232690
  0.090000,259.369260
  0.092000,256.538220
  0.094000,253.670950
  0.096000,250.782230
  0.098000,247.862580
  0.100000,244.878260
  0.102000,241.824280
  0.104000,238.688690
  0.106000,235.462540
  0.108000,232.130850
  0.110000,228.695710
  0.112000,225.158450
  0.114000,221.518270
  0.116000,217.782200
  0.118000,213.959560
  0.120000,210.070920
  0.122000,206.127150
  0.124000,202.147110
  0.126000,198.146740
  0.128000,194.130980
  0.130000,190.113550
  0.132000,186.097440
  0.134000,182.085650
  0.136000,178.080100
  0.138000,174.089830
  0.140000,170.123120
  0.142000,166.190300
  0.144000,162.300460
  0.146000,158.461090
  0.148000,154.678470
  0.150000,150.957100
  0.152000,147.297370
  0.154000,143.693310
  0.156000,140.155130
  0.158000,136.678960
  0.160000,133.267690
  0.162000,129.918720
  0.164000,126.636380
  0.166000,123.412840
  0.168000,120.246780
  0.170000,117.136350
  0.172000,114.069580
  0.174000,111.038660
  0.176000,108.047370
  0.178000,105.084250
  0.180000,102.151430
  0.182000, 99.241930
  0.184000, 96.361550
  0.186000, 93.506300
  0.188000, 90.681220
  0.190000, 87.885730
  0.192000, 85.123630
  0.194000, 82.401870
  0.196000, 79.708400
  0.198000, 77.065850
  0.200000, 74.459710
  0.202000, 71.895850
  0.204000, 69.382240
  0.206000, 66.923980
  0.208000, 64.527910
  0.210000, 62.202360
  0.212000, 59.948980
  0.214000, 57.762490
  0.216000, 55.646010
  0.218000, 53.576690
  0.220000, 51.545400
  0.222000, 49.517460
  0.224000, 47.498770
  0.226000, 45.474470
  0.228000, 43.463730
  0.230000, 41.492490
  0.232000, 39.560910
  0.234000, 37.718350
  0.236000, 35.963440
  0.238000, 34.300190
  0.240000, 32.707680
  0.242000, 31.160660
  0.244000, 29.637750
  0.246000, 28.121930
  0.248000, 26.610020
  0.250000, 25.101340
  0.252000, 23.611340
  0.254000, 22.152290
  0.256000, 20.748170
  0.258000, 19.405370
  0.260000, 18.125960
  0.262000, 16.916890
  0.264000, 15.777090
  0.266000, 14.684410
  0.268000, 13.634150
  0.270000, 12.621490
  0.272000, 11.633070
  0.274000, 10.664170
  0.276000,  9.711000
  0.278000,  8.776750
  0.280000,  7.868510
  0.282000,  6.981890
  0.284000,  6.132930
  0.286000,  5.321770
  0.288000,  4.550500
  0.290000,  3.831200
  0.292000,  3.158010
  0.294000,  2.529990
  0.296000,  1.949130
  0.298000,  1.407250
  0.300000,  0.902740
  0.302000,  0.429070
  0.304000, -0.017150
  0.306000, -0.444200
  0.308000, -0.845020
  0.310000, -1.229060
  0.312000, -1.599070
  0.314000, -1.955870
  0.316000, -2.298090
  0.318000, -2.624950
  0.320000, -2.934350
  0.322000, -3.224150
  0.324000, -3.496150
  0.326000, -3.742000
  0.328000, -3.972860
  0.330000, -4.185840
  0.332000, -4.391480
  0.334000, -4.578750
  0.336000, -4.749260
  0.338000, -4.914440
  0.340000, -5.064430
  0.342000, -5.205770
  0.344000, -5.341950
  0.346000, -5.463180
  0.348000, -5.580460
  0.350000, -5.686640
  0.352000, -5.785450
  0.354000, -5.879040
  0.356000, -5.962570
  0.358000, -6.043260
  0.360000, -6.114430
  0.362000, -6.172360
  0.364000, -6.227670
  0.366000, -6.270460
  0.368000, -6.305990
  0.370000, -6.332430
  0.372000, -6.354400
  0.374000, -6.360770
  0.376000, -6.366890
  0.378000, -6.358260
  0.380000, -6.340770
  0.382000, -6.310340
  0.384000, -6.271240
  0.386000, -6.222440
  0.388000, -6.159860
  0.390000, -6.089730
  0.392000, -6.006180
  0.394000, -5.922880
  0.396000, -5.838540
  0.398000, -5.750310
  0.400000, -5.660670
  0.402000, -5.571770
  0.404000, -5.480950
  0.406000, -5.388020
  0.408000, -5.293820
  0.410000, -5.197260
  0.412000, -5.100690
  0.414000, -5.000470
  0.416000, -4.902610
  0.418000, -4.801420
  0.420000, -4.697270
  0.422000, -4.586680
  0.424000, -4.481510
  0.426000, -4.373950
  0.428000, -4.267670
  0.430000, -4.157790
  0.432000, -4.057970
  0.434000, -3.957540
  0.436000, -3.854880
  0.438000, -3.747920
  0.440000, -3.644730
  0.442000, -3.535230
  0.444000, -3.422690
  0.446000, -3.313810
  0.448000, -3.199550
  0.450000, -3.072760
  0.452000, -2.942040
  0.454000, -2.809880
  0.456000, -2.672250
  0.458000, -2.535690
  0.460000, -2.396290
  0.462000, -2.260990
  0.464000, -2.126680
  0.466000, -1.998340
  0.468000, -1.868170
  0.470000, -1.737520
  0.472000, -1.611390
  0.474000, -1.483470
  0.476000, -1.350190
  0.478000, -1.220100
  0.480000, -1.088550
  0.482000, -0.956500
  0.484000, -0.824450
  0.486000, -0.692980
  0.488000, -0.557400
  0.490000, -0.424940
  0.492000, -0.285900
  0.494000, -0.143120
  0.496000, -0.002550
  0.498000,  0.141480
  0.500000,  0.286550
  0.502000,  0.430110
  0.504000,  0.579370
  0.506000,  0.729710
  0.508000,  0.876980
  0.510000,  1.025300
  0.512000,  1.167740
  0.514000,  1.302180
  0.516000,  1.433080
  0.518000,  1.551560
  0.520000,  1.662000
  0.522000,  1.765830
  0.524000,  1.862170
  0.526000,  1.947830
  0.528000,  2.035150
  0.530000,  2.119440
  0.532000,  2.199990
  0.534000,  2.280110
  0.536000,  2.358080
  0.538000,  2.437250
  0.540000,  2.515280
  0.542000,  2.592170
  0.544000,  2.666230
  0.546000,  2.731170
  0.548000,  2.785680
  0.550000,  2.839120
  0.552000,  2.884690
  0.554000,  2.921460
  0.556000,  2.955710
  0.558000,  2.986800
  0.560000,  3.018310
  0.562000,  3.043100
  0.564000,  3.078830
  0.566000,  3.092150
  0.568000,  3.096170
  0.570000,  3.095800
  0.572000,  3.082020
  0.574000,  3.057270
  0.576000,  3.022770
  0.578000,  2.984710
  0.580000,  2.941210
  0.582000,  2.900290
  0.584000,  2.856490
  0.586000,  2.811540
  0.588000,  2.770150
  0.590000,  2.731240
  0.592000,  2.697280
  0.594000,  2.661690
  0.596000,  2.626040
  0.598000,  2.586770
  0.600000,  2.547360
  0.602000,  2.497790
  0.604000,  2.451050
  0.606000,  2.394480
  0.608000,  2.329330
  0.610000,  2.256680
  0.612000,  2.176530
  0.614000,  2.084430
  0.616000,  1.977960
  0.618000,  1.869790
  0.620000,  1.748830
  0.622000,  1.630190
  0.624000,  1.511970
  0.626000,  1.391420
  0.628000,  1.283860
  0.630000,  1.182840
  0.632000,  1.091720
  0.634000,  1.019650
  0.636000,  0.957060
  0.638000,  0.905340
  0.640000,  0.865250
  0.642000,  0.824580
  0.644000,  0.794620
  0.646000,  0.766960
  0.648000,  0.730430
  0.650000,  0.688250
  0.652000,  0.642760
  0.654000,  0.590630
  0.656000,  0.535380
  0.658000,  0.468950
  0.660000,  0.400440
  0.662000,  0.330350
  0.664000,  0.262030
  0.666000,  0.201300
  0.668000,  0.150150
  0.670000,  0.110760
  0.672000,  0.083240
  0.674000,  0.070650
  0.676000,  0.066580
  0.678000,  0.069090
  0.680000,  0.077930
  0.682000,  0.084730
  0.684000,  0.093150
  0.686000,  0.104080
  0.688000,  0.104130
  0.690000,  0.104840
  0.692000,  0.104990
  0.694000,  0.097490
  0.696000,  0.089780
  0.698000,  0.083750
  0.700000,  0.072470
  0.702000,  0.063880
  0.704000,  0.053250
  0.706000,  0.043620
  0.708000,  0.034790
  0.710000,  0.025400
  0.712000,  0.017210
  0.714000,  0.013330
  0.716000,  0.009400
  0.718000,  0.003290
  0.720000, -0.005710
  0.722000, -0.005860
  0.724000, -0.004480
  0.726000, -0.003530
  0.728000, -0.001580
  0.730000,  0.005730
  0.732000,  0.019840
  0.734000,  0.037270
  0.736000,  0.054100
  0.738000,  0.072660
  0.740000,  0.089930
  0.742000,  0.108120
  0.744000,  0.131990
  0.746000,  0.155860
  0.748000,  0.173920
  0.750000,  0.192360
  0.752000,  0.209950
  0.754000,  0.227420
  0.756000,  0.242240
  0.758000,  0.253720
  0.760000,  0.266670
  0.762000,  0.273240
  0.764000,  0.278550
  0.766000,  0.279860
  0.768000,  0.279000
  0.770000,  0.280080
  0.772000,  0.278620
  0.774000,  0.274740
  0.776000,  0.276010
  0.778000,  0.282280
  0.780000,  0.291560
  0.782000,  0.300820
  0.784000,  0.312480
  0.786000,  0.329090
  0.788000,  0.347840
  0.790000,  0.359860
  0.792000,  0.386280
  0.794000,  0.411100
  0.796000,  0.438080
  0.798000,  0.461770
  0.800000,  0.486050
  0.802000,  0.508220
  0.804000,  0.536450
  0.806000,  0.560300
  0.808000,  0.574920
  0.810000,  0.587410
  0.812000,  0.601250
  0.814000,  0.608300
  0.816000,  0.611610
  0.818000,  0.608470
  0.820000,  0.605160
  0.822000,  0.597300
  0.824000,  0.594920
  0.826000,  0.581900
  0.828000,  0.567210
  0.830000,  0.544960
  0.832000,  0.528680
  0.834000,  0.514790
  0.836000,  0.497190
  0.838000,  0.487560
  0.840000,  0.475450
  0.842000,  0.469310
  0.844000,  0.466180
  0.846000,  0.466960
  0.848000,  0.471980
  0.850000,  0.479810
  0.852000,  0.488060
  0.854000,  0.497380
  0.856000,  0.507050
  0.858000,  0.516840
  0.860000,  0.522390
  0.862000,  0.526420
  0.864000,  0.528350
  0.866000,  0.531940
  0.868000,  0.531930
  0.870000,  0.528070
  0.872000,  0.524520
  0.874000,  0.518530
  0.876000,  0.514180
  0.878000,  0.507640
  0.880000,  0.506220
  0.882000,  0.501000
  0.884000,  0.496400
  0.886000,  0.486960
  0.888000,  0.474720
  0.890000,  0.464800
  0.892000,  0.454770
  0.894000,  0.447720
  0.896000,  0.433220
  0.898000,  0.420900
  0.900000,  0.411530
  0.902000,  0.400610
  0.904000,  0.391020
  0.906000,  0.381780
  0.908000,  0.370180
  0.910000,  0.352950
  0.912000,  0.336540
  0.914000,  0.316320
  0.916000,  0.298710
  0.918000,  0.269680
  0.920000,  0.244500
  0.922000,  0.214010
  0.924000,  0.192440
  0.926000,  0.168380
  0.928000,  0.144820
  0.930000,  0.118710
  0.932000,  0.097590
  0.934000,  0.081860
  0.936000,  0.073050
  0.938000,  0.058240
  0.940000,  0.044200
  0.942000,  0.033130
  0.944000,  0.018280
  0.946000,  0.006030
  0.948000, -0.006090
  0.950000, -0.019490
  0.952000, -0.033960
  0.954000, -0.044630
  0.956000, -0.059800
  0.958000, -0.071460
  0.960000, -0.082550
  0.962000, -0.100470
  0.964000, -0.120460
  0.966000, -0.142900
  0.968000, -0.171110
  0.970000, -0.196540
  0.972000, -0.222380
  0.974000, -0.248200
  0.976000, -0.268560
  0.978000, -0.282550
  0.980000, -0.290650
  0.982000, -0.294410
  0.984000, -0.289910
  0.986000, -0.275350
  0.988000, -0.250340
  0.990000, -0.231240
  0.992000, -0.209450
  0.994000, -0.189910
  0.996000, -0.171890
  0.998000, -0.167810
  1.000000, -0.170910
