# z (nm)   (kJ/mol)
  0.3480  309.04074
  0.3500  302.94526
  0.3520  299.10560
  0.3540  295.71710
  0.3560  292.17599
  0.3580  288.54611
  0.3600  284.94378
  0.3620  281.19450
  0.3640  277.27220
  0.3660  273.13033
  0.3680  268.76615
  0.3700  264.14678
  0.3720  259.25803
  0.3740  254.09322
  0.3760  248.64459
  0.3780  242.91542
  0.3800  236.91587
  0.3820  230.65655
  0.3840  224.16076
  0.3860  217.45048
  0.3880  210.56410
  0.3900  203.54431
  0.3920  196.44619
  0.3940  189.33157
  0.3960  182.27048
  0.3980  175.35239
  0.4000  168.65582
  0.4020  162.25062
  0.4040  156.17936
  0.4060  150.46274
  0.4080  145.09187
  0.4100  140.03650
  0.4120  135.25804
  0.4140  130.72693
  0.4160  126.41217
  0.4180  122.30142
  0.4200  118.38024
  0.4220  114.63806
  0.4240  111.06112
  0.4260  107.63788
  0.4280  104.34777
  0.4300  101.18161
  0.4320   98.13262
  0.4340   95.18586
  0.4360   92.32972
  0.4380   89.53287
  0.4400   86.76910
  0.4420   84.01204
  0.4440   81.24975
  0.4460   78.50234
  0.4480   75.79112
  0.4500   73.14797
  0.4520   70.60211
  0.4540   68.16744
  0.4560   65.82852
  0.4580   63.58559
  0.4600   61.40363
  0.4620   59.27608
  0.4640   57.17727
  0.4660   55.11626
  0.4680   53.08111
  0.4700   51.07237
  0.4720   49.08504
  0.4740   47.13152
  0.4760   45.22421
  0.4780   43.38464
  0.4800   41.64257
  0.4820   40.01633
  0.4840   38.50384
  0.4860   37.08436
  0.4880   35.73672
  0.4900   34.43470
  0.4920   33.17751
  0.4940   31.96678
  0.4960   30.80904
  0.4980   29.72763
  0.5000   28.74223
  0.5020   27.85618
  0.5040   27.06131
  0.5060   26.34053
  0.5080   25.66355
  0.5100   24.99759
  0.5120   24.32660
  0.5140   23.65195
  0.5160   22.95464
  0.5180   22.25410
  0.5200   21.55022
  0.5220   20.83593
  0.5240   20.09396
  0.5260   19.30799
  0.5280   18.44467
  0.5300   17.49892
  0.5320   16.44708
  0.5340   15.30564
  0.5360   14.08146
  0.5380   12.78780
  0.5400   11.43451
  0.5420   10.04170
  0.5440    8.62253
  0.5460    7.19239
  0.5480    5.75431
  0.5500    4.33344
  0.5520    2.91464
  0.5540    1.51773
  0.5560    0.15772
  0.5580   -1.15904
  0.5600   -2.43316
  0.5620   -3.65584
  0.5640   -4.82440
  0.5660   -5.93449
  0.5680   -6.99467
  0.5700   -7.99493
  0.5720   -8.94321
  0.5740   -9.84263
  0.5760  -10.71497
  0.5780  -11.54860
  0.5800  -12.36378
  0.5820  -13.15120
  0.5840  -13.91651
  0.5860  -14.63706
  0.5880  -15.31538
  0.5900  -15.93578
  0.5920  -16.47195
  0.5940  -16.91230
  0.5960  -17.25815
  0.5980  -17.52893
  0.6000  -17.78767
  0.6020  -18.11098
  0.6040  -18.55536
  0.6060  -19.09588
  0.6080  -19.62410
  0.6100  -19.96825
  0.6120  -20.03941
  0.6140  -19.89045
  0.6160  -19.68344
  0.6180  -19.54937
  0.6200  -19.53962
  0.6220  -19.60550
  0.6240  -19.64820
  0.6260  -19.59901
  0.6280  -19.42012
  0.6300  -19.14592
  0.6320  -18.78495
  0.6340  -18.40728
  0.6360  -18.03195
  0.6380  -17.70088
  0.6400  -17.42322
  0.6420  -17.20760
  0.6440  -17.02442
  0.6460  -16.86586
  0.6480  -16.71126
  0.6500  -16.55232
  0.6520  -16.37928
  0.6540  -16.19506
  0.6560  -16.01403
  0.6580  -15.82325
  0.6600  -15.62304
  0.6620  -15.41275
  0.6640  -15.18592
  0.6660  -14.92494
  0.6680  -14.64982
  0.6700  -14.34755
  0.6720  -14.02615
  0.6740  -13.69678
  0.6760  -13.36540
  0.6780  -13.03131
  0.6800  -12.69495
  0.6820  -12.34319
  0.6840  -11.97426
  0.6860  -11.58606
  0.6880  -11.17694
  0.6900  -10.74376
  0.6920  -10.28963
  0.6940   -9.80685
  0.6960   -9.30482
  0.6980   -8.76066
  0.7000   -8.19356
  0.7020   -7.60375
  0.7040   -6.97347
  0.7060   -6.31790
  0.7080   -5.63620
  0.7100   -4.93505
  0.7120   -4.22780
  0.7140   -3.52060
  0.7160   -2.83445
  0.7180   -2.17558
  0.7200   -1.56508
  0.7220   -1.01637
  0.7240   -0.53364
  0.7260   -0.13356
  0.7280    0.18891
  0.7300    0.44411
  0.7320    0.63487
  0.7340    0.77052
  0.7360    0.86200
  0.7380    0.91750
  0.7400    0.95434
  0.7420    0.97586
  0.7440    0.99525
  0.7460    1.00499
  0.7480    1.02516
  0.7500    1.03492
  0.7520    1.04105
  0.7540    1.04390
  0.7560    1.06296
  0.7580    1.08137
  0.7600    1.09901
  0.7620    1.11616
  0.7640    1.14271
  0.7660    1.15941
  0.7680    1.17625
  0.7700    1.18387
  0.7720    1.19662
  0.7740    1.19219
  0.7760    1.18641
  0.7780    1.17398
  0.7800    1.15012
  0.7820    1.12256
  0.7840    1.09188
  0.7860    1.06265
  0.7880    1.03026
  0.7900    1.00959
  0.7920    0.98527
  0.7940    0.97035
  0.7960    0.95470
  0.7980    0.93128
  0.8000    0.89641
  0.8020    0.86493
  0.8040    0.82501
  0.8060    0.78409
  0.8080    0.73131
  0.8100    0.68125
  0.8120    0.62662
  0.8140    0.56794
  0.8160    0.50614
  0.8180    0.44773
  0.8200    0.39638
  0.8220    0.35183
  0.8240    0.31340
  0.8260    0.28095
  0.8280    0.25000
  0.8300    0.22827
  0.8320    0.21565
  0.8340    0.19168
  0.8360    0.16967
  0.8380    0.14166
  0.8400    0.11433
  0.8420    0.08187
  0.8440    0.05248
  0.8460    0.02933
  0.8480   -0.00065
  0.8500   -0.03025
  0.8520   -0.05313
  0.8540   -0.06962
  0.8560   -0.08412
  0.8580   -0.09788
  0.8600   -0.11045
  0.8620   -0.11711
  0.8640   -0.12329
  0.8660   -0.13183
  0.8680   -0.13791
  0.8700   -0.14527
  0.8720   -0.14832
  0.8740   -0.15217
  0.8760   -0.15807
  0.8780   -0.16653
  0.8800   -0.16521
  0.8820   -0.16094
  0.8840   -0.16159
  0.8860   -0.15476
  0.8880   -0.14745
  0.8900   -0.14001
  0.8920   -0.12885
  0.8940   -0.11557
  0.8960   -0.10460
  0.8980   -0.09267
  0.9000   -0.08839
  0.9020   -0.08135
  0.9040   -0.06747
  0.9060   -0.05509
  0.9080   -0.04375
  0.9100   -0.03349
  0.9120   -0.01723
  0.9140   -0.00128
  0.9160    0.02190
  0.9180    0.03799
  0.9200    0.05799
  0.9220    0.07654
  0.9240    0.09838
  0.9260    0.12514
  0.9280    0.15428
  0.9300    0.17793
  0.9320    0.20006
  0.9340    0.21553
  0.9360    0.22334
  0.9380    0.22526
  0.9400    0.22264
  0.9420    0.21614
  0.9440    0.20671
  0.9460    0.20482
  0.9480    0.19784
  0.9500    0.20054
  0.9520    0.19574
  0.9540    0.18669
  0.9560    0.18500
  0.9580    0.17804
  0.9600    0.17358
  0.9620    0.16976
  0.9640    0.17186
  0.9660    0.16603
  0.9680    0.16114
  0.9700    0.16227
  0.9720    0.15881
  0.9740    0.15776
  0.9760    0.16577
  0.9780    0.16946
  0.9800    0.17329
  0.9820    0.16868
  0.9840    0.16773
  0.9860    0.15785
  0.9880    0.13973
  0.9900    0.12180
  0.9920    0.10452
  0.9940    0.08353
  0.9960    0.05828
  0.9980    0.04300
  1.0000    0.02624
  1.0020    0.01994
  1.0040    0.01108
  1.0060    0.00717
  1.0080    0.01175
  1.0100    0.01644
  1.0120    0.02092
  1.0140    0.02546
  1.0160    0.02997
  1.0180    0.03149
  1.0200    0.02267
  1.0220    0.01668
  1.0240    0.00379
  1.0260   -0.01471
  1.0280   -0.03716
  1.0300   -0.05843
  1.0320   -0.07281
  1.0340   -0.08793
  1.0360   -0.09765
  1.0380   -0.10778
  1.0400   -0.10219
  1.0420   -0.09861
  1.0440   -0.09069
  1.0460   -0.07473
  1.0480   -0.05987
  1.0500   -0.04182
  1.0520   -0.03146
  1.0540   -0.02127
  1.0560   -0.01570
  1.0580   -0.01340
  1.0600   -0.02134
  1.0620   -0.02782
  1.0640   -0.03617
  1.0660   -0.04707
  1.0680   -0.05307
  1.0700   -0.05592
  1.0720   -0.05580
  1.0740   -0.05133
  1.0760   -0.04667
  1.0780   -0.03682
  1.0800   -0.02908
  1.0820   -0.01765
  1.0840   -0.00914
  1.0860   -0.00144
  1.0880    0.00611
  1.0900    0.00964
  1.0920    0.01424
  1.0940    0.01001
  1.0960    0.00901
  1.0980   -0.00015
  1.1000   -0.00846
  1.1020   -0.01615
  1.1040   -0.02399
  1.1060   -0.02943
  1.1080   -0.02868
  1.1100   -0.02905
  1.1120   -0.02515
  1.1140   -0.01156
  1.1160   -0.00531
  1.1180    0.00020
  1.1200    0.00515
  1.1220    0.01074
  1.1240    0.00768
  1.1260   -0.00153
  1.1280   -0.01520
  1.1300   -0.03696
  1.1320   -0.05396
  1.1340   -0.07796
  1.1360   -0.08661
  1.1380   -0.09707
  1.1400   -0.09708
  1.1420   -0.08738
  1.1440   -0.08139
  1.1460   -0.07093
  1.1480   -0.06204
  1.1500   -0.05124
  1.1520   -0.04404
  1.1540   -0.04096
  1.1560   -0.04400
  1.1580   -0.05294
  1.1600   -0.06431
  1.1620   -0.08319
  1.1640   -0.09966
  1.1660   -0.11530
  1.1680   -0.12641
  1.1700   -0.13774
  1.1720   -0.14954
  1.1740   -0.15619
  1.1760   -0.16981
  1.1780   -0.17631
  1.1800   -0.18388
  1.1820   -0.19313
  1.1840   -0.20180
  1.1860   -0.20570
  1.1880   -0.21853
  1.1900   -0.23013
  1.1920   -0.24000
  1.1940   -0.24897
  1.1960   -0.25811
  1.1980   -0.26810
  1.2000   -0.27851
