# z (nm)   (kJ/mol)
  0.4980  303.03531
  0.5000  300.07007
  0.5020  297.51601
  0.5040  295.16279
  0.5060  293.12777
  0.5080  291.39097
  0.5100  289.70290
  0.5120  288.01799
  0.5140  286.34539
  0.5160  284.60801
  0.5180  282.77795
  0.5200  280.78645
  0.5220  278.56981
  0.5240  276.06950
  0.5260  273.23477
  0.5280  270.02616
  0.5300  266.39385
  0.5320  262.27589
  0.5340  257.58511
  0.5360  252.24759
  0.5380  246.27970
  0.5400  239.82178
  0.5420  233.12618
  0.5440  226.45440
  0.5460  219.93135
  0.5480  213.52747
  0.5500  207.16323
  0.5520  200.77117
  0.5540  194.22365
  0.5560  187.39194
  0.5580  180.42956
  0.5600  173.57214
  0.5620  166.87771
  0.5640  160.37689
  0.5660  154.06037
  0.5680  147.81888
  0.5700  141.63239
  0.5720  135.63225
  0.5740  129.96561
  0.5760  124.70206
  0.5780  119.84438
  0.5800  115.37838
  0.5820  111.24490
  0.5840  107.33548
  0.5860  103.62249
  0.5880  100.15902
  0.5900   97.00423
  0.5920   94.03469
  0.5940   91.04442
  0.5960   87.97357
  0.5980   84.91771
  0.6000   81.99484
  0.6020   79.27601
  0.6040   76.77656
  0.6060   74.47864
  0.6080   72.31683
  0.6100   70.15451
  0.6120   67.92215
  0.6140   65.75907
  0.6160   63.85743
  0.6180   62.25833
  0.6200   60.84432
  0.6220   59.40316
  0.6240   57.75963
  0.6260   55.91290
  0.6280   53.99043
  0.6300   52.04905
  0.6320   50.09220
  0.6340   48.07384
  0.6360   45.97160
  0.6380   43.75905
  0.6400   41.46272
  0.6420   39.09048
  0.6440   36.64718
  0.6460   34.16523
  0.6480   31.67602
  0.6500   29.22069
  0.6520   26.82559
  0.6540   24.49098
  0.6560   22.22293
  0.6580   20.01610
  0.6600   17.89416
  0.6620   15.86779
  0.6640   13.95105
  0.6660   12.15035
  0.6680   10.45306
  0.6700    8.86464
  0.6720    7.40061
  0.6740    6.05193
  0.6760    4.79053
  0.6780    3.59588
  0.6800    2.47705
  0.6820    1.45279
  0.6840    0.52129
  0.6860   -0.31532
  0.6880   -1.08332
  0.6900   -1.80348
  0.6920   -2.50276
  0.6940   -3.18234
  0.6960   -3.84431
  0.6980   -4.48951
  0.7000   -5.11254
  0.7020   -5.72603
  0.7040   -6.31486
  0.7060   -6.89990
  0.7080   -7.46999
  0.7100   -8.02264
  0.7120   -8.54717
  0.7140   -9.04433
  0.7160   -9.52495
  0.7180  -10.01047
  0.7200  -10.50610
  0.7220  -10.98777
  0.7240  -11.43693
  0.7260  -11.83676
  0.7280  -12.19494
  0.7300  -12.54350
  0.7320  -12.90331
  0.7340  -13.23895
  0.7360  -13.50165
  0.7380  -13.71084
  0.7400  -13.86164
  0.7420  -13.99506
  0.7440  -14.10638
  0.7460  -14.20998
  0.7480  -14.28503
  0.7500  -14.34550
  0.7520  -14.37858
  0.7540  -14.40886
  0.7560  -14.44854
  0.7580  -14.51686
  0.7600  -14.60256
  0.7620  -14.70138
  0.7640  -14.81050
  0.7660  -14.94393
  0.7680  -15.11091
  0.7700  -15.33236
  0.7720  -15.58836
  0.7740  -15.86964
  0.7760  -16.16425
  0.7780  -16.46355
  0.7800  -16.78122
  0.7820  -17.11549
  0.7840  -17.49177
  0.7860  -17.89690
  0.7880  -18.32450
  0.7900  -18.75211
  0.7920  -19.16892
  0.7940  -19.55484
  0.7960  -19.90848
  0.7980  -20.22520
  0.8000  -20.49672
  0.8020  -20.71714
  0.8040  -20.86963
  0.8060  -20.96843
  0.8080  -21.02144
  0.8100  -21.02178
  0.8120  -20.98535
  0.8140  -20.91295
  0.8160  -20.79989
  0.8180  -20.62935
  0.8200  -20.39259
  0.8220  -20.08871
  0.8240  -19.73520
  0.8260  -19.32392
  0.8280  -18.87649
  0.8300  -18.38810
  0.8320  -17.83074
  0.8340  -17.18947
  0.8360  -16.46063
  0.8380  -15.65527
  0.8400  -14.77189
  0.8420  -13.83247
  0.8440  -12.84933
  0.8460  -11.83891
  0.8480  -10.80423
  0.8500   -9.76325
  0.8520   -8.73130
  0.8540   -7.71826
  0.8560   -6.75587
  0.8580   -5.87078
  0.8600   -5.10004
  0.8620   -4.45853
  0.8640   -3.95478
  0.8660   -3.57000
  0.8680   -3.29156
  0.8700   -3.09749
  0.8720   -2.97532
  0.8740   -2.89704
  0.8760   -2.84647
  0.8780   -2.81123
  0.8800   -2.77950
  0.8820   -2.75422
  0.8840   -2.72747
  0.8860   -2.70475
  0.8880   -2.69373
  0.8900   -2.68516
  0.8920   -2.67752
  0.8940   -2.66132
  0.8960   -2.61031
  0.8980   -2.54446
  0.9000   -2.46828
  0.9020   -2.38824
  0.9040   -2.32426
  0.9060   -2.26053
  0.9080   -2.20578
  0.9100   -2.15969
  0.9120   -2.10505
  0.9140   -2.03404
  0.9160   -1.94851
  0.9180   -1.85070
  0.9200   -1.75231
  0.9220   -1.64049
  0.9240   -1.51837
  0.9260   -1.39159
  0.9280   -1.27137
  0.9300   -1.15590
  0.9320   -1.04356
  0.9340   -0.94610
  0.9360   -0.86549
  0.9380   -0.78801
  0.9400   -0.72819
  0.9420   -0.66015
  0.9440   -0.59232
  0.9460   -0.51167
  0.9480   -0.42356
  0.9500   -0.33524
  0.9520   -0.25181
  0.9540   -0.19769
  0.9560   -0.17456
  0.9580   -0.19093
  0.9600   -0.22510
  0.9620   -0.26869
  0.9640   -0.31054
  0.9660   -0.32489
  0.9680   -0.32177
  0.9700   -0.30714
  0.9720   -0.29532
  0.9740   -0.29682
  0.9760   -0.31304
  0.9780   -0.35155
  0.9800   -0.41055
  0.9820   -0.47394
  0.9840   -0.52099
  0.9860   -0.54133
  0.9880   -0.52486
  0.9900   -0.49221
  0.9920   -0.45424
  0.9940   -0.42650
  0.9960   -0.41932
  0.9980   -0.43278
  1.0000   -0.46194
  1.0020   -0.49156
  1.0040   -0.52008
  1.0060   -0.53093
  1.0080   -0.54609
  1.0100   -0.55363
  1.0120   -0.56392
  1.0140   -0.57122
  1.0160   -0.58405
  1.0180   -0.58463
  1.0200   -0.56344
  1.0220   -0.53518
  1.0240   -0.48790
  1.0260   -0.44033
  1.0280   -0.39909
  1.0300   -0.37388
  1.0320   -0.36655
  1.0340   -0.36042
  1.0360   -0.35683
  1.0380   -0.35256
  1.0400   -0.33159
  1.0420   -0.29851
  1.0440   -0.25602
  1.0460   -0.20711
  1.0480   -0.16470
  1.0500   -0.12270
  1.0520   -0.09228
  1.0540   -0.04867
  1.0560   -0.00154
  1.0580    0.04281
  1.0600    0.07592
  1.0620    0.09466
  1.0640    0.09325
  1.0660    0.08940
  1.0680    0.08290
  1.0700    0.08129
  1.0720    0.09898
  1.0740    0.10901
  1.0760    0.13682
  1.0780    0.16845
  1.0800    0.19354
  1.0820    0.23035
  1.0840    0.25916
  1.0860    0.29118
  1.0880    0.31937
  1.0900    0.35064
  1.0920    0.37821
  1.0940    0.40235
  1.0960    0.42095
  1.0980    0.42986
  1.1000    0.42558
  1.1020    0.42855
  1.1040    0.44628
  1.1060    0.48103
  1.1080    0.53863
  1.1100    0.60586
  1.1120    0.65884
  1.1140    0.69918
  1.1160    0.72493
  1.1180    0.73829
  1.1200    0.74973
  1.1220    0.75691
  1.1240    0.77027
  1.1260    0.79990
  1.1280    0.82837
  1.1300    0.86794
  1.1320    0.89075
  1.1340    0.90730
  1.1360    0.91476
  1.1380    0.92056
  1.1400    0.92995
  1.1420    0.94753
  1.1440    0.98103
  1.1460    1.02472
  1.1480    1.06758
  1.1500    1.10646
  1.1520    1.12224
  1.1540    1.12059
  1.1560    1.08910
  1.1580    1.04526
  1.1600    1.01223
  1.1620    0.98910
  1.1640    0.99453
  1.1660    1.02868
  1.1680    1.08459
  1.1700    1.15804
  1.1720    1.23428
  1.1740    1.30702
  1.1760    1.35204
  1.1780    1.37038
  1.1800    1.36438
  1.1820    1.34424
  1.1840    1.31358
  1.1860    1.27972
  1.1880    1.24505
  1.1900    1.22098
  1.1920    1.21699
  1.1940    1.22819
  1.1960    1.25823
  1.1980    1.29866
  1.2000    1.35693
