# z (nm)   (kJ/mol)
  0.3880  321.54832
  0.3900  317.44600
  0.3920  314.38354
  0.3940  310.98885
  0.3960  308.04965
  0.3980  305.13053
  0.4000  302.20841
  0.4020  299.25012
  0.4040  296.21371
  0.4060  293.03231
  0.4080  289.71861
  0.4100  286.21550
  0.4120  282.47376
  0.4140  278.45327
  0.4160  274.09937
  0.4180  269.36697
  0.4200  264.21642
  0.4220  258.60607
  0.4240  252.51947
  0.4260  245.95087
  0.4280  238.94477
  0.4300  231.56839
  0.4320  223.91185
  0.4340  216.06583
  0.4360  208.13678
  0.4380  200.32812
  0.4400  192.97073
  0.4420  186.36546
  0.4440  180.52456
  0.4460  175.19668
  0.4480  170.07642
  0.4500  164.99556
  0.4520  159.90202
  0.4540  154.80572
  0.4560  149.77470
  0.4580  144.89535
  0.4600  140.25311
  0.4620  135.86052
  0.4640  131.64774
  0.4660  127.54179
  0.4680  123.53117
  0.4700  119.69949
  0.4720  116.13257
  0.4740  112.85859
  0.4760  109.81002
  0.4780  106.87038
  0.4800  103.94214
  0.4820  101.00785
  0.4840   98.11734
  0.4860   95.34153
  0.4880   92.71252
  0.4900   90.25390
  0.4920   87.94301
  0.4940   85.75380
  0.4960   83.65985
  0.4980   81.64104
  0.5000   79.68133
  0.5020   77.77016
  0.5040   75.93532
  0.5060   74.20331
  0.5080   72.60197
  0.5100   71.13843
  0.5120   69.81073
  0.5140   68.57875
  0.5160   67.40776
  0.5180   66.26665
  0.5200   65.16043
  0.5220   64.09350
  0.5240   63.09892
  0.5260   62.19039
  0.5280   61.36848
  0.5300   60.63114
  0.5320   59.97042
  0.5340   59.35707
  0.5360   58.74376
  0.5380   58.10424
  0.5400   57.40931
  0.5420   56.71090
  0.5440   56.08198
  0.5460   55.55881
  0.5480   55.15846
  0.5500   54.83590
  0.5520   54.52117
  0.5540   54.13863
  0.5560   53.65183
  0.5580   53.05267
  0.5600   52.34883
  0.5620   51.57602
  0.5640   50.76053
  0.5660   49.92821
  0.5680   49.08805
  0.5700   48.23887
  0.5720   47.36096
  0.5740   46.42547
  0.5760   45.40528
  0.5780   44.29422
  0.5800   43.08505
  0.5820   41.81238
  0.5840   40.49575
  0.5860   39.17250
  0.5880   37.87152
  0.5900   36.60213
  0.5920   35.37319
  0.5940   34.17774
  0.5960   33.00777
  0.5980   31.86730
  0.6000   30.75861
  0.6020   29.68972
  0.6040   28.67203
  0.6060   27.71287
  0.6080   26.80727
  0.6100   25.95138
  0.6120   25.14818
  0.6140   24.37075
  0.6160   23.60913
  0.6180   22.85253
  0.6200   22.10963
  0.6220   21.37992
  0.6240   20.67312
  0.6260   19.99964
  0.6280   19.35446
  0.6300   18.73134
  0.6320   18.12883
  0.6340   17.54721
  0.6360   16.97984
  0.6380   16.43186
  0.6400   15.89997
  0.6420   15.38204
  0.6440   14.87419
  0.6460   14.35238
  0.6480   13.81834
  0.6500   13.26287
  0.6520   12.71579
  0.6540   12.19587
  0.6560   11.72835
  0.6580   11.32557
  0.6600   10.98096
  0.6620   10.66354
  0.6640   10.35129
  0.6660   10.01918
  0.6680    9.65651
  0.6700    9.26935
  0.6720    8.88619
  0.6740    8.51799
  0.6760    8.17033
  0.6780    7.86018
  0.6800    7.58225
  0.6820    7.34171
  0.6840    7.12967
  0.6860    6.93854
  0.6880    6.76935
  0.6900    6.61889
  0.6920    6.48035
  0.6940    6.33688
  0.6960    6.20807
  0.6980    6.07564
  0.7000    5.94238
  0.7020    5.81869
  0.7040    5.69481
  0.7060    5.57785
  0.7080    5.47010
  0.7100    5.37464
  0.7120    5.29314
  0.7140    5.24169
  0.7160    5.19821
  0.7180    5.16146
  0.7200    5.13605
  0.7220    5.10944
  0.7240    5.09279
  0.7260    5.06999
  0.7280    5.03794
  0.7300    5.00695
  0.7320    4.96721
  0.7340    4.93450
  0.7360    4.89964
  0.7380    4.86275
  0.7400    4.83377
  0.7420    4.80605
  0.7440    4.78707
  0.7460    4.77060
  0.7480    4.75446
  0.7500    4.74987
  0.7520    4.74691
  0.7540    4.76189
  0.7560    4.78159
  0.7580    4.79813
  0.7600    4.81867
  0.7620    4.83052
  0.7640    4.84076
  0.7660    4.83873
  0.7680    4.83022
  0.7700    4.81414
  0.7720    4.79633
  0.7740    4.77042
  0.7760    4.74598
  0.7780    4.72188
  0.7800    4.70541
  0.7820    4.69433
  0.7840    4.68305
  0.7860    4.66700
  0.7880    4.66006
  0.7900    4.64485
  0.7920    4.62738
  0.7940    4.60732
  0.7960    4.57127
  0.7980    4.53354
  0.8000    4.50266
  0.8020    4.46540
  0.8040    4.42046
  0.8060    4.37629
  0.8080    4.33611
  0.8100    4.29027
  0.8120    4.24937
  0.8140    4.20756
  0.8160    4.16381
  0.8180    4.12700
  0.8200    4.08880
  0.8220    4.04901
  0.8240    3.99838
  0.8260    3.95204
  0.8280    3.90035
  0.8300    3.84500
  0.8320    3.78476
  0.8340    3.72993
  0.8360    3.67496
  0.8380    3.62020
  0.8400    3.56763
  0.8420    3.51459
  0.8440    3.47120
  0.8460    3.43950
  0.8480    3.40952
  0.8500    3.37454
  0.8520    3.33640
  0.8540    3.30316
  0.8560    3.25954
  0.8580    3.21769
  0.8600    3.17094
  0.8620    3.11751
  0.8640    3.05892
  0.8660    2.99605
  0.8680    2.92923
  0.8700    2.86043
  0.8720    2.78934
  0.8740    2.72911
  0.8760    2.68088
  0.8780    2.64534
  0.8800    2.61909
  0.8820    2.60349
  0.8840    2.59196
  0.8860    2.58930
  0.8880    2.57044
  0.8900    2.54692
  0.8920    2.52042
  0.8940    2.47512
  0.8960    2.42260
  0.8980    2.36116
  0.9000    2.28448
  0.9020    2.20412
  0.9040    2.11548
  0.9060    2.02663
  0.9080    1.93818
  0.9100    1.85438
  0.9120    1.78769
  0.9140    1.71769
  0.9160    1.65035
  0.9180    1.59694
  0.9200    1.55289
  0.9220    1.51104
  0.9240    1.47932
  0.9260    1.44328
  0.9280    1.40638
  0.9300    1.36314
  0.9320    1.32537
  0.9340    1.27504
  0.9360    1.21837
  0.9380    1.14136
  0.9400    1.06355
  0.9420    0.97694
  0.9440    0.88574
  0.9460    0.79634
  0.9480    0.70506
  0.9500    0.61862
  0.9520    0.53239
  0.9540    0.46785
  0.9560    0.40504
  0.9580    0.35744
  0.9600    0.31060
  0.9620    0.27051
  0.9640    0.23778
  0.9660    0.20995
  0.9680    0.18316
  0.9700    0.16071
  0.9720    0.13735
  0.9740    0.11615
  0.9760    0.08486
  0.9780    0.04856
  0.9800    0.00889
  0.9820   -0.03830
  0.9840   -0.09055
  0.9860   -0.14372
  0.9880   -0.20563
  0.9900   -0.26296
  0.9920   -0.32194
  0.9940   -0.37234
  0.9960   -0.40958
  0.9980   -0.43321
  1.0000   -0.44740
  1.0020   -0.45285
  1.0040   -0.43834
  1.0060   -0.41434
  1.0080   -0.39581
  1.0100   -0.38170
  1.0120   -0.37122
  1.0140   -0.37762
  1.0160   -0.40198
  1.0180   -0.43537
  1.0200   -0.48145
  1.0220   -0.53057
  1.0240   -0.58392
  1.0260   -0.63525
  1.0280   -0.67634
  1.0300   -0.70058
  1.0320   -0.71750
  1.0340   -0.71164
  1.0360   -0.69379
  1.0380   -0.67155
  1.0400   -0.64208
  1.0420   -0.61413
  1.0440   -0.58229
  1.0460   -0.55741
  1.0480   -0.53962
  1.0500   -0.52956
  1.0520   -0.53249
  1.0540   -0.54309
  1.0560   -0.55904
  1.0580   -0.57906
  1.0600   -0.61035
  1.0620   -0.63529
  1.0640   -0.66070
  1.0660   -0.68267
  1.0680   -0.69277
  1.0700   -0.69157
  1.0720   -0.68203
  1.0740   -0.66743
  1.0760   -0.64713
  1.0780   -0.61858
  1.0800   -0.58791
  1.0820   -0.55802
  1.0840   -0.52880
  1.0860   -0.49859
  1.0880   -0.47835
  1.0900   -0.46000
  1.0920   -0.43905
  1.0940   -0.42323
  1.0960   -0.40904
  1.0980   -0.39634
  1.1000   -0.38598
  1.1020   -0.37541
  1.1040   -0.36964
  1.1060   -0.36456
  1.1080   -0.36308
  1.1100   -0.36242
  1.1120   -0.36450
  1.1140   -0.37459
  1.1160   -0.38581
  1.1180   -0.39283
  1.1200   -0.40020
  1.1220   -0.39772
  1.1240   -0.38856
  1.1260   -0.37284
  1.1280   -0.35714
  1.1300   -0.33114
  1.1320   -0.30424
  1.1340   -0.27710
  1.1360   -0.24607
  1.1380   -0.20746
  1.1400   -0.17936
  1.1420   -0.15518
  1.1440   -0.13988
  1.1460   -0.13112
  1.1480   -0.12979
  1.1500   -0.13418
  1.1520   -0.13784
  1.1540   -0.15004
  1.1560   -0.15791
  1.1580   -0.16425
  1.1600   -0.16415
  1.1620   -0.15009
  1.1640   -0.13626
  1.1660   -0.11878
  1.1680   -0.09697
  1.1700   -0.07384
  1.1720   -0.04955
  1.1740   -0.03336
  1.1760   -0.01893
  1.1780   -0.00983
  1.1800   -0.00183
  1.1820    0.00492
  1.1840    0.00669
  1.1860    0.00760
  1.1880    0.00881
  1.1900    0.01106
  1.1920    0.00543
  1.1940   -0.00149
  1.1960   -0.00520
  1.1980   -0.00941
  1.2000   -0.01503
