# z (nm)   (kJ/mol)
  0.4100  312.34697
  0.4120  307.00973
  0.4140  304.25262
  0.4160  301.61288
  0.4180  298.98699
  0.4200  296.27712
  0.4220  293.52063
  0.4240  290.70257
  0.4260  287.74938
  0.4280  284.63625
  0.4300  281.29954
  0.4320  277.69461
  0.4340  273.76614
  0.4360  269.44350
  0.4380  264.66790
  0.4400  259.37639
  0.4420  253.54741
  0.4440  247.18745
  0.4460  240.34095
  0.4480  233.03829
  0.4500  225.29929
  0.4520  217.21763
  0.4540  209.09357
  0.4560  201.26963
  0.4580  193.85127
  0.4600  186.71444
  0.4620  179.80078
  0.4640  173.12624
  0.4660  166.66595
  0.4680  160.35701
  0.4700  154.18595
  0.4720  148.17439
  0.4740  142.37947
  0.4760  136.90643
  0.4780  131.87718
  0.4800  127.20279
  0.4820  122.69563
  0.4840  118.31495
  0.4860  114.09181
  0.4880  109.95130
  0.4900  105.75422
  0.4920  101.47100
  0.4940   97.22000
  0.4960   93.16979
  0.4980   89.41157
  0.5000   85.92733
  0.5020   82.60209
  0.5040   79.35188
  0.5060   76.15971
  0.5080   73.10450
  0.5100   70.28320
  0.5120   67.71991
  0.5140   65.36659
  0.5160   63.10520
  0.5180   60.84508
  0.5200   58.58752
  0.5220   56.43180
  0.5240   54.50069
  0.5260   52.87718
  0.5280   51.54744
  0.5300   50.43457
  0.5320   49.38957
  0.5340   48.37138
  0.5360   47.40717
  0.5380   46.57327
  0.5400   45.92414
  0.5420   45.43622
  0.5440   45.03698
  0.5460   44.62329
  0.5480   44.17135
  0.5500   43.81029
  0.5520   43.67508
  0.5540   43.69467
  0.5560   43.62782
  0.5580   43.33147
  0.5600   42.88204
  0.5620   42.42044
  0.5640   42.00248
  0.5660   41.61350
  0.5680   41.20936
  0.5700   40.75563
  0.5720   40.18761
  0.5740   39.46418
  0.5760   38.61847
  0.5780   37.70918
  0.5800   36.80476
  0.5820   35.94566
  0.5840   35.12462
  0.5860   34.33662
  0.5880   33.54267
  0.5900   32.71151
  0.5920   31.80718
  0.5940   30.79628
  0.5960   29.70633
  0.5980   28.59378
  0.6000   27.55331
  0.6020   26.64787
  0.6040   25.86597
  0.6060   25.08079
  0.6080   24.15276
  0.6100   22.98968
  0.6120   21.66810
  0.6140   20.38553
  0.6160   19.33389
  0.6180   18.54039
  0.6200   17.86302
  0.6220   17.12248
  0.6240   16.26223
  0.6260   15.35379
  0.6280   14.49360
  0.6300   13.74354
  0.6320   13.07922
  0.6340   12.47466
  0.6360   11.88411
  0.6380   11.28641
  0.6400   10.69539
  0.6420   10.13789
  0.6440    9.62546
  0.6460    9.16724
  0.6480    8.74069
  0.6500    8.32362
  0.6520    7.90029
  0.6540    7.47900
  0.6560    7.08834
  0.6580    6.78341
  0.6600    6.54021
  0.6620    6.34465
  0.6640    6.12800
  0.6660    5.85473
  0.6680    5.52231
  0.6700    5.15914
  0.6720    4.80980
  0.6740    4.48114
  0.6760    4.19041
  0.6780    3.91504
  0.6800    3.65287
  0.6820    3.38282
  0.6840    3.11202
  0.6860    2.85799
  0.6880    2.61433
  0.6900    2.40166
  0.6920    2.19807
  0.6940    2.02056
  0.6960    1.84903
  0.6980    1.67813
  0.7000    1.50492
  0.7020    1.33224
  0.7040    1.18122
  0.7060    1.05150
  0.7080    0.95003
  0.7100    0.87429
  0.7120    0.81970
  0.7140    0.78090
  0.7160    0.75863
  0.7180    0.73534
  0.7200    0.74356
  0.7220    0.77472
  0.7240    0.83645
  0.7260    0.91453
  0.7280    1.01520
  0.7300    1.12274
  0.7320    1.21457
  0.7340    1.28578
  0.7360    1.32559
  0.7380    1.33003
  0.7400    1.29165
  0.7420    1.21962
  0.7440    1.13138
  0.7460    1.03892
  0.7480    0.95917
  0.7500    0.90054
  0.7520    0.85787
  0.7540    0.81483
  0.7560    0.76556
  0.7580    0.68574
  0.7600    0.59117
  0.7620    0.47449
  0.7640    0.34860
  0.7660    0.22664
  0.7680    0.12282
  0.7700    0.03090
  0.7720   -0.05025
  0.7740   -0.10602
  0.7760   -0.15414
  0.7780   -0.20419
  0.7800   -0.27457
  0.7820   -0.37756
  0.7840   -0.50545
  0.7860   -0.65179
  0.7880   -0.81474
  0.7900   -0.96591
  0.7920   -1.08912
  0.7940   -1.16116
  0.7960   -1.18674
  0.7980   -1.18115
  0.8000   -1.14996
  0.8020   -1.11330
  0.8040   -1.09516
  0.8060   -1.10651
  0.8080   -1.15224
  0.8100   -1.21548
  0.8120   -1.27020
  0.8140   -1.30147
  0.8160   -1.29388
  0.8180   -1.23718
  0.8200   -1.14350
  0.8220   -1.04061
  0.8240   -0.93202
  0.8260   -0.83568
  0.8280   -0.75880
  0.8300   -0.70286
  0.8320   -0.66466
  0.8340   -0.64890
  0.8360   -0.64221
  0.8380   -0.61830
  0.8400   -0.57360
  0.8420   -0.50323
  0.8440   -0.39933
  0.8460   -0.26717
  0.8480   -0.11746
  0.8500    0.04029
  0.8520    0.18479
  0.8540    0.29063
  0.8560    0.36924
  0.8580    0.41290
  0.8600    0.43057
  0.8620    0.43421
  0.8640    0.45096
  0.8660    0.49535
  0.8680    0.57044
  0.8700    0.67352
  0.8720    0.77515
  0.8740    0.86434
  0.8760    0.93280
  0.8780    0.98443
  0.8800    1.02048
  0.8820    1.05233
  0.8840    1.08709
  0.8860    1.11969
  0.8880    1.15901
  0.8900    1.20238
  0.8920    1.25222
  0.8940    1.30489
  0.8960    1.34838
  0.8980    1.38012
  0.9000    1.40560
  0.9020    1.40179
  0.9040    1.38509
  0.9060    1.34581
  0.9080    1.31189
  0.9100    1.29229
  0.9120    1.28739
  0.9140    1.30986
  0.9160    1.34316
  0.9180    1.37583
  0.9200    1.39803
  0.9220    1.38511
  0.9240    1.32620
  0.9260    1.23513
  0.9280    1.12119
  0.9300    1.01812
  0.9320    0.94607
  0.9340    0.91503
  0.9360    0.92258
  0.9380    0.94771
  0.9400    0.97015
  0.9420    0.96977
  0.9440    0.94311
  0.9460    0.88515
  0.9480    0.81090
  0.9500    0.72551
  0.9520    0.64183
  0.9540    0.56296
  0.9560    0.49623
  0.9580    0.43623
  0.9600    0.38926
  0.9620    0.34764
  0.9640    0.30045
  0.9660    0.26224
  0.9680    0.23114
  0.9700    0.19414
  0.9720    0.16088
  0.9740    0.13725
  0.9760    0.12885
  0.9780    0.11857
  0.9800    0.11200
  0.9820    0.10900
  0.9840    0.09625
  0.9860    0.07536
  0.9880    0.03789
  0.9900   -0.01681
  0.9920   -0.08212
  0.9940   -0.15949
  0.9960   -0.23499
  0.9980   -0.30417
  1.0000   -0.36126
  1.0020   -0.40720
  1.0040   -0.43689
  1.0060   -0.45521
  1.0080   -0.47455
  1.0100   -0.48797
  1.0120   -0.49618
  1.0140   -0.51043
  1.0160   -0.53246
  1.0180   -0.55282
  1.0200   -0.57061
  1.0220   -0.59241
  1.0240   -0.61336
  1.0260   -0.62838
  1.0280   -0.64033
  1.0300   -0.64345
  1.0320   -0.64534
  1.0340   -0.63916
  1.0360   -0.62779
  1.0380   -0.62132
  1.0400   -0.62109
  1.0420   -0.62653
  1.0440   -0.62830
  1.0460   -0.63977
  1.0480   -0.64874
  1.0500   -0.65391
  1.0520   -0.65836
  1.0540   -0.65221
  1.0560   -0.63101
  1.0580   -0.61654
  1.0600   -0.60777
  1.0620   -0.59680
  1.0640   -0.59322
  1.0660   -0.59424
  1.0680   -0.59245
  1.0700   -0.59937
  1.0720   -0.60616
  1.0740   -0.61026
  1.0760   -0.60809
  1.0780   -0.59522
  1.0800   -0.58522
  1.0820   -0.56756
  1.0840   -0.54487
  1.0860   -0.51294
  1.0880   -0.48775
  1.0900   -0.46855
  1.0920   -0.44912
  1.0940   -0.43019
  1.0960   -0.41632
  1.0980   -0.41044
  1.1000   -0.41279
  1.1020   -0.41554
  1.1040   -0.41763
  1.1060   -0.42213
  1.1080   -0.42085
  1.1100   -0.41083
  1.1120   -0.39713
  1.1140   -0.36831
  1.1160   -0.33149
  1.1180   -0.29039
  1.1200   -0.25144
  1.1220   -0.21875
  1.1240   -0.18833
  1.1260   -0.16916
  1.1280   -0.15179
  1.1300   -0.15245
  1.1320   -0.14772
  1.1340   -0.14223
  1.1360   -0.13609
  1.1380   -0.12588
  1.1400   -0.11304
  1.1420   -0.09448
  1.1440   -0.07925
  1.1460   -0.06344
  1.1480   -0.05537
  1.1500   -0.05373
  1.1520   -0.05782
  1.1540   -0.07695
  1.1560   -0.08518
  1.1580   -0.10384
  1.1600   -0.11328
  1.1620   -0.10552
  1.1640   -0.08694
  1.1660   -0.04981
  1.1680   -0.00363
  1.1700    0.04382
  1.1720    0.09456
  1.1740    0.13936
  1.1760    0.17296
  1.1780    0.19392
  1.1800    0.19004
  1.1820    0.17523
  1.1840    0.15586
  1.1860    0.13111
  1.1880    0.11348
  1.1900    0.10406
  1.1920    0.10984
  1.1940    0.12366
  1.1960    0.14958
  1.1980    0.17954
  1.2000    0.21288
