# z (nm)   (kJ/mol)
  0.3220  312.16674
  0.3240  308.33871
  0.3260  303.90640
  0.3280  299.91138
  0.3300  295.85967
  0.3320  291.76148
  0.3340  287.58092
  0.3360  283.20598
  0.3380  278.66683
  0.3400  273.87822
  0.3420  268.85566
  0.3440  263.56195
  0.3460  257.97777
  0.3480  252.09059
  0.3500  245.88950
  0.3520  239.36772
  0.3540  232.51102
  0.3560  225.31555
  0.3580  217.76625
  0.3600  209.87054
  0.3620  201.67430
  0.3640  193.28787
  0.3660  184.88194
  0.3680  176.64636
  0.3700  168.69476
  0.3720  161.06563
  0.3740  153.73734
  0.3760  146.67036
  0.3780  139.85211
  0.3800  133.28889
  0.3820  127.01354
  0.3840  121.06220
  0.3860  115.42715
  0.3880  110.10346
  0.3900  105.07868
  0.3920  100.34640
  0.3940   95.90737
  0.3960   91.77107
  0.3980   87.92902
  0.4000   84.36884
  0.4020   81.06427
  0.4040   77.99304
  0.4060   75.12506
  0.4080   72.43151
  0.4100   69.90394
  0.4120   67.50573
  0.4140   65.25550
  0.4160   63.13516
  0.4180   61.14504
  0.4200   59.28107
  0.4220   57.54206
  0.4240   55.92391
  0.4260   54.41871
  0.4280   53.00744
  0.4300   51.69037
  0.4320   50.45386
  0.4340   49.28917
  0.4360   48.19330
  0.4380   47.16264
  0.4400   46.19667
  0.4420   45.28860
  0.4440   44.42484
  0.4460   43.58954
  0.4480   42.75367
  0.4500   41.89521
  0.4520   40.99748
  0.4540   40.03403
  0.4560   39.00386
  0.4580   37.90511
  0.4600   36.75182
  0.4620   35.54224
  0.4640   34.29995
  0.4660   33.05242
  0.4680   31.80048
  0.4700   30.55956
  0.4720   29.33280
  0.4740   28.12082
  0.4760   26.94113
  0.4780   25.79259
  0.4800   24.69875
  0.4820   23.66812
  0.4840   22.72384
  0.4860   21.86035
  0.4880   21.07592
  0.4900   20.34834
  0.4920   19.65663
  0.4940   18.97236
  0.4960   18.27718
  0.4980   17.56360
  0.5000   16.84546
  0.5020   16.13584
  0.5040   15.46848
  0.5060   14.85939
  0.5080   14.33693
  0.5100   13.90795
  0.5120   13.56207
  0.5140   13.28045
  0.5160   13.03442
  0.5180   12.79863
  0.5200   12.54142
  0.5220   12.26659
  0.5240   11.96329
  0.5260   11.63517
  0.5280   11.30442
  0.5300   10.97709
  0.5320   10.66059
  0.5340   10.36312
  0.5360   10.08994
  0.5380    9.84556
  0.5400    9.61865
  0.5420    9.40012
  0.5440    9.18579
  0.5460    8.97933
  0.5480    8.77083
  0.5500    8.56538
  0.5520    8.34361
  0.5540    8.11814
  0.5560    7.89871
  0.5580    7.67086
  0.5600    7.43524
  0.5620    7.19686
  0.5640    6.93682
  0.5660    6.65529
  0.5680    6.33948
  0.5700    5.99129
  0.5720    5.59750
  0.5740    5.16851
  0.5760    4.71400
  0.5780    4.24399
  0.5800    3.75892
  0.5820    3.26841
  0.5840    2.78325
  0.5860    2.30789
  0.5880    1.84337
  0.5900    1.40360
  0.5920    0.98883
  0.5940    0.61093
  0.5960    0.26517
  0.5980   -0.04914
  0.6000   -0.33898
  0.6020   -0.59550
  0.6040   -0.83800
  0.6060   -1.06199
  0.6080   -1.26640
  0.6100   -1.45058
  0.6120   -1.61542
  0.6140   -1.75176
  0.6160   -1.87373
  0.6180   -1.97362
  0.6200   -2.05049
  0.6220   -2.10601
  0.6240   -2.14580
  0.6260   -2.16750
  0.6280   -2.17398
  0.6300   -2.17029
  0.6320   -2.14873
  0.6340   -2.11029
  0.6360   -2.06878
  0.6380   -2.00954
  0.6400   -1.94615
  0.6420   -1.87073
  0.6440   -1.78941
  0.6460   -1.70361
  0.6480   -1.60849
  0.6500   -1.50793
  0.6520   -1.40743
  0.6540   -1.30245
  0.6560   -1.18258
  0.6580   -1.06538
  0.6600   -0.94008
  0.6620   -0.81792
  0.6640   -0.69192
  0.6660   -0.57062
  0.6680   -0.45112
  0.6700   -0.34105
  0.6720   -0.23946
  0.6740   -0.14413
  0.6760   -0.06628
  0.6780   -0.00417
  0.6800    0.05696
  0.6820    0.10808
  0.6840    0.15472
  0.6860    0.20263
  0.6880    0.24978
  0.6900    0.30043
  0.6920    0.34762
  0.6940    0.39725
  0.6960    0.45602
  0.6980    0.50478
  0.7000    0.56048
  0.7020    0.61261
  0.7040    0.66491
  0.7060    0.71702
  0.7080    0.76043
  0.7100    0.81209
  0.7120    0.85279
  0.7140    0.89378
  0.7160    0.93018
  0.7180    0.96122
  0.7200    0.98214
  0.7220    1.00153
  0.7240    1.01498
  0.7260    1.01871
  0.7280    1.01898
  0.7300    1.02364
  0.7320    1.02897
  0.7340    1.03913
  0.7360    1.06680
  0.7380    1.09436
  0.7400    1.13257
  0.7420    1.16982
  0.7440    1.20801
  0.7460    1.24990
  0.7480    1.28533
  0.7500    1.31792
  0.7520    1.34162
  0.7540    1.35647
  0.7560    1.36884
  0.7580    1.37563
  0.7600    1.37492
  0.7620    1.37563
  0.7640    1.37105
  0.7660    1.37086
  0.7680    1.36908
  0.7700    1.36979
  0.7720    1.37239
  0.7740    1.38345
  0.7760    1.38778
  0.7780    1.38857
  0.7800    1.39347
  0.7820    1.39375
  0.7840    1.40064
  0.7860    1.40655
  0.7880    1.41293
  0.7900    1.41532
  0.7920    1.41579
  0.7940    1.41106
  0.7960    1.40605
  0.7980    1.39469
  0.8000    1.38538
  0.8020    1.36541
  0.8040    1.34316
  0.8060    1.32155
  0.8080    1.29817
  0.8100    1.26675
  0.8120    1.23723
  0.8140    1.21095
  0.8160    1.17765
  0.8180    1.14925
  0.8200    1.11700
  0.8220    1.08794
  0.8240    1.06050
  0.8260    1.04107
  0.8280    1.01450
  0.8300    0.98871
  0.8320    0.95455
  0.8340    0.92302
  0.8360    0.88468
  0.8380    0.84548
  0.8400    0.80661
  0.8420    0.76495
  0.8440    0.72456
  0.8460    0.68709
  0.8480    0.65367
  0.8500    0.61795
  0.8520    0.58813
  0.8540    0.56056
  0.8560    0.53930
  0.8580    0.51965
  0.8600    0.50603
  0.8620    0.49135
  0.8640    0.47862
  0.8660    0.46045
  0.8680    0.44238
  0.8700    0.41446
  0.8720    0.38711
  0.8740    0.36201
  0.8760    0.33508
  0.8780    0.30551
  0.8800    0.27683
  0.8820    0.25320
  0.8840    0.22120
  0.8860    0.19823
  0.8880    0.17686
  0.8900    0.15559
  0.8920    0.13617
  0.8940    0.11969
  0.8960    0.10306
  0.8980    0.08887
  0.9000    0.07518
  0.9020    0.06432
  0.9040    0.04885
  0.9060    0.03528
  0.9080    0.01508
  0.9100   -0.00754
  0.9120   -0.02648
  0.9140   -0.05275
  0.9160   -0.08321
  0.9180   -0.10611
  0.9200   -0.13583
  0.9220   -0.16779
  0.9240   -0.20059
  0.9260   -0.23353
  0.9280   -0.26561
  0.9300   -0.29834
  0.9320   -0.32766
  0.9340   -0.35324
  0.9360   -0.37424
  0.9380   -0.39635
  0.9400   -0.41626
  0.9420   -0.42789
  0.9440   -0.43910
  0.9460   -0.44010
  0.9480   -0.44116
  0.9500   -0.44339
  0.9520   -0.44425
  0.9540   -0.43968
  0.9560   -0.44129
  0.9580   -0.43230
  0.9600   -0.42396
  0.9620   -0.42851
  0.9640   -0.43284
  0.9660   -0.44046
  0.9680   -0.44491
  0.9700   -0.45259
  0.9720   -0.45980
  0.9740   -0.46822
  0.9760   -0.47696
  0.9780   -0.48425
  0.9800   -0.49089
  0.9820   -0.49485
  0.9840   -0.49867
  0.9860   -0.49740
  0.9880   -0.49003
  0.9900   -0.48451
  0.9920   -0.47357
  0.9940   -0.45905
  0.9960   -0.44845
  0.9980   -0.43202
  1.0000   -0.41636
  1.0020   -0.39450
  1.0040   -0.37807
  1.0060   -0.36204
  1.0080   -0.35115
  1.0100   -0.33622
  1.0120   -0.32268
  1.0140   -0.30760
  1.0160   -0.29322
  1.0180   -0.28353
  1.0200   -0.27440
  1.0220   -0.26629
  1.0240   -0.25608
  1.0260   -0.24777
  1.0280   -0.23668
  1.0300   -0.22277
  1.0320   -0.21186
  1.0340   -0.19469
  1.0360   -0.18134
  1.0380   -0.16585
  1.0400   -0.15016
  1.0420   -0.13019
  1.0440   -0.11027
  1.0460   -0.09031
  1.0480   -0.07416
  1.0500   -0.05358
  1.0520   -0.03406
  1.0540   -0.01625
  1.0560   -0.00112
  1.0580    0.01400
  1.0600    0.03148
  1.0620    0.04884
  1.0640    0.06736
  1.0660    0.08886
  1.0680    0.10524
  1.0700    0.12486
  1.0720    0.14306
  1.0740    0.15975
  1.0760    0.18045
  1.0780    0.20107
  1.0800    0.21593
  1.0820    0.22794
  1.0840    0.24229
  1.0860    0.25475
  1.0880    0.26483
  1.0900    0.27384
  1.0920    0.28348
  1.0940    0.29046
  1.0960    0.29061
  1.0980    0.29127
  1.1000    0.29026
  1.1020    0.29015
  1.1040    0.28739
  1.1060    0.28886
  1.1080    0.29393
  1.1100    0.30083
  1.1120    0.31261
  1.1140    0.31726
  1.1160    0.33157
  1.1180    0.34405
  1.1200    0.35941
  1.1220    0.37352
  1.1240    0.39148
  1.1260    0.40465
  1.1280    0.41973
  1.1300    0.43164
  1.1320    0.44193
  1.1340    0.44769
  1.1360    0.45227
  1.1380    0.45771
  1.1400    0.45832
  1.1420    0.45611
  1.1440    0.45319
  1.1460    0.44842
  1.1480    0.44764
  1.1500    0.44075
  1.1520    0.43911
  1.1540    0.42958
  1.1560    0.42451
  1.1580    0.41725
  1.1600    0.41081
  1.1620    0.40398
  1.1640    0.40215
  1.1660    0.39330
  1.1680    0.38818
  1.1700    0.38520
  1.1720    0.38087
  1.1740    0.37375
  1.1760    0.36781
  1.1780    0.36135
  1.1800    0.35687
  1.1820    0.35010
  1.1840    0.34415
  1.1860    0.33616
  1.1880    0.32748
  1.1900    0.32043
  1.1920    0.31372
  1.1940    0.31176
  1.1960    0.30194
  1.1980    0.29603
  1.2000    0.29815
