# z (nm)   (kJ/mol)
  0.4800  311.11883
  0.4820  306.35015
  0.4840  302.46520
  0.4860  298.73326
  0.4880  295.16343
  0.4900  291.64258
  0.4920  288.08223
  0.4940  284.34536
  0.4960  280.49567
  0.4980  276.43815
  0.5000  272.14114
  0.5020  267.57932
  0.5040  262.72263
  0.5060  257.54468
  0.5080  252.01435
  0.5100  246.10604
  0.5120  239.80721
  0.5140  233.10653
  0.5160  226.00457
  0.5180  218.52557
  0.5200  210.72978
  0.5220  202.72056
  0.5240  194.63627
  0.5260  186.63454
  0.5280  178.83557
  0.5300  171.32958
  0.5320  164.14638
  0.5340  157.29133
  0.5360  150.75030
  0.5380  144.52316
  0.5400  138.60042
  0.5420  132.96501
  0.5440  127.58601
  0.5460  122.46302
  0.5480  117.59206
  0.5500  112.97074
  0.5520  108.58040
  0.5540  104.36080
  0.5560  100.28795
  0.5580   96.37397
  0.5600   92.65864
  0.5620   89.16636
  0.5640   85.86654
  0.5660   82.71314
  0.5680   79.62319
  0.5700   76.55610
  0.5720   73.51239
  0.5740   70.54775
  0.5760   67.75380
  0.5780   65.19020
  0.5800   62.84903
  0.5820   60.66312
  0.5840   58.53554
  0.5860   56.41135
  0.5880   54.28906
  0.5900   52.20238
  0.5920   50.18609
  0.5940   48.22977
  0.5960   46.29700
  0.5980   44.36948
  0.6000   42.39891
  0.6020   40.38684
  0.6040   38.32738
  0.6060   36.21293
  0.6080   34.04154
  0.6100   31.83272
  0.6120   29.57421
  0.6140   27.32321
  0.6160   25.09762
  0.6180   22.95487
  0.6200   20.90260
  0.6220   18.96962
  0.6240   17.16820
  0.6260   15.52165
  0.6280   14.01961
  0.6300   12.65815
  0.6320   11.41188
  0.6340   10.26377
  0.6360    9.20146
  0.6380    8.22040
  0.6400    7.31549
  0.6420    6.49593
  0.6440    5.74831
  0.6460    5.06133
  0.6480    4.44284
  0.6500    3.89011
  0.6520    3.40820
  0.6540    2.98563
  0.6560    2.62149
  0.6580    2.30030
  0.6600    2.01259
  0.6620    1.75078
  0.6640    1.52219
  0.6660    1.31124
  0.6680    1.11687
  0.6700    0.94237
  0.6720    0.77972
  0.6740    0.64344
  0.6760    0.52474
  0.6780    0.43463
  0.6800    0.37365
  0.6820    0.33459
  0.6840    0.31525
  0.6860    0.29546
  0.6880    0.26573
  0.6900    0.20968
  0.6920    0.12852
  0.6940    0.02409
  0.6960   -0.11861
  0.6980   -0.26858
  0.7000   -0.42791
  0.7020   -0.58060
  0.7040   -0.72563
  0.7060   -0.87250
  0.7080   -1.02814
  0.7100   -1.19623
  0.7120   -1.37706
  0.7140   -1.56410
  0.7160   -1.74377
  0.7180   -1.90919
  0.7200   -2.06096
  0.7220   -2.19585
  0.7240   -2.32237
  0.7260   -2.44574
  0.7280   -2.56414
  0.7300   -2.67064
  0.7320   -2.76892
  0.7340   -2.86015
  0.7360   -2.95430
  0.7380   -3.03907
  0.7400   -3.11149
  0.7420   -3.16276
  0.7440   -3.20132
  0.7460   -3.22926
  0.7480   -3.25523
  0.7500   -3.29754
  0.7520   -3.36399
  0.7540   -3.44985
  0.7560   -3.54849
  0.7580   -3.63270
  0.7600   -3.69323
  0.7620   -3.71950
  0.7640   -3.70727
  0.7660   -3.68171
  0.7680   -3.65534
  0.7700   -3.62939
  0.7720   -3.62688
  0.7740   -3.64964
  0.7760   -3.69742
  0.7780   -3.76553
  0.7800   -3.82189
  0.7820   -3.87004
  0.7840   -3.89066
  0.7860   -3.88192
  0.7880   -3.84680
  0.7900   -3.79281
  0.7920   -3.73999
  0.7940   -3.68171
  0.7960   -3.63981
  0.7980   -3.60332
  0.8000   -3.56872
  0.8020   -3.53748
  0.8040   -3.49775
  0.8060   -3.43962
  0.8080   -3.36259
  0.8100   -3.26720
  0.8120   -3.14866
  0.8140   -3.00863
  0.8160   -2.85305
  0.8180   -2.68181
  0.8200   -2.50706
  0.8220   -2.32230
  0.8240   -2.13421
  0.8260   -1.93804
  0.8280   -1.73337
  0.8300   -1.52024
  0.8320   -1.29362
  0.8340   -1.05895
  0.8360   -0.81105
  0.8380   -0.55711
  0.8400   -0.29726
  0.8420   -0.03744
  0.8440    0.22336
  0.8460    0.47997
  0.8480    0.72552
  0.8500    0.96313
  0.8520    1.17720
  0.8540    1.37230
  0.8560    1.54985
  0.8580    1.69993
  0.8600    1.83216
  0.8620    1.93869
  0.8640    2.02076
  0.8660    2.08001
  0.8680    2.13247
  0.8700    2.17592
  0.8720    2.22527
  0.8740    2.27130
  0.8760    2.31547
  0.8780    2.34359
  0.8800    2.35023
  0.8820    2.33364
  0.8840    2.28173
  0.8860    2.20586
  0.8880    2.12903
  0.8900    2.03946
  0.8920    1.95887
  0.8940    1.90001
  0.8960    1.86222
  0.8980    1.85039
  0.9000    1.85586
  0.9020    1.86322
  0.9040    1.86119
  0.9060    1.84803
  0.9080    1.81450
  0.9100    1.75948
  0.9120    1.68719
  0.9140    1.59362
  0.9160    1.49444
  0.9180    1.39368
  0.9200    1.29769
  0.9220    1.20796
  0.9240    1.13814
  0.9260    1.08484
  0.9280    1.04569
  0.9300    1.02373
  0.9320    1.01157
  0.9340    0.99202
  0.9360    0.97707
  0.9380    0.94314
  0.9400    0.89413
  0.9420    0.83760
  0.9440    0.77791
  0.9460    0.70809
  0.9480    0.63962
  0.9500    0.58167
  0.9520    0.53133
  0.9540    0.48262
  0.9560    0.43724
  0.9580    0.38692
  0.9600    0.33837
  0.9620    0.29191
  0.9640    0.25231
  0.9660    0.22056
  0.9680    0.19708
  0.9700    0.18292
  0.9720    0.17809
  0.9740    0.17706
  0.9760    0.16703
  0.9780    0.14509
  0.9800    0.12418
  0.9820    0.09840
  0.9840    0.07872
  0.9860    0.06402
  0.9880    0.05825
  0.9900    0.05439
  0.9920    0.06074
  0.9940    0.06175
  0.9960    0.05733
  0.9980    0.03745
  1.0000    0.01595
  1.0020   -0.02657
  1.0040   -0.07139
  1.0060   -0.11665
  1.0080   -0.15202
  1.0100   -0.17963
  1.0120   -0.19167
  1.0140   -0.19280
  1.0160   -0.18469
  1.0180   -0.17781
  1.0200   -0.17286
  1.0220   -0.18144
  1.0240   -0.19626
  1.0260   -0.22329
  1.0280   -0.26754
  1.0300   -0.31383
  1.0320   -0.35835
  1.0340   -0.39618
  1.0360   -0.43710
  1.0380   -0.47771
  1.0400   -0.51883
  1.0420   -0.56194
  1.0440   -0.59028
  1.0460   -0.59633
  1.0480   -0.58615
  1.0500   -0.55322
  1.0520   -0.50228
  1.0540   -0.46170
  1.0560   -0.44048
  1.0580   -0.45137
  1.0600   -0.48975
  1.0620   -0.54489
  1.0640   -0.60877
  1.0660   -0.67058
  1.0680   -0.72051
  1.0700   -0.75360
  1.0720   -0.76573
  1.0740   -0.76508
  1.0760   -0.74652
  1.0780   -0.71678
  1.0800   -0.67783
  1.0820   -0.63738
  1.0840   -0.59710
  1.0860   -0.57353
  1.0880   -0.55154
  1.0900   -0.53354
  1.0920   -0.52876
  1.0940   -0.52482
  1.0960   -0.52543
  1.0980   -0.52768
  1.1000   -0.52447
  1.1020   -0.51504
  1.1040   -0.50113
  1.1060   -0.48662
  1.1080   -0.46547
  1.1100   -0.44450
  1.1120   -0.42382
  1.1140   -0.40680
  1.1160   -0.39845
  1.1180   -0.39499
  1.1200   -0.39475
  1.1220   -0.38797
  1.1240   -0.36966
  1.1260   -0.34906
  1.1280   -0.32657
  1.1300   -0.29872
  1.1320   -0.27197
  1.1340   -0.25032
  1.1360   -0.23815
  1.1380   -0.22935
  1.1400   -0.23365
  1.1420   -0.24222
  1.1440   -0.25459
  1.1460   -0.26917
  1.1480   -0.28551
  1.1500   -0.29159
  1.1520   -0.29511
  1.1540   -0.29208
  1.1560   -0.28402
  1.1580   -0.26976
  1.1600   -0.25018
  1.1620   -0.22681
  1.1640   -0.19963
  1.1660   -0.16944
  1.1680   -0.12902
  1.1700   -0.08802
  1.1720   -0.05254
  1.1740   -0.03254
  1.1760   -0.02087
  1.1780   -0.02220
  1.1800   -0.04129
  1.1820   -0.06514
  1.1840   -0.09255
  1.1860   -0.12187
  1.1880   -0.14931
  1.1900   -0.17029
  1.1920   -0.18288
  1.1940   -0.18822
  1.1960   -0.18794
  1.1980   -0.18288
  1.2000   -0.16651
