# z (nm)   (kJ/mol)
  0.269000,  1.516000
  0.271000,  0.759700
  0.273000, -0.120200
  0.275000, -1.001400
  0.277000, -1.842400
  0.279000, -2.661300
  0.281000, -3.486100
  0.283000, -4.303100
  0.285000, -5.108300
  0.287000, -5.903800
  0.289000, -6.690900
  0.291000, -7.468400
  0.293000, -8.226100
  0.295000, -8.971100
  0.297000, -9.701800
  0.299000,-10.416400
  0.301000,-11.119300
  0.303000,-11.803600
  0.305000,-12.465700
  0.307000,-13.106600
  0.309000,-13.731100
  0.311000,-14.338700
  0.313000,-14.924800
  0.315000,-15.493000
  0.317000,-16.040900
  0.319000,-16.564200
  0.321000,-17.064400
  0.323000,-17.545300
  0.325000,-18.005300
  0.327000,-18.442900
  0.329000,-18.858100
  0.331000,-19.250400
  0.333000,-19.619800
  0.335000,-19.962700
  0.337000,-20.279800
  0.339000,-20.573900
  0.341000,-20.843200
  0.343000,-21.086600
  0.345000,-21.306300
  0.347000,-21.501900
  0.349000,-21.673600
  0.351000,-21.822800
  0.353000,-21.948500
  0.355000,-22.051700
  0.357000,-22.132200
  0.359000,-22.191000
  0.361000,-22.229300
  0.363000,-22.247300
  0.365000,-22.246900
  0.367000,-22.227900
  0.369000,-22.190500
  0.371000,-22.136800
  0.373000,-22.066800
  0.375000,-21.981800
  0.377000,-21.883800
  0.379000,-21.773600
  0.381000,-21.652800
  0.383000,-21.522000
  0.385000,-21.381500
  0.387000,-21.229900
  0.389000,-21.068800
  0.391000,-20.900400
  0.393000,-20.725500
  0.395000,-20.545200
  0.397000,-20.360200
  0.399000,-20.170800
  0.401000,-19.977800
  0.403000,-19.782500
  0.405000,-19.584500
  0.407000,-19.382800
  0.409000,-19.178800
  0.411000,-18.975200
  0.413000,-18.770900
  0.415000,-18.564700
  0.417000,-18.358200
  0.419000,-18.153100
  0.421000,-17.947500
  0.423000,-17.741900
  0.425000,-17.538600
  0.427000,-17.337100
  0.429000,-17.135000
  0.431000,-16.935200
  0.433000,-16.737900
  0.435000,-16.541000
  0.437000,-16.345000
  0.439000,-16.150600
  0.441000,-15.958600
  0.443000,-15.768700
  0.445000,-15.580500
  0.447000,-15.393900
  0.449000,-15.208800
  0.451000,-15.025000
  0.453000,-14.843100
  0.455000,-14.662700
  0.457000,-14.484000
  0.459000,-14.306800
  0.461000,-14.131000
  0.463000,-13.956900
  0.465000,-13.784400
  0.467000,-13.613600
  0.469000,-13.444400
  0.471000,-13.276800
  0.473000,-13.111000
  0.475000,-12.947000
  0.477000,-12.785200
  0.479000,-12.624700
  0.481000,-12.466300
  0.483000,-12.310500
  0.485000,-12.156700
  0.487000,-12.005200
  0.489000,-11.855400
  0.491000,-11.707200
  0.493000,-11.562700
  0.495000,-11.421200
  0.497000,-11.281600
  0.499000,-11.145100
  0.501000,-11.011100
  0.503000,-10.879000
  0.505000,-10.749900
  0.507000,-10.623900
  0.509000,-10.500200
  0.511000,-10.379200
  0.513000,-10.260800
  0.515000,-10.145700
  0.517000,-10.033400
  0.519000, -9.923600
  0.521000, -9.816700
  0.523000, -9.712600
  0.525000, -9.611200
  0.527000, -9.512500
  0.529000, -9.416200
  0.531000, -9.322400
  0.533000, -9.231200
  0.535000, -9.142300
  0.537000, -9.055600
  0.539000, -8.971000
  0.541000, -8.888200
  0.543000, -8.807000
  0.545000, -8.727200
  0.547000, -8.649100
  0.549000, -8.572500
  0.551000, -8.497100
  0.553000, -8.422900
  0.555000, -8.349800
  0.557000, -8.277200
  0.559000, -8.205200
  0.561000, -8.134300
  0.563000, -8.063900
  0.565000, -7.993300
  0.567000, -7.922500
  0.569000, -7.851700
  0.571000, -7.781100
  0.573000, -7.710100
  0.575000, -7.638600
  0.577000, -7.566900
  0.579000, -7.494600
  0.581000, -7.421600
  0.583000, -7.348100
  0.585000, -7.274000
  0.587000, -7.198900
  0.589000, -7.122700
  0.591000, -7.045800
  0.593000, -6.968000
  0.595000, -6.889100
  0.597000, -6.809300
  0.599000, -6.728500
  0.601000, -6.646600
  0.603000, -6.563800
  0.605000, -6.480100
  0.607000, -6.395500
  0.609000, -6.309900
  0.611000, -6.223000
  0.613000, -6.135100
  0.615000, -6.046800
  0.617000, -5.957900
  0.619000, -5.867900
  0.621000, -5.777200
  0.623000, -5.686200
  0.625000, -5.594700
  0.627000, -5.502900
  0.629000, -5.410500
  0.631000, -5.317500
  0.633000, -5.224700
  0.635000, -5.131600
  0.637000, -5.038500
  0.639000, -4.945100
  0.641000, -4.851900
  0.643000, -4.759000
  0.645000, -4.666300
  0.647000, -4.573600
  0.649000, -4.481100
  0.651000, -4.389200
  0.653000, -4.298400
  0.655000, -4.208000
  0.657000, -4.117600
  0.659000, -4.027500
  0.661000, -3.938600
  0.663000, -3.850500
  0.665000, -3.763200
  0.667000, -3.677100
  0.669000, -3.592200
  0.671000, -3.508700
  0.673000, -3.426600
  0.675000, -3.345500
  0.677000, -3.265900
  0.679000, -3.188200
  0.681000, -3.111600
  0.683000, -3.036300
  0.685000, -2.962700
  0.687000, -2.890900
  0.689000, -2.821200
  0.691000, -2.753000
  0.693000, -2.685700
  0.695000, -2.620400
  0.697000, -2.557100
  0.699000, -2.495500
  0.701000, -2.435500
  0.703000, -2.377000
  0.705000, -2.319900
  0.707000, -2.264500
  0.709000, -2.210900
  0.711000, -2.159300
  0.713000, -2.109800
  0.715000, -2.062100
  0.717000, -2.015800
  0.719000, -1.971300
  0.721000, -1.928900
  0.723000, -1.887800
  0.725000, -1.848100
  0.727000, -1.810100
  0.729000, -1.773700
  0.731000, -1.738600
  0.733000, -1.705000
  0.735000, -1.672800
  0.737000, -1.641900
  0.739000, -1.612100
  0.741000, -1.583800
  0.743000, -1.556800
  0.745000, -1.530900
  0.747000, -1.506000
  0.749000, -1.482300
  0.751000, -1.459600
  0.753000, -1.437700
  0.755000, -1.416600
  0.757000, -1.396300
  0.759000, -1.377000
  0.761000, -1.358300
  0.763000, -1.340400
  0.765000, -1.323000
  0.767000, -1.306200
  0.769000, -1.289900
  0.771000, -1.274200
  0.773000, -1.258900
  0.775000, -1.244100
  0.777000, -1.229900
  0.779000, -1.216100
  0.781000, -1.202600
  0.783000, -1.189400
  0.785000, -1.176300
  0.787000, -1.163400
  0.789000, -1.150900
  0.791000, -1.138900
  0.793000, -1.126800
  0.795000, -1.114700
  0.797000, -1.102800
  0.799000, -1.091100
  0.801000, -1.079200
  0.803000, -1.067300
  0.805000, -1.056100
  0.807000, -1.044800
  0.809000, -1.033500
  0.811000, -1.022400
  0.813000, -1.011200
  0.815000, -1.000000
  0.817000, -0.988800
  0.819000, -0.977600
  0.821000, -0.966500
  0.823000, -0.955200
  0.825000, -0.943900
  0.827000, -0.932600
  0.829000, -0.921300
  0.831000, -0.910100
  0.833000, -0.899100
  0.835000, -0.887900
  0.837000, -0.876500
  0.839000, -0.865400
  0.841000, -0.854500
  0.843000, -0.843700
  0.845000, -0.832900
  0.847000, -0.821900
  0.849000, -0.810600
  0.851000, -0.799300
  0.853000, -0.788300
  0.855000, -0.777200
  0.857000, -0.766000
  0.859000, -0.754800
  0.861000, -0.743700
  0.863000, -0.732700
  0.865000, -0.722100
  0.867000, -0.711500
  0.869000, -0.700800
  0.871000, -0.690200
  0.873000, -0.679800
  0.875000, -0.669400
  0.877000, -0.658900
  0.879000, -0.648600
  0.881000, -0.638500
  0.883000, -0.628200
  0.885000, -0.618000
  0.887000, -0.608000
  0.889000, -0.598200
  0.891000, -0.588600
  0.893000, -0.579000
  0.895000, -0.569300
  0.897000, -0.559700
  0.899000, -0.550300
  0.901000, -0.541000
  0.903000, -0.531800
  0.905000, -0.522900
  0.907000, -0.514200
  0.909000, -0.505400
  0.911000, -0.496800
  0.913000, -0.488200
  0.915000, -0.479700
  0.917000, -0.471500
  0.919000, -0.463300
  0.921000, -0.455200
  0.923000, -0.447200
  0.925000, -0.439400
  0.927000, -0.431800
  0.929000, -0.424100
  0.931000, -0.416500
  0.933000, -0.409100
  0.935000, -0.401900
  0.937000, -0.394600
  0.939000, -0.387400
  0.941000, -0.380400
  0.943000, -0.373600
  0.945000, -0.366900
  0.947000, -0.360300
  0.949000, -0.353800
  0.951000, -0.347400
  0.953000, -0.341200
  0.955000, -0.334900
  0.957000, -0.328600
  0.959000, -0.322600
  0.961000, -0.316600
  0.963000, -0.310600
  0.965000, -0.304800
  0.967000, -0.299000
  0.969000, -0.293400
  0.971000, -0.287600
  0.973000, -0.282000
  0.975000, -0.276300
  0.977000, -0.270700
  0.979000, -0.265200
  0.981000, -0.259600
  0.983000, -0.253900
  0.985000, -0.248200
  0.987000, -0.242600
  0.989000, -0.237000
  0.991000, -0.231500
  0.993000, -0.226000
  0.995000, -0.220500
  0.997000, -0.215000
  0.999000, -0.209500
  1.001000, -0.204100
  1.003000, -0.198700
  1.005000, -0.193200
  1.007000, -0.187800
  1.009000, -0.182600
  1.011000, -0.177400
  1.013000, -0.172300
  1.015000, -0.167200
  1.017000, -0.162000
  1.019000, -0.156900
  1.021000, -0.151800
  1.023000, -0.146800
  1.025000, -0.141900
  1.027000, -0.137200
  1.029000, -0.132500
  1.031000, -0.128000
  1.033000, -0.123600
  1.035000, -0.119300
  1.037000, -0.115200
  1.039000, -0.111100
  1.041000, -0.107100
  1.043000, -0.103200
  1.045000, -0.099600
  1.047000, -0.096200
  1.049000, -0.092800
  1.051000, -0.089500
  1.053000, -0.086400
  1.055000, -0.083600
  1.057000, -0.081000
  1.059000, -0.078500
  1.061000, -0.076100
  1.063000, -0.073900
  1.065000, -0.072000
  1.067000, -0.070200
  1.069000, -0.068700
  1.071000, -0.067400
  1.073000, -0.066300
  1.075000, -0.065300
  1.077000, -0.064300
  1.079000, -0.063500
  1.081000, -0.062900
  1.083000, -0.062600
  1.085000, -0.062400
  1.087000, -0.062300
  1.089000, -0.062300
  1.091000, -0.062500
  1.093000, -0.062900
  1.095000, -0.063500
  1.097000, -0.064100
  1.099000, -0.064800
  1.101000, -0.065500
  1.103000, -0.066200
  1.105000, -0.066900
  1.107000, -0.067900
  1.109000, -0.069000
  1.111000, -0.070000
  1.113000, -0.071100
  1.115000, -0.072100
  1.117000, -0.073200
  1.119000, -0.074200
  1.121000, -0.075200
  1.123000, -0.076200
  1.125000, -0.077400
  1.127000, -0.078500
  1.129000, -0.079500
  1.131000, -0.080600
  1.133000, -0.081600
  1.135000, -0.082400
  1.137000, -0.083200
  1.139000, -0.084000
  1.141000, -0.084700
  1.143000, -0.085400
  1.145000, -0.086200
  1.147000, -0.086800
  1.149000, -0.087200
  1.151000, -0.087600
  1.153000, -0.087900
  1.155000, -0.088100
  1.157000, -0.088400
  1.159000, -0.088500
  1.161000, -0.088600
  1.163000, -0.088500
  1.165000, -0.088300
  1.167000, -0.088100
  1.169000, -0.087800
  1.171000, -0.087500
  1.173000, -0.087200
  1.175000, -0.086900
  1.177000, -0.086500
  1.179000, -0.086000
  1.181000, -0.085300
  1.183000, -0.084600
  1.185000, -0.083700
  1.187000, -0.082800
  1.189000, -0.081900
  1.191000, -0.081200
  1.193000, -0.080300
  1.195000, -0.079300
  1.197000, -0.078200
  1.199000, -0.077000
  1.201000, -0.075800
  1.203000, -0.074500
  1.205000, -0.073300
  1.207000, -0.072100
  1.209000, -0.070800
  1.211000, -0.069400
  1.213000, -0.068000
  1.215000, -0.066500
  1.217000, -0.065000
  1.219000, -0.063500
  1.221000, -0.061900
  1.223000, -0.060400
  1.225000, -0.058800
  1.227000, -0.057100
  1.229000, -0.055400
  1.231000, -0.053700
  1.233000, -0.052000
  1.235000, -0.050200
  1.237000, -0.048400
  1.239000, -0.046500
  1.241000, -0.044700
  1.243000, -0.042800
  1.245000, -0.040900
  1.247000, -0.039000
  1.249000, -0.037100
  1.251000, -0.035100
  1.253000, -0.033300
  1.255000, -0.031400
  1.257000, -0.029500
  1.259000, -0.027600
  1.261000, -0.025700
  1.263000, -0.023700
  1.265000, -0.021800
  1.267000, -0.019900
  1.269000, -0.017900
  1.271000, -0.016100
  1.273000, -0.014200
  1.275000, -0.012300
  1.277000, -0.010500
  1.279000, -0.008800
  1.281000, -0.007100
  1.283000, -0.005500
  1.285000, -0.004000
  1.287000, -0.002600
  1.289000, -0.001100
  1.291000,  0.000400
  1.293000,  0.001800
  1.295000,  0.003200
  1.297000,  0.004500
  1.299000,  0.005800
  1.301000,  0.007000
  1.303000,  0.008200
  1.305000,  0.009300
  1.307000,  0.010300
  1.309000,  0.011300
  1.311000,  0.012200
  1.313000,  0.013000
  1.315000,  0.013900
  1.317000,  0.014700
  1.319000,  0.015500
  1.321000,  0.016400
  1.323000,  0.017200
  1.325000,  0.017900
  1.327000,  0.018800
  1.329000,  0.019600
  1.331000,  0.020400
  1.333000,  0.021400
  1.335000,  0.022400
  1.337000,  0.023500
  1.339000,  0.024500
  1.341000,  0.025500
  1.343000,  0.026700
  1.345000,  0.028000
  1.347000,  0.029400
  1.349000,  0.030900
  1.351000,  0.032400
  1.353000,  0.033900
  1.355000,  0.035700
  1.357000,  0.037400
  1.359000,  0.039100
  1.361000,  0.041000
  1.363000,  0.043000
  1.365000,  0.045100
  1.367000,  0.047200
  1.369000,  0.049600
  1.371000,  0.051900
  1.373000,  0.054100
  1.375000,  0.056300
  1.377000,  0.058600
  1.379000,  0.060900
  1.381000,  0.063200
  1.383000,  0.065500
  1.385000,  0.067500
  1.387000,  0.069500
  1.389000,  0.071300
  1.391000,  0.072900
  1.393000,  0.074300
  1.395000,  0.075400
  1.397000,  0.076200
  1.399000,  0.076700
