# z (nm)   (kJ/mol)
  0.2690    1.51600
  0.2710    0.75970
  0.2730   -0.12020
  0.2750   -1.00140
  0.2770   -1.84240
  0.2790   -2.66130
  0.2810   -3.48610
  0.2830   -4.30310
  0.2850   -5.10830
  0.2870   -5.90380
  0.2890   -6.69090
  0.2910   -7.46840
  0.2930   -8.22610
  0.2950   -8.97110
  0.2970   -9.70180
  0.2990  -10.41640
  0.3010  -11.11930
  0.3030  -11.80360
  0.3050  -12.46570
  0.3070  -13.10660
  0.3090  -13.73110
  0.3110  -14.33870
  0.3130  -14.92480
  0.3150  -15.49300
  0.3170  -16.04090
  0.3190  -16.56420
  0.3210  -17.06440
  0.3230  -17.54530
  0.3250  -18.00530
  0.3270  -18.44290
  0.3290  -18.85810
  0.3310  -19.25040
  0.3330  -19.61980
  0.3350  -19.96270
  0.3370  -20.27980
  0.3390  -20.57390
  0.3410  -20.84320
  0.3430  -21.08660
  0.3450  -21.30630
  0.3470  -21.50190
  0.3490  -21.67360
  0.3510  -21.82280
  0.3530  -21.94850
  0.3550  -22.05170
  0.3570  -22.13220
  0.3590  -22.19100
  0.3610  -22.22930
  0.3630  -22.24730
  0.3650  -22.24690
  0.3670  -22.22790
  0.3690  -22.19050
  0.3710  -22.13680
  0.3730  -22.06680
  0.3750  -21.98180
  0.3770  -21.88380
  0.3790  -21.77360
  0.3810  -21.65280
  0.3830  -21.52200
  0.3850  -21.38150
  0.3870  -21.22990
  0.3890  -21.06880
  0.3910  -20.90040
  0.3930  -20.72550
  0.3950  -20.54520
  0.3970  -20.36020
  0.3990  -20.17080
  0.4010  -19.97780
  0.4030  -19.78250
  0.4050  -19.58450
  0.4070  -19.38280
  0.4090  -19.17880
  0.4110  -18.97520
  0.4130  -18.77090
  0.4150  -18.56470
  0.4170  -18.35820
  0.4190  -18.15310
  0.4210  -17.94750
  0.4230  -17.74190
  0.4250  -17.53860
  0.4270  -17.33710
  0.4290  -17.13500
  0.4310  -16.93520
  0.4330  -16.73790
  0.4350  -16.54100
  0.4370  -16.34500
  0.4390  -16.15060
  0.4410  -15.95860
  0.4430  -15.76870
  0.4450  -15.58050
  0.4470  -15.39390
  0.4490  -15.20880
  0.4510  -15.02500
  0.4530  -14.84310
  0.4550  -14.66270
  0.4570  -14.48400
  0.4590  -14.30680
  0.4610  -14.13100
  0.4630  -13.95690
  0.4650  -13.78440
  0.4670  -13.61360
  0.4690  -13.44440
  0.4710  -13.27680
  0.4730  -13.11100
  0.4750  -12.94700
  0.4770  -12.78520
  0.4790  -12.62470
  0.4810  -12.46630
  0.4830  -12.31050
  0.4850  -12.15670
  0.4870  -12.00520
  0.4890  -11.85540
  0.4910  -11.70720
  0.4930  -11.56270
  0.4950  -11.42120
  0.4970  -11.28160
  0.4990  -11.14510
  0.5010  -11.01110
  0.5030  -10.87900
  0.5050  -10.74990
  0.5070  -10.62390
  0.5090  -10.50020
  0.5110  -10.37920
  0.5130  -10.26080
  0.5150  -10.14570
  0.5170  -10.03340
  0.5190   -9.92360
  0.5210   -9.81670
  0.5230   -9.71260
  0.5250   -9.61120
  0.5270   -9.51250
  0.5290   -9.41620
  0.5310   -9.32240
  0.5330   -9.23120
  0.5350   -9.14230
  0.5370   -9.05560
  0.5390   -8.97100
  0.5410   -8.88820
  0.5430   -8.80700
  0.5450   -8.72720
  0.5470   -8.64910
  0.5490   -8.57250
  0.5510   -8.49710
  0.5530   -8.42290
  0.5550   -8.34980
  0.5570   -8.27720
  0.5590   -8.20520
  0.5610   -8.13430
  0.5630   -8.06390
  0.5650   -7.99330
  0.5670   -7.92250
  0.5690   -7.85170
  0.5710   -7.78110
  0.5730   -7.71010
  0.5750   -7.63860
  0.5770   -7.56690
  0.5790   -7.49460
  0.5810   -7.42160
  0.5830   -7.34810
  0.5850   -7.27400
  0.5870   -7.19890
  0.5890   -7.12270
  0.5910   -7.04580
  0.5930   -6.96800
  0.5950   -6.88910
  0.5970   -6.80930
  0.5990   -6.72850
  0.6010   -6.64660
  0.6030   -6.56380
  0.6050   -6.48010
  0.6070   -6.39550
  0.6090   -6.30990
  0.6110   -6.22300
  0.6130   -6.13510
  0.6150   -6.04680
  0.6170   -5.95790
  0.6190   -5.86790
  0.6210   -5.77720
  0.6230   -5.68620
  0.6250   -5.59470
  0.6270   -5.50290
  0.6290   -5.41050
  0.6310   -5.31750
  0.6330   -5.22470
  0.6350   -5.13160
  0.6370   -5.03850
  0.6390   -4.94510
  0.6410   -4.85190
  0.6430   -4.75900
  0.6450   -4.66630
  0.6470   -4.57360
  0.6490   -4.48110
  0.6510   -4.38920
  0.6530   -4.29840
  0.6550   -4.20800
  0.6570   -4.11760
  0.6590   -4.02750
  0.6610   -3.93860
  0.6630   -3.85050
  0.6650   -3.76320
  0.6670   -3.67710
  0.6690   -3.59220
  0.6710   -3.50870
  0.6730   -3.42660
  0.6750   -3.34550
  0.6770   -3.26590
  0.6790   -3.18820
  0.6810   -3.11160
  0.6830   -3.03630
  0.6850   -2.96270
  0.6870   -2.89090
  0.6890   -2.82120
  0.6910   -2.75300
  0.6930   -2.68570
  0.6950   -2.62040
  0.6970   -2.55710
  0.6990   -2.49550
  0.7010   -2.43550
  0.7030   -2.37700
  0.7050   -2.31990
  0.7070   -2.26450
  0.7090   -2.21090
  0.7110   -2.15930
  0.7130   -2.10980
  0.7150   -2.06210
  0.7170   -2.01580
  0.7190   -1.97130
  0.7210   -1.92890
  0.7230   -1.88780
  0.7250   -1.84810
  0.7270   -1.81010
  0.7290   -1.77370
  0.7310   -1.73860
  0.7330   -1.70500
  0.7350   -1.67280
  0.7370   -1.64190
  0.7390   -1.61210
  0.7410   -1.58380
  0.7430   -1.55680
  0.7450   -1.53090
  0.7470   -1.50600
  0.7490   -1.48230
  0.7510   -1.45960
  0.7530   -1.43770
  0.7550   -1.41660
  0.7570   -1.39630
  0.7590   -1.37700
  0.7610   -1.35830
  0.7630   -1.34040
  0.7650   -1.32300
  0.7670   -1.30620
  0.7690   -1.28990
  0.7710   -1.27420
  0.7730   -1.25890
  0.7750   -1.24410
  0.7770   -1.22990
  0.7790   -1.21610
  0.7810   -1.20260
  0.7830   -1.18940
  0.7850   -1.17630
  0.7870   -1.16340
  0.7890   -1.15090
  0.7910   -1.13890
  0.7930   -1.12680
  0.7950   -1.11470
  0.7970   -1.10280
  0.7990   -1.09110
  0.8010   -1.07920
  0.8030   -1.06730
  0.8050   -1.05610
  0.8070   -1.04480
  0.8090   -1.03350
  0.8110   -1.02240
  0.8130   -1.01120
  0.8150   -1.00000
  0.8170   -0.98880
  0.8190   -0.97760
  0.8210   -0.96650
  0.8230   -0.95520
  0.8250   -0.94390
  0.8270   -0.93260
  0.8290   -0.92130
  0.8310   -0.91010
  0.8330   -0.89910
  0.8350   -0.88790
  0.8370   -0.87650
  0.8390   -0.86540
  0.8410   -0.85450
  0.8430   -0.84370
  0.8450   -0.83290
  0.8470   -0.82190
  0.8490   -0.81060
  0.8510   -0.79930
  0.8530   -0.78830
  0.8550   -0.77720
  0.8570   -0.76600
  0.8590   -0.75480
  0.8610   -0.74370
  0.8630   -0.73270
  0.8650   -0.72210
  0.8670   -0.71150
  0.8690   -0.70080
  0.8710   -0.69020
  0.8730   -0.67980
  0.8750   -0.66940
  0.8770   -0.65890
  0.8790   -0.64860
  0.8810   -0.63850
  0.8830   -0.62820
  0.8850   -0.61800
  0.8870   -0.60800
  0.8890   -0.59820
  0.8910   -0.58860
  0.8930   -0.57900
  0.8950   -0.56930
  0.8970   -0.55970
  0.8990   -0.55030
  0.9010   -0.54100
  0.9030   -0.53180
  0.9050   -0.52290
  0.9070   -0.51420
  0.9090   -0.50540
  0.9110   -0.49680
  0.9130   -0.48820
  0.9150   -0.47970
  0.9170   -0.47150
  0.9190   -0.46330
  0.9210   -0.45520
  0.9230   -0.44720
  0.9250   -0.43940
  0.9270   -0.43180
  0.9290   -0.42410
  0.9310   -0.41650
  0.9330   -0.40910
  0.9350   -0.40190
  0.9370   -0.39460
  0.9390   -0.38740
  0.9410   -0.38040
  0.9430   -0.37360
  0.9450   -0.36690
  0.9470   -0.36030
  0.9490   -0.35380
  0.9510   -0.34740
  0.9530   -0.34120
  0.9550   -0.33490
  0.9570   -0.32860
  0.9590   -0.32260
  0.9610   -0.31660
  0.9630   -0.31060
  0.9650   -0.30480
  0.9670   -0.29900
  0.9690   -0.29340
  0.9710   -0.28760
  0.9730   -0.28200
  0.9750   -0.27630
  0.9770   -0.27070
  0.9790   -0.26520
  0.9810   -0.25960
  0.9830   -0.25390
  0.9850   -0.24820
  0.9870   -0.24260
  0.9890   -0.23700
  0.9910   -0.23150
  0.9930   -0.22600
  0.9950   -0.22050
  0.9970   -0.21500
  0.9990   -0.20950
  1.0010   -0.20410
  1.0030   -0.19870
  1.0050   -0.19320
  1.0070   -0.18780
  1.0090   -0.18260
  1.0110   -0.17740
  1.0130   -0.17230
  1.0150   -0.16720
  1.0170   -0.16200
  1.0190   -0.15690
  1.0210   -0.15180
  1.0230   -0.14680
  1.0250   -0.14190
  1.0270   -0.13720
  1.0290   -0.13250
  1.0310   -0.12800
  1.0330   -0.12360
  1.0350   -0.11930
  1.0370   -0.11520
  1.0390   -0.11110
  1.0410   -0.10710
  1.0430   -0.10320
  1.0450   -0.09960
  1.0470   -0.09620
  1.0490   -0.09280
  1.0510   -0.08950
  1.0530   -0.08640
  1.0550   -0.08360
  1.0570   -0.08100
  1.0590   -0.07850
  1.0610   -0.07610
  1.0630   -0.07390
  1.0650   -0.07200
  1.0670   -0.07020
  1.0690   -0.06870
  1.0710   -0.06740
  1.0730   -0.06630
  1.0750   -0.06530
  1.0770   -0.06430
  1.0790   -0.06350
  1.0810   -0.06290
  1.0830   -0.06260
  1.0850   -0.06240
  1.0870   -0.06230
  1.0890   -0.06230
  1.0910   -0.06250
  1.0930   -0.06290
  1.0950   -0.06350
  1.0970   -0.06410
  1.0990   -0.06480
  1.1010   -0.06550
  1.1030   -0.06620
  1.1050   -0.06690
  1.1070   -0.06790
  1.1090   -0.06900
  1.1110   -0.07000
  1.1130   -0.07110
  1.1150   -0.07210
  1.1170   -0.07320
  1.1190   -0.07420
  1.1210   -0.07520
  1.1230   -0.07620
  1.1250   -0.07740
  1.1270   -0.07850
  1.1290   -0.07950
  1.1310   -0.08060
  1.1330   -0.08160
  1.1350   -0.08240
  1.1370   -0.08320
  1.1390   -0.08400
  1.1410   -0.08470
  1.1430   -0.08540
  1.1450   -0.08620
  1.1470   -0.08680
  1.1490   -0.08720
  1.1510   -0.08760
  1.1530   -0.08790
  1.1550   -0.08810
  1.1570   -0.08840
  1.1590   -0.08850
  1.1610   -0.08860
  1.1630   -0.08850
  1.1650   -0.08830
  1.1670   -0.08810
  1.1690   -0.08780
  1.1710   -0.08750
  1.1730   -0.08720
  1.1750   -0.08690
  1.1770   -0.08650
  1.1790   -0.08600
  1.1810   -0.08530
  1.1830   -0.08460
  1.1850   -0.08370
  1.1870   -0.08280
  1.1890   -0.08190
  1.1910   -0.08120
  1.1930   -0.08030
  1.1950   -0.07930
  1.1970   -0.07820
  1.1990   -0.07700
  1.2010   -0.07580
  1.2030   -0.07450
  1.2050   -0.07330
  1.2070   -0.07210
  1.2090   -0.07080
  1.2110   -0.06940
  1.2130   -0.06800
  1.2150   -0.06650
  1.2170   -0.06500
  1.2190   -0.06350
  1.2210   -0.06190
  1.2230   -0.06040
  1.2250   -0.05880
  1.2270   -0.05710
  1.2290   -0.05540
  1.2310   -0.05370
  1.2330   -0.05200
  1.2350   -0.05020
  1.2370   -0.04840
  1.2390   -0.04650
  1.2410   -0.04470
  1.2430   -0.04280
  1.2450   -0.04090
  1.2470   -0.03900
  1.2490   -0.03710
  1.2510   -0.03510
  1.2530   -0.03330
  1.2550   -0.03140
  1.2570   -0.02950
  1.2590   -0.02760
  1.2610   -0.02570
  1.2630   -0.02370
  1.2650   -0.02180
  1.2670   -0.01990
  1.2690   -0.01790
  1.2710   -0.01610
  1.2730   -0.01420
  1.2750   -0.01230
  1.2770   -0.01050
  1.2790   -0.00880
  1.2810   -0.00710
  1.2830   -0.00550
  1.2850   -0.00400
  1.2870   -0.00260
  1.2890   -0.00110
  1.2910    0.00040
  1.2930    0.00180
  1.2950    0.00320
  1.2970    0.00450
  1.2990    0.00580
  1.3010    0.00700
  1.3030    0.00820
  1.3050    0.00930
  1.3070    0.01030
  1.3090    0.01130
  1.3110    0.01220
  1.3130    0.01300
  1.3150    0.01390
  1.3170    0.01470
  1.3190    0.01550
  1.3210    0.01640
  1.3230    0.01720
  1.3250    0.01790
  1.3270    0.01880
  1.3290    0.01960
  1.3310    0.02040
  1.3330    0.02140
  1.3350    0.02240
  1.3370    0.02350
  1.3390    0.02450
  1.3410    0.02550
  1.3430    0.02670
  1.3450    0.02800
  1.3470    0.02940
  1.3490    0.03090
  1.3510    0.03240
  1.3530    0.03390
  1.3550    0.03570
  1.3570    0.03740
  1.3590    0.03910
  1.3610    0.04100
  1.3630    0.04300
  1.3650    0.04510
  1.3670    0.04720
  1.3690    0.04960
  1.3710    0.05190
  1.3730    0.05410
  1.3750    0.05630
  1.3770    0.05860
  1.3790    0.06090
  1.3810    0.06320
  1.3830    0.06550
  1.3850    0.06750
  1.3870    0.06950
  1.3890    0.07130
  1.3910    0.07290
  1.3930    0.07430
  1.3950    0.07540
  1.3970    0.07620
  1.3990    0.07670
