# z (nm)   (kJ/mol)
  0.245000,  4.627500
  0.247000,  3.990200
  0.249000,  3.344300
  0.251000,  2.704900
  0.253000,  2.107200
  0.255000,  1.520900
  0.257000,  0.914300
  0.259000,  0.310600
  0.261000, -0.287100
  0.263000, -0.889700
  0.265000, -1.480900
  0.267000, -2.062700
  0.269000, -2.637600
  0.271000, -3.201900
  0.273000, -3.751300
  0.275000, -4.293700
  0.277000, -4.828900
  0.279000, -5.352000
  0.281000, -5.858300
  0.283000, -6.348400
  0.285000, -6.825500
  0.287000, -7.290300
  0.289000, -7.742000
  0.291000, -8.177000
  0.293000, -8.597200
  0.295000, -9.005200
  0.297000, -9.397000
  0.299000, -9.771300
  0.301000,-10.130500
  0.303000,-10.473600
  0.305000,-10.800500
  0.307000,-11.109500
  0.309000,-11.402900
  0.311000,-11.681900
  0.313000,-11.944800
  0.315000,-12.191800
  0.317000,-12.422300
  0.319000,-12.636600
  0.321000,-12.835500
  0.323000,-13.019600
  0.325000,-13.188000
  0.327000,-13.341000
  0.329000,-13.479300
  0.331000,-13.602900
  0.333000,-13.712200
  0.335000,-13.807600
  0.337000,-13.890600
  0.339000,-13.960600
  0.341000,-14.017600
  0.343000,-14.063100
  0.345000,-14.096200
  0.347000,-14.116900
  0.349000,-14.127000
  0.351000,-14.127500
  0.353000,-14.117900
  0.355000,-14.100800
  0.357000,-14.074800
  0.359000,-14.037700
  0.361000,-13.992000
  0.363000,-13.940400
  0.365000,-13.883100
  0.367000,-13.819800
  0.369000,-13.750600
  0.371000,-13.676100
  0.373000,-13.596100
  0.375000,-13.511300
  0.377000,-13.423500
  0.379000,-13.331800
  0.381000,-13.237900
  0.383000,-13.142300
  0.385000,-13.043900
  0.387000,-12.943200
  0.389000,-12.840800
  0.391000,-12.737500
  0.393000,-12.633100
  0.395000,-12.527100
  0.397000,-12.420500
  0.399000,-12.314000
  0.401000,-12.206900
  0.403000,-12.099700
  0.405000,-11.992300
  0.407000,-11.884700
  0.409000,-11.776900
  0.411000,-11.669200
  0.413000,-11.561500
  0.415000,-11.454100
  0.417000,-11.347100
  0.419000,-11.240000
  0.421000,-11.132700
  0.423000,-11.025800
  0.425000,-10.918900
  0.427000,-10.811800
  0.429000,-10.705000
  0.431000,-10.598200
  0.433000,-10.490900
  0.435000,-10.383300
  0.437000,-10.275600
  0.439000,-10.167900
  0.441000,-10.059500
  0.443000, -9.950400
  0.445000, -9.841400
  0.447000, -9.732000
  0.449000, -9.621900
  0.451000, -9.511000
  0.453000, -9.399400
  0.455000, -9.286900
  0.457000, -9.174100
  0.459000, -9.060400
  0.461000, -8.945600
  0.463000, -8.830300
  0.465000, -8.714200
  0.467000, -8.596900
  0.469000, -8.478700
  0.471000, -8.359500
  0.473000, -8.239100
  0.475000, -8.117900
  0.477000, -7.995700
  0.479000, -7.872600
  0.481000, -7.748400
  0.483000, -7.623000
  0.485000, -7.496800
  0.487000, -7.369500
  0.489000, -7.241300
  0.491000, -7.112000
  0.493000, -6.981600
  0.495000, -6.850400
  0.497000, -6.718400
  0.499000, -6.585400
  0.501000, -6.451700
  0.503000, -6.317400
  0.505000, -6.182300
  0.507000, -6.046600
  0.509000, -5.910600
  0.511000, -5.774200
  0.513000, -5.637100
  0.515000, -5.499900
  0.517000, -5.362800
  0.519000, -5.225700
  0.521000, -5.088600
  0.523000, -4.951700
  0.525000, -4.815400
  0.527000, -4.679400
  0.529000, -4.543900
  0.531000, -4.409100
  0.533000, -4.275100
  0.535000, -4.142300
  0.537000, -4.010900
  0.539000, -3.880200
  0.541000, -3.750500
  0.543000, -3.622600
  0.545000, -3.496500
  0.547000, -3.372400
  0.549000, -3.250000
  0.551000, -3.129500
  0.553000, -3.011500
  0.555000, -2.895700
  0.557000, -2.781900
  0.559000, -2.670700
  0.561000, -2.562300
  0.563000, -2.456800
  0.565000, -2.353700
  0.567000, -2.253600
  0.569000, -2.156600
  0.571000, -2.062600
  0.573000, -1.971700
  0.575000, -1.884300
  0.577000, -1.800300
  0.579000, -1.719100
  0.581000, -1.641200
  0.583000, -1.566900
  0.585000, -1.496000
  0.587000, -1.428400
  0.589000, -1.364400
  0.591000, -1.303800
  0.593000, -1.246400
  0.595000, -1.192100
  0.597000, -1.141300
  0.599000, -1.094100
  0.601000, -1.050200
  0.603000, -1.009600
  0.605000, -0.972300
  0.607000, -0.938200
  0.609000, -0.907000
  0.611000, -0.878900
  0.613000, -0.853700
  0.615000, -0.831300
  0.617000, -0.811700
  0.619000, -0.794400
  0.621000, -0.779700
  0.623000, -0.768000
  0.625000, -0.758600
  0.627000, -0.751200
  0.629000, -0.746100
  0.631000, -0.743100
  0.633000, -0.742100
  0.635000, -0.743400
  0.637000, -0.746400
  0.639000, -0.751100
  0.641000, -0.757700
  0.643000, -0.765500
  0.645000, -0.774700
  0.647000, -0.785100
  0.649000, -0.796700
  0.651000, -0.809500
  0.653000, -0.823300
  0.655000, -0.837900
  0.657000, -0.853100
  0.659000, -0.869000
  0.661000, -0.885400
  0.663000, -0.902300
  0.665000, -0.919800
  0.667000, -0.937500
  0.669000, -0.955300
  0.671000, -0.973200
  0.673000, -0.991300
  0.675000, -1.009000
  0.677000, -1.026500
  0.679000, -1.044100
  0.681000, -1.061200
  0.683000, -1.078000
  0.685000, -1.094700
  0.687000, -1.111000
  0.689000, -1.126800
  0.691000, -1.141900
  0.693000, -1.156600
  0.695000, -1.170800
  0.697000, -1.184400
  0.699000, -1.197400
  0.701000, -1.209900
  0.703000, -1.221600
  0.705000, -1.232500
  0.707000, -1.242600
  0.709000, -1.251800
  0.711000, -1.260400
  0.713000, -1.268300
  0.715000, -1.275300
  0.717000, -1.281400
  0.719000, -1.286800
  0.721000, -1.291500
  0.723000, -1.295200
  0.725000, -1.298300
  0.727000, -1.300600
  0.729000, -1.302000
  0.731000, -1.302600
  0.733000, -1.302600
  0.735000, -1.301900
  0.737000, -1.300200
  0.739000, -1.297900
  0.741000, -1.294900
  0.743000, -1.291200
  0.745000, -1.287000
  0.747000, -1.282100
  0.749000, -1.276500
  0.751000, -1.270300
  0.753000, -1.263500
  0.755000, -1.256100
  0.757000, -1.248300
  0.759000, -1.239900
  0.761000, -1.230900
  0.763000, -1.221500
  0.765000, -1.211800
  0.767000, -1.201600
  0.769000, -1.191000
  0.771000, -1.180200
  0.773000, -1.168900
  0.775000, -1.157100
  0.777000, -1.145100
  0.779000, -1.132800
  0.781000, -1.120200
  0.783000, -1.107300
  0.785000, -1.094000
  0.787000, -1.080400
  0.789000, -1.066600
  0.791000, -1.052500
  0.793000, -1.038200
  0.795000, -1.023800
  0.797000, -1.009100
  0.799000, -0.994100
  0.801000, -0.979100
  0.803000, -0.964000
  0.805000, -0.948700
  0.807000, -0.933300
  0.809000, -0.917600
  0.811000, -0.901800
  0.813000, -0.886000
  0.815000, -0.870100
  0.817000, -0.854200
  0.819000, -0.838200
  0.821000, -0.822100
  0.823000, -0.805900
  0.825000, -0.789700
  0.827000, -0.773600
  0.829000, -0.757300
  0.831000, -0.740900
  0.833000, -0.724500
  0.835000, -0.708200
  0.837000, -0.692000
  0.839000, -0.675500
  0.841000, -0.659200
  0.843000, -0.643000
  0.845000, -0.626800
  0.847000, -0.610700
  0.849000, -0.594700
  0.851000, -0.578800
  0.853000, -0.563000
  0.855000, -0.547200
  0.857000, -0.531300
  0.859000, -0.515800
  0.861000, -0.500700
  0.863000, -0.485700
  0.865000, -0.470700
  0.867000, -0.455900
  0.869000, -0.441200
  0.871000, -0.426600
  0.873000, -0.412400
  0.875000, -0.398600
  0.877000, -0.385000
  0.879000, -0.371500
  0.881000, -0.358300
  0.883000, -0.345500
  0.885000, -0.333200
  0.887000, -0.321000
  0.889000, -0.309000
  0.891000, -0.297500
  0.893000, -0.286100
  0.895000, -0.274900
  0.897000, -0.264200
  0.899000, -0.253900
  0.901000, -0.244000
  0.903000, -0.234300
  0.905000, -0.224900
  0.907000, -0.215900
  0.909000, -0.207200
  0.911000, -0.198900
  0.913000, -0.190900
  0.915000, -0.183300
  0.917000, -0.176200
  0.919000, -0.169500
  0.921000, -0.163100
  0.923000, -0.157300
  0.925000, -0.151900
  0.927000, -0.146600
  0.929000, -0.141800
  0.931000, -0.137300
  0.933000, -0.133300
  0.935000, -0.129800
  0.937000, -0.126600
  0.939000, -0.123700
  0.941000, -0.121200
  0.943000, -0.119200
  0.945000, -0.117300
  0.947000, -0.115500
  0.949000, -0.114200
  0.951000, -0.113400
  0.953000, -0.112900
  0.955000, -0.112700
  0.957000, -0.112900
  0.959000, -0.113200
  0.961000, -0.113800
  0.963000, -0.114600
  0.965000, -0.115500
  0.967000, -0.116800
  0.969000, -0.118300
  0.971000, -0.119900
  0.973000, -0.121700
  0.975000, -0.123800
  0.977000, -0.126000
  0.979000, -0.128300
  0.981000, -0.130800
  0.983000, -0.133300
  0.985000, -0.135900
  0.987000, -0.138600
  0.989000, -0.141400
  0.991000, -0.144200
  0.993000, -0.147000
  0.995000, -0.149800
  0.997000, -0.152700
  0.999000, -0.155600
  1.001000, -0.158300
  1.003000, -0.161100
  1.005000, -0.164000
  1.007000, -0.167000
  1.009000, -0.169800
  1.011000, -0.172500
  1.013000, -0.175300
  1.015000, -0.178000
  1.017000, -0.180600
  1.019000, -0.183100
  1.021000, -0.185400
  1.023000, -0.187700
  1.025000, -0.189900
  1.027000, -0.192100
  1.029000, -0.194300
  1.031000, -0.196200
  1.033000, -0.198200
  1.035000, -0.200200
  1.037000, -0.202100
  1.039000, -0.203800
  1.041000, -0.205400
  1.043000, -0.206900
  1.045000, -0.208300
  1.047000, -0.209600
  1.049000, -0.210900
  1.051000, -0.212100
  1.053000, -0.213200
  1.055000, -0.214200
  1.057000, -0.215100
  1.059000, -0.215900
  1.061000, -0.216500
  1.063000, -0.217000
  1.065000, -0.217200
  1.067000, -0.217400
  1.069000, -0.217600
  1.071000, -0.217700
  1.073000, -0.217600
  1.075000, -0.217500
  1.077000, -0.217400
  1.079000, -0.217200
  1.081000, -0.216700
  1.083000, -0.215900
  1.085000, -0.215100
  1.087000, -0.214400
  1.089000, -0.213600
  1.091000, -0.212400
  1.093000, -0.211100
  1.095000, -0.210000
  1.097000, -0.208700
  1.099000, -0.207300
  1.101000, -0.206000
  1.103000, -0.204600
  1.105000, -0.202900
  1.107000, -0.201000
  1.109000, -0.199000
  1.111000, -0.196800
  1.113000, -0.194700
  1.115000, -0.192700
  1.117000, -0.190600
  1.119000, -0.188500
  1.121000, -0.186300
  1.123000, -0.184000
  1.125000, -0.181500
  1.127000, -0.179200
  1.129000, -0.176600
  1.131000, -0.173900
  1.133000, -0.171300
  1.135000, -0.168600
  1.137000, -0.165900
  1.139000, -0.163100
  1.141000, -0.160200
  1.143000, -0.157300
  1.145000, -0.154300
  1.147000, -0.151300
  1.149000, -0.148300
  1.151000, -0.145000
  1.153000, -0.141800
  1.155000, -0.138500
  1.157000, -0.135100
  1.159000, -0.131700
  1.161000, -0.128100
  1.163000, -0.124500
  1.165000, -0.120900
  1.167000, -0.117300
  1.169000, -0.113700
  1.171000, -0.110000
  1.173000, -0.106200
  1.175000, -0.102200
  1.177000, -0.098300
  1.179000, -0.094500
  1.181000, -0.090500
  1.183000, -0.086600
  1.185000, -0.082600
  1.187000, -0.078700
  1.189000, -0.074800
  1.191000, -0.070900
  1.193000, -0.066900
  1.195000, -0.063000
  1.197000, -0.059000
  1.199000, -0.055100
  1.201000, -0.051400
  1.203000, -0.047700
  1.205000, -0.043900
  1.207000, -0.040100
  1.209000, -0.036500
  1.211000, -0.033100
  1.213000, -0.029800
  1.215000, -0.026600
  1.217000, -0.023400
  1.219000, -0.020300
  1.221000, -0.017400
  1.223000, -0.014700
  1.225000, -0.012100
  1.227000, -0.009600
  1.229000, -0.007400
  1.231000, -0.005200
  1.233000, -0.003100
  1.235000, -0.001200
  1.237000,  0.000500
  1.239000,  0.002000
  1.241000,  0.003400
  1.243000,  0.004900
  1.245000,  0.006000
  1.247000,  0.007100
  1.249000,  0.008100
  1.251000,  0.008900
  1.253000,  0.009600
  1.255000,  0.010200
  1.257000,  0.010700
  1.259000,  0.010900
  1.261000,  0.011000
  1.263000,  0.011100
  1.265000,  0.011100
  1.267000,  0.010900
  1.269000,  0.010700
  1.271000,  0.010400
  1.273000,  0.010100
  1.275000,  0.009700
  1.277000,  0.009300
  1.279000,  0.008800
  1.281000,  0.008300
  1.283000,  0.007900
  1.285000,  0.007300
  1.287000,  0.006800
  1.289000,  0.006200
  1.291000,  0.005500
  1.293000,  0.004800
  1.295000,  0.004100
  1.297000,  0.003400
  1.299000,  0.002700
  1.301000,  0.002000
  1.303000,  0.001400
  1.305000,  0.000800
  1.307000,  0.000300
  1.309000, -0.000300
  1.311000, -0.000900
  1.313000, -0.001600
  1.315000, -0.002300
  1.317000, -0.002900
  1.319000, -0.003400
  1.321000, -0.003800
  1.323000, -0.004200
  1.325000, -0.004600
  1.327000, -0.004900
  1.329000, -0.005100
  1.331000, -0.005300
  1.333000, -0.005500
  1.335000, -0.005600
  1.337000, -0.005700
  1.339000, -0.005600
  1.341000, -0.005400
  1.343000, -0.005100
  1.345000, -0.004700
  1.347000, -0.004300
  1.349000, -0.003800
  1.351000, -0.003100
  1.353000, -0.002400
  1.355000, -0.001600
  1.357000, -0.000600
  1.359000,  0.000500
  1.361000,  0.001500
  1.363000,  0.002800
  1.365000,  0.004100
  1.367000,  0.005400
  1.369000,  0.006700
  1.371000,  0.008200
  1.373000,  0.009800
  1.375000,  0.011300
  1.377000,  0.012900
  1.379000,  0.014800
  1.381000,  0.016600
  1.383000,  0.018500
  1.385000,  0.020200
  1.387000,  0.021600
  1.389000,  0.023000
  1.391000,  0.024400
  1.393000,  0.025600
  1.395000,  0.026500
  1.397000,  0.027200
  1.399000,  0.027300
