# z (nm)   (kJ/mol)
  0.269000,  9.169100
  0.271000,  9.008800
  0.273000,  8.854600
  0.275000,  8.680700
  0.277000,  8.497900
  0.279000,  8.338800
  0.281000,  8.181100
  0.283000,  8.003600
  0.285000,  7.815200
  0.287000,  7.614800
  0.289000,  7.422000
  0.291000,  7.236000
  0.293000,  7.046800
  0.295000,  6.848300
  0.297000,  6.643900
  0.299000,  6.444000
  0.301000,  6.239700
  0.303000,  6.025400
  0.305000,  5.811200
  0.307000,  5.598900
  0.309000,  5.385600
  0.311000,  5.169900
  0.313000,  4.952200
  0.315000,  4.735800
  0.317000,  4.518300
  0.319000,  4.295000
  0.321000,  4.066000
  0.323000,  3.839800
  0.325000,  3.615800
  0.327000,  3.389400
  0.329000,  3.161600
  0.331000,  2.934500
  0.333000,  2.705200
  0.335000,  2.474500
  0.337000,  2.246600
  0.339000,  2.017700
  0.341000,  1.790500
  0.343000,  1.564800
  0.345000,  1.336900
  0.347000,  1.108700
  0.349000,  0.883700
  0.351000,  0.659000
  0.353000,  0.434100
  0.355000,  0.210700
  0.357000, -0.013900
  0.359000, -0.237000
  0.361000, -0.456500
  0.363000, -0.673000
  0.365000, -0.888100
  0.367000, -1.103000
  0.369000, -1.315800
  0.371000, -1.525900
  0.373000, -1.735100
  0.375000, -1.941400
  0.377000, -2.144900
  0.379000, -2.346900
  0.381000, -2.547500
  0.383000, -2.745800
  0.385000, -2.940200
  0.387000, -3.131000
  0.389000, -3.318800
  0.391000, -3.503800
  0.393000, -3.685400
  0.395000, -3.863700
  0.397000, -4.037600
  0.399000, -4.207500
  0.401000, -4.373600
  0.403000, -4.535500
  0.405000, -4.693800
  0.407000, -4.847900
  0.409000, -4.997600
  0.411000, -5.142700
  0.413000, -5.281800
  0.415000, -5.416700
  0.417000, -5.548900
  0.419000, -5.676000
  0.421000, -5.796500
  0.423000, -5.911000
  0.425000, -6.020500
  0.427000, -6.124700
  0.429000, -6.223800
  0.431000, -6.317300
  0.433000, -6.405500
  0.435000, -6.488900
  0.437000, -6.566200
  0.439000, -6.637300
  0.441000, -6.702500
  0.443000, -6.761700
  0.445000, -6.815800
  0.447000, -6.864200
  0.449000, -6.905600
  0.451000, -6.940400
  0.453000, -6.969100
  0.455000, -6.992400
  0.457000, -7.009900
  0.459000, -7.021500
  0.461000, -7.027200
  0.463000, -7.026900
  0.465000, -7.020900
  0.467000, -7.009100
  0.469000, -6.991300
  0.471000, -6.967800
  0.473000, -6.938300
  0.475000, -6.903300
  0.477000, -6.863000
  0.479000, -6.817200
  0.481000, -6.766400
  0.483000, -6.710100
  0.485000, -6.648700
  0.487000, -6.583100
  0.489000, -6.512800
  0.491000, -6.437500
  0.493000, -6.357800
  0.495000, -6.273800
  0.497000, -6.185400
  0.499000, -6.093200
  0.501000, -5.997900
  0.503000, -5.899000
  0.505000, -5.796800
  0.507000, -5.691500
  0.509000, -5.583300
  0.511000, -5.472700
  0.513000, -5.360100
  0.515000, -5.245400
  0.517000, -5.128800
  0.519000, -5.010700
  0.521000, -4.891500
  0.523000, -4.771200
  0.525000, -4.650100
  0.527000, -4.528900
  0.529000, -4.406500
  0.531000, -4.283800
  0.533000, -4.162200
  0.535000, -4.040400
  0.537000, -3.918500
  0.539000, -3.798100
  0.541000, -3.679200
  0.543000, -3.561300
  0.545000, -3.444200
  0.547000, -3.328800
  0.549000, -3.215900
  0.551000, -3.104800
  0.553000, -2.995200
  0.555000, -2.888500
  0.557000, -2.785300
  0.559000, -2.683700
  0.561000, -2.584000
  0.563000, -2.487200
  0.565000, -2.393700
  0.567000, -2.303900
  0.569000, -2.216600
  0.571000, -2.132200
  0.573000, -2.050600
  0.575000, -1.972100
  0.577000, -1.897900
  0.579000, -1.826900
  0.581000, -1.759000
  0.583000, -1.694500
  0.585000, -1.633200
  0.587000, -1.575000
  0.589000, -1.519800
  0.591000, -1.467800
  0.593000, -1.418800
  0.595000, -1.372600
  0.597000, -1.329200
  0.599000, -1.288800
  0.601000, -1.251200
  0.603000, -1.216000
  0.605000, -1.183800
  0.607000, -1.153800
  0.609000, -1.126200
  0.611000, -1.101000
  0.613000, -1.078200
  0.615000, -1.057600
  0.617000, -1.038400
  0.619000, -1.021100
  0.621000, -1.006200
  0.623000, -0.993200
  0.625000, -0.981300
  0.627000, -0.970700
  0.629000, -0.961600
  0.631000, -0.953700
  0.633000, -0.947300
  0.635000, -0.942000
  0.637000, -0.937700
  0.639000, -0.934100
  0.641000, -0.931500
  0.643000, -0.929700
  0.645000, -0.928200
  0.647000, -0.927100
  0.649000, -0.926700
  0.651000, -0.927000
  0.653000, -0.927600
  0.655000, -0.928800
  0.657000, -0.930300
  0.659000, -0.932200
  0.661000, -0.934200
  0.663000, -0.936200
  0.665000, -0.938300
  0.667000, -0.940600
  0.669000, -0.943100
  0.671000, -0.945500
  0.673000, -0.947800
  0.675000, -0.950100
  0.677000, -0.952600
  0.679000, -0.955000
  0.681000, -0.957000
  0.683000, -0.958800
  0.685000, -0.960800
  0.687000, -0.962700
  0.689000, -0.964100
  0.691000, -0.965100
  0.693000, -0.966000
  0.695000, -0.966900
  0.697000, -0.967500
  0.699000, -0.967600
  0.701000, -0.967600
  0.703000, -0.967400
  0.705000, -0.967000
  0.707000, -0.966300
  0.709000, -0.965300
  0.711000, -0.964100
  0.713000, -0.962500
  0.715000, -0.960600
  0.717000, -0.958400
  0.719000, -0.956000
  0.721000, -0.953200
  0.723000, -0.949900
  0.725000, -0.946400
  0.727000, -0.942700
  0.729000, -0.938500
  0.731000, -0.934100
  0.733000, -0.929400
  0.735000, -0.924400
  0.737000, -0.919100
  0.739000, -0.913600
  0.741000, -0.907500
  0.743000, -0.901100
  0.745000, -0.894500
  0.747000, -0.887600
  0.749000, -0.880200
  0.751000, -0.872600
  0.753000, -0.864700
  0.755000, -0.856400
  0.757000, -0.847800
  0.759000, -0.838900
  0.761000, -0.829700
  0.763000, -0.820200
  0.765000, -0.810500
  0.767000, -0.800500
  0.769000, -0.790300
  0.771000, -0.779900
  0.773000, -0.769400
  0.775000, -0.758600
  0.777000, -0.747500
  0.779000, -0.736100
  0.781000, -0.724600
  0.783000, -0.713000
  0.785000, -0.701100
  0.787000, -0.689100
  0.789000, -0.676900
  0.791000, -0.664900
  0.793000, -0.652900
  0.795000, -0.640500
  0.797000, -0.627900
  0.799000, -0.615300
  0.801000, -0.602500
  0.803000, -0.589600
  0.805000, -0.576700
  0.807000, -0.563700
  0.809000, -0.551000
  0.811000, -0.538400
  0.813000, -0.525800
  0.815000, -0.513400
  0.817000, -0.500600
  0.819000, -0.487900
  0.821000, -0.475600
  0.823000, -0.463200
  0.825000, -0.450800
  0.827000, -0.438600
  0.829000, -0.426400
  0.831000, -0.414400
  0.833000, -0.402900
  0.835000, -0.391600
  0.837000, -0.380200
  0.839000, -0.368900
  0.841000, -0.357900
  0.843000, -0.347000
  0.845000, -0.336200
  0.847000, -0.325600
  0.849000, -0.315300
  0.851000, -0.305100
  0.853000, -0.295100
  0.855000, -0.285500
  0.857000, -0.275900
  0.859000, -0.266700
  0.861000, -0.257600
  0.863000, -0.248800
  0.865000, -0.240100
  0.867000, -0.231700
  0.869000, -0.223500
  0.871000, -0.215900
  0.873000, -0.208500
  0.875000, -0.201100
  0.877000, -0.194100
  0.879000, -0.187300
  0.881000, -0.180700
  0.883000, -0.174200
  0.885000, -0.168000
  0.887000, -0.162100
  0.889000, -0.156400
  0.891000, -0.150900
  0.893000, -0.145500
  0.895000, -0.140500
  0.897000, -0.135700
  0.899000, -0.131100
  0.901000, -0.126700
  0.903000, -0.122500
  0.905000, -0.118700
  0.907000, -0.115000
  0.909000, -0.111400
  0.911000, -0.108100
  0.913000, -0.105100
  0.915000, -0.102100
  0.917000, -0.099400
  0.919000, -0.097000
  0.921000, -0.094800
  0.923000, -0.092600
  0.925000, -0.090700
  0.927000, -0.089000
  0.929000, -0.087500
  0.931000, -0.086200
  0.933000, -0.085000
  0.935000, -0.083900
  0.937000, -0.083000
  0.939000, -0.082300
  0.941000, -0.081800
  0.943000, -0.081300
  0.945000, -0.081000
  0.947000, -0.080900
  0.949000, -0.080900
  0.951000, -0.080800
  0.953000, -0.081000
  0.955000, -0.081300
  0.957000, -0.081800
  0.959000, -0.082500
  0.961000, -0.083200
  0.963000, -0.084000
  0.965000, -0.084700
  0.967000, -0.085400
  0.969000, -0.086300
  0.971000, -0.087300
  0.973000, -0.088400
  0.975000, -0.089600
  0.977000, -0.090800
  0.979000, -0.091900
  0.981000, -0.093100
  0.983000, -0.094300
  0.985000, -0.095600
  0.987000, -0.097000
  0.989000, -0.098300
  0.991000, -0.099700
  0.993000, -0.100900
  0.995000, -0.102300
  0.997000, -0.103800
  0.999000, -0.105100
  1.001000, -0.106600
  1.003000, -0.108100
  1.005000, -0.109500
  1.007000, -0.111000
  1.009000, -0.112500
  1.011000, -0.114000
  1.013000, -0.115400
  1.015000, -0.116700
  1.017000, -0.117900
  1.019000, -0.119200
  1.021000, -0.120500
  1.023000, -0.121700
  1.025000, -0.122800
  1.027000, -0.123900
  1.029000, -0.125000
  1.031000, -0.126000
  1.033000, -0.127000
  1.035000, -0.128000
  1.037000, -0.128900
  1.039000, -0.129700
  1.041000, -0.130500
  1.043000, -0.131300
  1.045000, -0.132100
  1.047000, -0.132900
  1.049000, -0.133500
  1.051000, -0.133900
  1.053000, -0.134300
  1.055000, -0.134600
  1.057000, -0.134700
  1.059000, -0.134800
  1.061000, -0.134800
  1.063000, -0.134500
  1.065000, -0.134400
  1.067000, -0.134100
  1.069000, -0.133600
  1.071000, -0.133000
  1.073000, -0.132300
  1.075000, -0.131600
  1.077000, -0.130800
  1.079000, -0.130000
  1.081000, -0.128800
  1.083000, -0.127300
  1.085000, -0.125800
  1.087000, -0.124500
  1.089000, -0.123200
  1.091000, -0.121600
  1.093000, -0.119800
  1.095000, -0.117900
  1.097000, -0.115900
  1.099000, -0.113800
  1.101000, -0.111600
  1.103000, -0.109300
  1.105000, -0.107000
  1.107000, -0.104600
  1.109000, -0.102100
  1.111000, -0.099500
  1.113000, -0.096900
  1.115000, -0.094500
  1.117000, -0.091900
  1.119000, -0.089100
  1.121000, -0.086300
  1.123000, -0.083400
  1.125000, -0.080500
  1.127000, -0.077600
  1.129000, -0.074700
  1.131000, -0.071900
  1.133000, -0.069100
  1.135000, -0.066300
  1.137000, -0.063400
  1.139000, -0.060600
  1.141000, -0.057800
  1.143000, -0.055200
  1.145000, -0.052600
  1.147000, -0.050100
  1.149000, -0.047700
  1.151000, -0.045400
  1.153000, -0.043100
  1.155000, -0.040800
  1.157000, -0.038800
  1.159000, -0.036800
  1.161000, -0.035100
  1.163000, -0.033500
  1.165000, -0.031900
  1.167000, -0.030500
  1.169000, -0.029300
  1.171000, -0.028300
  1.173000, -0.027500
  1.175000, -0.026600
  1.177000, -0.025900
  1.179000, -0.025500
  1.181000, -0.025200
  1.183000, -0.025100
  1.185000, -0.025000
  1.187000, -0.024900
  1.189000, -0.025000
  1.191000, -0.025300
  1.193000, -0.025700
  1.195000, -0.026200
  1.197000, -0.026700
  1.199000, -0.027200
  1.201000, -0.027800
  1.203000, -0.028400
  1.205000, -0.029200
  1.207000, -0.030000
  1.209000, -0.030800
  1.211000, -0.031600
  1.213000, -0.032400
  1.215000, -0.033300
  1.217000, -0.034200
  1.219000, -0.035100
  1.221000, -0.035800
  1.223000, -0.036500
  1.225000, -0.037200
  1.227000, -0.037900
  1.229000, -0.038500
  1.231000, -0.038700
  1.233000, -0.038900
  1.235000, -0.039000
  1.237000, -0.039000
  1.239000, -0.038900
  1.241000, -0.038700
  1.243000, -0.038500
  1.245000, -0.038300
  1.247000, -0.037900
  1.249000, -0.037300
  1.251000, -0.036600
  1.253000, -0.035900
  1.255000, -0.035000
  1.257000, -0.033900
  1.259000, -0.032700
  1.261000, -0.031500
  1.263000, -0.030200
  1.265000, -0.028900
  1.267000, -0.027200
  1.269000, -0.025600
  1.271000, -0.024000
  1.273000, -0.022500
  1.275000, -0.020700
  1.277000, -0.019000
  1.279000, -0.017200
  1.281000, -0.015200
  1.283000, -0.013300
  1.285000, -0.011400
  1.287000, -0.009600
  1.289000, -0.007700
  1.291000, -0.005900
  1.293000, -0.004000
  1.295000, -0.002100
  1.297000, -0.000200
  1.299000,  0.001600
  1.301000,  0.003300
  1.303000,  0.005000
  1.305000,  0.006600
  1.307000,  0.008200
  1.309000,  0.009600
  1.311000,  0.011000
  1.313000,  0.012500
  1.315000,  0.013900
  1.317000,  0.015200
  1.319000,  0.016500
  1.321000,  0.017700
  1.323000,  0.018800
  1.325000,  0.020000
  1.327000,  0.021100
  1.329000,  0.022300
  1.331000,  0.023400
  1.333000,  0.024400
  1.335000,  0.025400
  1.337000,  0.026400
  1.339000,  0.027400
  1.341000,  0.028300
  1.343000,  0.029100
  1.345000,  0.029900
  1.347000,  0.030800
  1.349000,  0.031600
  1.351000,  0.032500
  1.353000,  0.033200
  1.355000,  0.033900
  1.357000,  0.034700
  1.359000,  0.035300
  1.361000,  0.035900
  1.363000,  0.036700
  1.365000,  0.037400
  1.367000,  0.037900
  1.369000,  0.038400
  1.371000,  0.038900
  1.373000,  0.039300
  1.375000,  0.039700
  1.377000,  0.039800
  1.379000,  0.039800
  1.381000,  0.039900
  1.383000,  0.039800
  1.385000,  0.039400
  1.387000,  0.039000
  1.389000,  0.038400
  1.391000,  0.037500
  1.393000,  0.036300
  1.395000,  0.034900
  1.397000,  0.033200
  1.399000,  0.031100
