# z (nm)   (kJ/mol)
  0.3010   10.22820
  0.3030    9.47030
  0.3050    8.70260
  0.3070    7.92090
  0.3090    7.13210
  0.3110    6.32710
  0.3130    5.51180
  0.3150    4.69060
  0.3170    3.87200
  0.3190    3.06260
  0.3210    2.25240
  0.3230    1.44320
  0.3250    0.64690
  0.3270   -0.12930
  0.3290   -0.89980
  0.3310   -1.66790
  0.3330   -2.42210
  0.3350   -3.16030
  0.3370   -3.88760
  0.3390   -4.60690
  0.3410   -5.30540
  0.3430   -5.99610
  0.3450   -6.68450
  0.3470   -7.36520
  0.3490   -8.05740
  0.3510   -8.75300
  0.3530   -9.44850
  0.3550  -10.14090
  0.3570  -10.82410
  0.3590  -11.49890
  0.3610  -12.16670
  0.3630  -12.82230
  0.3650  -13.45840
  0.3670  -14.07800
  0.3690  -14.67870
  0.3710  -15.26210
  0.3730  -15.82540
  0.3750  -16.36470
  0.3770  -16.88650
  0.3790  -17.38980
  0.3810  -17.87000
  0.3830  -18.32550
  0.3850  -18.76390
  0.3870  -19.18470
  0.3890  -19.58260
  0.3910  -19.95910
  0.3930  -20.31540
  0.3950  -20.65230
  0.3970  -20.96770
  0.3990  -21.26200
  0.4010  -21.53590
  0.4030  -21.78960
  0.4050  -22.02470
  0.4070  -22.24270
  0.4090  -22.44340
  0.4110  -22.62560
  0.4130  -22.78940
  0.4150  -22.93620
  0.4170  -23.06550
  0.4190  -23.17700
  0.4210  -23.27410
  0.4230  -23.35570
  0.4250  -23.42160
  0.4270  -23.47380
  0.4290  -23.51210
  0.4310  -23.53780
  0.4330  -23.55080
  0.4350  -23.55260
  0.4370  -23.54290
  0.4390  -23.52080
  0.4410  -23.48760
  0.4430  -23.44370
  0.4450  -23.39310
  0.4470  -23.33680
  0.4490  -23.27210
  0.4510  -23.19790
  0.4530  -23.11720
  0.4550  -23.03260
  0.4570  -22.94120
  0.4590  -22.84390
  0.4610  -22.74280
  0.4630  -22.63750
  0.4650  -22.52980
  0.4670  -22.41850
  0.4690  -22.30250
  0.4710  -22.18330
  0.4730  -22.06200
  0.4750  -21.93830
  0.4770  -21.81140
  0.4790  -21.68290
  0.4810  -21.55300
  0.4830  -21.42070
  0.4850  -21.28560
  0.4870  -21.14870
  0.4890  -21.01060
  0.4910  -20.87010
  0.4930  -20.72690
  0.4950  -20.58240
  0.4970  -20.43610
  0.4990  -20.28640
  0.5010  -20.13410
  0.5030  -19.97940
  0.5050  -19.82200
  0.5070  -19.66250
  0.5090  -19.50040
  0.5110  -19.33540
  0.5130  -19.16700
  0.5150  -18.99550
  0.5170  -18.82040
  0.5190  -18.64240
  0.5210  -18.46170
  0.5230  -18.27770
  0.5250  -18.09080
  0.5270  -17.90050
  0.5290  -17.70740
  0.5310  -17.51130
  0.5330  -17.31200
  0.5350  -17.11010
  0.5370  -16.90500
  0.5390  -16.69680
  0.5410  -16.48600
  0.5430  -16.27280
  0.5450  -16.05750
  0.5470  -15.84030
  0.5490  -15.62110
  0.5510  -15.39990
  0.5530  -15.17700
  0.5550  -14.95300
  0.5570  -14.72750
  0.5590  -14.50030
  0.5610  -14.27250
  0.5630  -14.04420
  0.5650  -13.81510
  0.5670  -13.58570
  0.5690  -13.35640
  0.5710  -13.12670
  0.5730  -12.89730
  0.5750  -12.66830
  0.5770  -12.44010
  0.5790  -12.21270
  0.5810  -11.98620
  0.5830  -11.76120
  0.5850  -11.53760
  0.5870  -11.31590
  0.5890  -11.09590
  0.5910  -10.87700
  0.5930  -10.65990
  0.5950  -10.44500
  0.5970  -10.23210
  0.5990  -10.02170
  0.6010   -9.81380
  0.6030   -9.60790
  0.6050   -9.40420
  0.6070   -9.20330
  0.6090   -9.00530
  0.6110   -8.81030
  0.6130   -8.61780
  0.6150   -8.42810
  0.6170   -8.24180
  0.6190   -8.05730
  0.6210   -7.87580
  0.6230   -7.69820
  0.6250   -7.52340
  0.6270   -7.35180
  0.6290   -7.18330
  0.6310   -7.01830
  0.6330   -6.85610
  0.6350   -6.69650
  0.6370   -6.54030
  0.6390   -6.38720
  0.6410   -6.23780
  0.6430   -6.09100
  0.6450   -5.94750
  0.6470   -5.80770
  0.6490   -5.67090
  0.6510   -5.53700
  0.6530   -5.40590
  0.6550   -5.27910
  0.6570   -5.15620
  0.6590   -5.03600
  0.6610   -4.91920
  0.6630   -4.80520
  0.6650   -4.69440
  0.6670   -4.58650
  0.6690   -4.48220
  0.6710   -4.38090
  0.6730   -4.28220
  0.6750   -4.18710
  0.6770   -4.09570
  0.6790   -4.00860
  0.6810   -3.92420
  0.6830   -3.84180
  0.6850   -3.76270
  0.6870   -3.68640
  0.6890   -3.61300
  0.6910   -3.54270
  0.6930   -3.47500
  0.6950   -3.40980
  0.6970   -3.34780
  0.6990   -3.28840
  0.7010   -3.23100
  0.7030   -3.17690
  0.7050   -3.12580
  0.7070   -3.07690
  0.7090   -3.03030
  0.7110   -2.98610
  0.7130   -2.94420
  0.7150   -2.90450
  0.7170   -2.86670
  0.7190   -2.83120
  0.7210   -2.79750
  0.7230   -2.76550
  0.7250   -2.73530
  0.7270   -2.70640
  0.7290   -2.67910
  0.7310   -2.65350
  0.7330   -2.62910
  0.7350   -2.60610
  0.7370   -2.58470
  0.7390   -2.56440
  0.7410   -2.54510
  0.7430   -2.52690
  0.7450   -2.50980
  0.7470   -2.49360
  0.7490   -2.47790
  0.7510   -2.46280
  0.7530   -2.44860
  0.7550   -2.43500
  0.7570   -2.42180
  0.7590   -2.40920
  0.7610   -2.39710
  0.7630   -2.38520
  0.7650   -2.37360
  0.7670   -2.36240
  0.7690   -2.35130
  0.7710   -2.34030
  0.7730   -2.32940
  0.7750   -2.31860
  0.7770   -2.30770
  0.7790   -2.29680
  0.7810   -2.28620
  0.7830   -2.27570
  0.7850   -2.26490
  0.7870   -2.25400
  0.7890   -2.24310
  0.7910   -2.23190
  0.7930   -2.22040
  0.7950   -2.20870
  0.7970   -2.19700
  0.7990   -2.18490
  0.8010   -2.17250
  0.8030   -2.15950
  0.8050   -2.14640
  0.8070   -2.13300
  0.8090   -2.11920
  0.8110   -2.10520
  0.8130   -2.09090
  0.8150   -2.07630
  0.8170   -2.06150
  0.8190   -2.04640
  0.8210   -2.03100
  0.8230   -2.01500
  0.8250   -1.99850
  0.8270   -1.98160
  0.8290   -1.96450
  0.8310   -1.94700
  0.8330   -1.92910
  0.8350   -1.91080
  0.8370   -1.89230
  0.8390   -1.87370
  0.8410   -1.85460
  0.8430   -1.83540
  0.8450   -1.81600
  0.8470   -1.79650
  0.8490   -1.77670
  0.8510   -1.75650
  0.8530   -1.73620
  0.8550   -1.71570
  0.8570   -1.69490
  0.8590   -1.67400
  0.8610   -1.65320
  0.8630   -1.63220
  0.8650   -1.61120
  0.8670   -1.58980
  0.8690   -1.56790
  0.8710   -1.54610
  0.8730   -1.52440
  0.8750   -1.50230
  0.8770   -1.48030
  0.8790   -1.45840
  0.8810   -1.43690
  0.8830   -1.41540
  0.8850   -1.39380
  0.8870   -1.37210
  0.8890   -1.35020
  0.8910   -1.32840
  0.8930   -1.30690
  0.8950   -1.28520
  0.8970   -1.26360
  0.8990   -1.24200
  0.9010   -1.22040
  0.9030   -1.19910
  0.9050   -1.17820
  0.9070   -1.15750
  0.9090   -1.13650
  0.9110   -1.11530
  0.9130   -1.09420
  0.9150   -1.07380
  0.9170   -1.05360
  0.9190   -1.03330
  0.9210   -1.01300
  0.9230   -0.99270
  0.9250   -0.97260
  0.9270   -0.95250
  0.9290   -0.93280
  0.9310   -0.91350
  0.9330   -0.89420
  0.9350   -0.87500
  0.9370   -0.85610
  0.9390   -0.83730
  0.9410   -0.81890
  0.9430   -0.80070
  0.9450   -0.78270
  0.9470   -0.76540
  0.9490   -0.74810
  0.9510   -0.73080
  0.9530   -0.71400
  0.9550   -0.69770
  0.9570   -0.68160
  0.9590   -0.66590
  0.9610   -0.65040
  0.9630   -0.63530
  0.9650   -0.62060
  0.9670   -0.60620
  0.9690   -0.59220
  0.9710   -0.57850
  0.9730   -0.56560
  0.9750   -0.55310
  0.9770   -0.54080
  0.9790   -0.52870
  0.9810   -0.51700
  0.9830   -0.50570
  0.9850   -0.49500
  0.9870   -0.48450
  0.9890   -0.47460
  0.9910   -0.46530
  0.9930   -0.45640
  0.9950   -0.44770
  0.9970   -0.43960
  0.9990   -0.43200
  1.0010   -0.42480
  1.0030   -0.41790
  1.0050   -0.41140
  1.0070   -0.40510
  1.0090   -0.39910
  1.0110   -0.39360
  1.0130   -0.38850
  1.0150   -0.38350
  1.0170   -0.37900
  1.0190   -0.37470
  1.0210   -0.37090
  1.0230   -0.36750
  1.0250   -0.36430
  1.0270   -0.36120
  1.0290   -0.35830
  1.0310   -0.35550
  1.0330   -0.35270
  1.0350   -0.35010
  1.0370   -0.34790
  1.0390   -0.34590
  1.0410   -0.34410
  1.0430   -0.34210
  1.0450   -0.34030
  1.0470   -0.33860
  1.0490   -0.33690
  1.0510   -0.33510
  1.0530   -0.33340
  1.0550   -0.33180
  1.0570   -0.33030
  1.0590   -0.32880
  1.0610   -0.32720
  1.0630   -0.32570
  1.0650   -0.32410
  1.0670   -0.32240
  1.0690   -0.32080
  1.0710   -0.31910
  1.0730   -0.31750
  1.0750   -0.31590
  1.0770   -0.31420
  1.0790   -0.31260
  1.0810   -0.31100
  1.0830   -0.30920
  1.0850   -0.30740
  1.0870   -0.30550
  1.0890   -0.30360
  1.0910   -0.30180
  1.0930   -0.29980
  1.0950   -0.29770
  1.0970   -0.29560
  1.0990   -0.29340
  1.1010   -0.29130
  1.1030   -0.28920
  1.1050   -0.28700
  1.1070   -0.28460
  1.1090   -0.28230
  1.1110   -0.28030
  1.1130   -0.27810
  1.1150   -0.27590
  1.1170   -0.27390
  1.1190   -0.27210
  1.1210   -0.27010
  1.1230   -0.26810
  1.1250   -0.26600
  1.1270   -0.26410
  1.1290   -0.26220
  1.1310   -0.26030
  1.1330   -0.25840
  1.1350   -0.25640
  1.1370   -0.25450
  1.1390   -0.25260
  1.1410   -0.25080
  1.1430   -0.24880
  1.1450   -0.24680
  1.1470   -0.24490
  1.1490   -0.24300
  1.1510   -0.24110
  1.1530   -0.23910
  1.1550   -0.23730
  1.1570   -0.23530
  1.1590   -0.23320
  1.1610   -0.23140
  1.1630   -0.22960
  1.1650   -0.22760
  1.1670   -0.22560
  1.1690   -0.22360
  1.1710   -0.22150
  1.1730   -0.21940
  1.1750   -0.21730
  1.1770   -0.21500
  1.1790   -0.21270
  1.1810   -0.21040
  1.1830   -0.20790
  1.1850   -0.20540
  1.1870   -0.20290
  1.1890   -0.20030
  1.1910   -0.19750
  1.1930   -0.19450
  1.1950   -0.19160
  1.1970   -0.18860
  1.1990   -0.18540
  1.2010   -0.18220
  1.2030   -0.17890
  1.2050   -0.17560
  1.2070   -0.17220
  1.2090   -0.16880
  1.2110   -0.16530
  1.2130   -0.16180
  1.2150   -0.15830
  1.2170   -0.15470
  1.2190   -0.15100
  1.2210   -0.14730
  1.2230   -0.14350
  1.2250   -0.13980
  1.2270   -0.13610
  1.2290   -0.13240
  1.2310   -0.12860
  1.2330   -0.12480
  1.2350   -0.12090
  1.2370   -0.11710
  1.2390   -0.11340
  1.2410   -0.10960
  1.2430   -0.10580
  1.2450   -0.10200
  1.2470   -0.09810
  1.2490   -0.09430
  1.2510   -0.09050
  1.2530   -0.08670
  1.2550   -0.08300
  1.2570   -0.07930
  1.2590   -0.07550
  1.2610   -0.07180
  1.2630   -0.06800
  1.2650   -0.06430
  1.2670   -0.06070
  1.2690   -0.05700
  1.2710   -0.05340
  1.2730   -0.04980
  1.2750   -0.04630
  1.2770   -0.04280
  1.2790   -0.03920
  1.2810   -0.03560
  1.2830   -0.03210
  1.2850   -0.02850
  1.2870   -0.02500
  1.2890   -0.02130
  1.2910   -0.01760
  1.2930   -0.01380
  1.2950   -0.01010
  1.2970   -0.00640
  1.2990   -0.00260
  1.3010    0.00110
  1.3030    0.00480
  1.3050    0.00860
  1.3070    0.01240
  1.3090    0.01640
  1.3110    0.02030
  1.3130    0.02430
  1.3150    0.02830
  1.3170    0.03230
  1.3190    0.03630
  1.3210    0.04040
  1.3230    0.04460
  1.3250    0.04880
  1.3270    0.05310
  1.3290    0.05740
  1.3310    0.06180
  1.3330    0.06610
  1.3350    0.07030
  1.3370    0.07440
  1.3390    0.07860
  1.3410    0.08280
  1.3430    0.08690
  1.3450    0.09090
  1.3470    0.09510
  1.3490    0.09910
  1.3510    0.10290
  1.3530    0.10680
  1.3550    0.11070
  1.3570    0.11460
  1.3590    0.11850
  1.3610    0.12230
  1.3630    0.12600
  1.3650    0.12940
  1.3670    0.13290
  1.3690    0.13640
  1.3710    0.13990
  1.3730    0.14330
  1.3750    0.14660
  1.3770    0.14990
  1.3790    0.15290
  1.3810    0.15570
  1.3830    0.15840
  1.3850    0.16120
  1.3870    0.16360
  1.3890    0.16560
  1.3910    0.16750
  1.3930    0.16890
  1.3950    0.17000
  1.3970    0.17090
  1.3990    0.17160
