# z (nm)   (kJ/mol)
  0.2470    2.01980
  0.2490    1.33360
  0.2510    0.64610
  0.2530   -0.08160
  0.2550   -0.81550
  0.2570   -1.53580
  0.2590   -2.26760
  0.2610   -3.00230
  0.2630   -3.72230
  0.2650   -4.44730
  0.2670   -5.17110
  0.2690   -5.88040
  0.2710   -6.58720
  0.2730   -7.28080
  0.2750   -7.95940
  0.2770   -8.62940
  0.2790   -9.28150
  0.2810   -9.91980
  0.2830  -10.54960
  0.2850  -11.16000
  0.2870  -11.75240
  0.2890  -12.32730
  0.2910  -12.88480
  0.2930  -13.42850
  0.2950  -13.94960
  0.2970  -14.45080
  0.2990  -14.93440
  0.3010  -15.39590
  0.3030  -15.83890
  0.3050  -16.26220
  0.3070  -16.66510
  0.3090  -17.04790
  0.3110  -17.40910
  0.3130  -17.74970
  0.3150  -18.07060
  0.3170  -18.36990
  0.3190  -18.64810
  0.3210  -18.90570
  0.3230  -19.14270
  0.3250  -19.35890
  0.3270  -19.55360
  0.3290  -19.72740
  0.3310  -19.88110
  0.3330  -20.01490
  0.3350  -20.12880
  0.3370  -20.22280
  0.3390  -20.29750
  0.3410  -20.35360
  0.3430  -20.39140
  0.3450  -20.40990
  0.3470  -20.41300
  0.3490  -20.40250
  0.3510  -20.37400
  0.3530  -20.33130
  0.3550  -20.27680
  0.3570  -20.21000
  0.3590  -20.13120
  0.3610  -20.03750
  0.3630  -19.93180
  0.3650  -19.81890
  0.3670  -19.69800
  0.3690  -19.56860
  0.3710  -19.43180
  0.3730  -19.28690
  0.3750  -19.13550
  0.3770  -18.97920
  0.3790  -18.81740
  0.3810  -18.65130
  0.3830  -18.48240
  0.3850  -18.30990
  0.3870  -18.13460
  0.3890  -17.95720
  0.3910  -17.77800
  0.3930  -17.59690
  0.3950  -17.41430
  0.3970  -17.23150
  0.3990  -17.04830
  0.4010  -16.86530
  0.4030  -16.68290
  0.4050  -16.50060
  0.4070  -16.31860
  0.4090  -16.13710
  0.4110  -15.95590
  0.4130  -15.77570
  0.4150  -15.59650
  0.4170  -15.41880
  0.4190  -15.24270
  0.4210  -15.06720
  0.4230  -14.89320
  0.4250  -14.72070
  0.4270  -14.54970
  0.4290  -14.37990
  0.4310  -14.21120
  0.4330  -14.04370
  0.4350  -13.87780
  0.4370  -13.71360
  0.4390  -13.55090
  0.4410  -13.39000
  0.4430  -13.23050
  0.4450  -13.07250
  0.4470  -12.91540
  0.4490  -12.75950
  0.4510  -12.60480
  0.4530  -12.45120
  0.4550  -12.29940
  0.4570  -12.14910
  0.4590  -11.99990
  0.4610  -11.85150
  0.4630  -11.70410
  0.4650  -11.55830
  0.4670  -11.41370
  0.4690  -11.27020
  0.4710  -11.12780
  0.4730  -10.98640
  0.4750  -10.84600
  0.4770  -10.70650
  0.4790  -10.56800
  0.4810  -10.43040
  0.4830  -10.29360
  0.4850  -10.15740
  0.4870  -10.02200
  0.4890   -9.88740
  0.4910   -9.75330
  0.4930   -9.61970
  0.4950   -9.48640
  0.4970   -9.35340
  0.4990   -9.22070
  0.5010   -9.08840
  0.5030   -8.95630
  0.5050   -8.82430
  0.5070   -8.69210
  0.5090   -8.55970
  0.5110   -8.42700
  0.5130   -8.29410
  0.5150   -8.16110
  0.5170   -8.02780
  0.5190   -7.89410
  0.5210   -7.75970
  0.5230   -7.62480
  0.5250   -7.48970
  0.5270   -7.35430
  0.5290   -7.21840
  0.5310   -7.08220
  0.5330   -6.94510
  0.5350   -6.80760
  0.5370   -6.66940
  0.5390   -6.53070
  0.5410   -6.39190
  0.5430   -6.25260
  0.5450   -6.11290
  0.5470   -5.97300
  0.5490   -5.83300
  0.5510   -5.69280
  0.5530   -5.55270
  0.5550   -5.41240
  0.5570   -5.27180
  0.5590   -5.13120
  0.5610   -4.99110
  0.5630   -4.85110
  0.5650   -4.71110
  0.5670   -4.57180
  0.5690   -4.43360
  0.5710   -4.29630
  0.5730   -4.15960
  0.5750   -4.02410
  0.5770   -3.89000
  0.5790   -3.75700
  0.5810   -3.62580
  0.5830   -3.49600
  0.5850   -3.36750
  0.5870   -3.24050
  0.5890   -3.11500
  0.5910   -2.99170
  0.5930   -2.87120
  0.5950   -2.75350
  0.5970   -2.63770
  0.5990   -2.52420
  0.6010   -2.41390
  0.6030   -2.30620
  0.6050   -2.20060
  0.6070   -2.09830
  0.6090   -1.99960
  0.6110   -1.90370
  0.6130   -1.81050
  0.6150   -1.72020
  0.6170   -1.63270
  0.6190   -1.54840
  0.6210   -1.46770
  0.6230   -1.39040
  0.6250   -1.31610
  0.6270   -1.24530
  0.6290   -1.17810
  0.6310   -1.11390
  0.6330   -1.05290
  0.6350   -0.99550
  0.6370   -0.94120
  0.6390   -0.88990
  0.6410   -0.84180
  0.6430   -0.79680
  0.6450   -0.75480
  0.6470   -0.71560
  0.6490   -0.67970
  0.6510   -0.64670
  0.6530   -0.61630
  0.6550   -0.58850
  0.6570   -0.56360
  0.6590   -0.54130
  0.6610   -0.52150
  0.6630   -0.50370
  0.6650   -0.48810
  0.6670   -0.47480
  0.6690   -0.46370
  0.6710   -0.45470
  0.6730   -0.44770
  0.6750   -0.44240
  0.6770   -0.43870
  0.6790   -0.43660
  0.6810   -0.43600
  0.6830   -0.43660
  0.6850   -0.43860
  0.6870   -0.44170
  0.6890   -0.44590
  0.6910   -0.45100
  0.6930   -0.45690
  0.6950   -0.46360
  0.6970   -0.47100
  0.6990   -0.47900
  0.7010   -0.48770
  0.7030   -0.49700
  0.7050   -0.50670
  0.7070   -0.51680
  0.7090   -0.52720
  0.7110   -0.53780
  0.7130   -0.54840
  0.7150   -0.55940
  0.7170   -0.57050
  0.7190   -0.58150
  0.7210   -0.59240
  0.7230   -0.60320
  0.7250   -0.61400
  0.7270   -0.62480
  0.7290   -0.63550
  0.7310   -0.64610
  0.7330   -0.65620
  0.7350   -0.66610
  0.7370   -0.67580
  0.7390   -0.68540
  0.7410   -0.69480
  0.7430   -0.70390
  0.7450   -0.71240
  0.7470   -0.72060
  0.7490   -0.72850
  0.7510   -0.73610
  0.7530   -0.74340
  0.7550   -0.75020
  0.7570   -0.75670
  0.7590   -0.76280
  0.7610   -0.76850
  0.7630   -0.77370
  0.7650   -0.77850
  0.7670   -0.78300
  0.7690   -0.78700
  0.7710   -0.79070
  0.7730   -0.79400
  0.7750   -0.79680
  0.7770   -0.79910
  0.7790   -0.80090
  0.7810   -0.80250
  0.7830   -0.80380
  0.7850   -0.80450
  0.7870   -0.80480
  0.7890   -0.80480
  0.7910   -0.80410
  0.7930   -0.80290
  0.7950   -0.80130
  0.7970   -0.79940
  0.7990   -0.79710
  0.8010   -0.79430
  0.8030   -0.79110
  0.8050   -0.78740
  0.8070   -0.78330
  0.8090   -0.77880
  0.8110   -0.77360
  0.8130   -0.76790
  0.8150   -0.76210
  0.8170   -0.75580
  0.8190   -0.74890
  0.8210   -0.74140
  0.8230   -0.73340
  0.8250   -0.72520
  0.8270   -0.71680
  0.8290   -0.70780
  0.8310   -0.69850
  0.8330   -0.68890
  0.8350   -0.67910
  0.8370   -0.66880
  0.8390   -0.65820
  0.8410   -0.64740
  0.8430   -0.63620
  0.8450   -0.62480
  0.8470   -0.61310
  0.8490   -0.60120
  0.8510   -0.58930
  0.8530   -0.57710
  0.8550   -0.56470
  0.8570   -0.55200
  0.8590   -0.53930
  0.8610   -0.52650
  0.8630   -0.51360
  0.8650   -0.50070
  0.8670   -0.48760
  0.8690   -0.47450
  0.8710   -0.46140
  0.8730   -0.44830
  0.8750   -0.43510
  0.8770   -0.42200
  0.8790   -0.40900
  0.8810   -0.39610
  0.8830   -0.38330
  0.8850   -0.37070
  0.8870   -0.35810
  0.8890   -0.34560
  0.8910   -0.33330
  0.8930   -0.32100
  0.8950   -0.30900
  0.8970   -0.29720
  0.8990   -0.28550
  0.9010   -0.27410
  0.9030   -0.26290
  0.9050   -0.25190
  0.9070   -0.24120
  0.9090   -0.23060
  0.9110   -0.22040
  0.9130   -0.21040
  0.9150   -0.20070
  0.9170   -0.19100
  0.9190   -0.18180
  0.9210   -0.17280
  0.9230   -0.16400
  0.9250   -0.15560
  0.9270   -0.14740
  0.9290   -0.13950
  0.9310   -0.13180
  0.9330   -0.12440
  0.9350   -0.11730
  0.9370   -0.11050
  0.9390   -0.10410
  0.9410   -0.09790
  0.9430   -0.09200
  0.9450   -0.08630
  0.9470   -0.08090
  0.9490   -0.07580
  0.9510   -0.07100
  0.9530   -0.06640
  0.9550   -0.06210
  0.9570   -0.05820
  0.9590   -0.05450
  0.9610   -0.05110
  0.9630   -0.04800
  0.9650   -0.04510
  0.9670   -0.04230
  0.9690   -0.03980
  0.9710   -0.03760
  0.9730   -0.03560
  0.9750   -0.03380
  0.9770   -0.03220
  0.9790   -0.03080
  0.9810   -0.02960
  0.9830   -0.02860
  0.9850   -0.02770
  0.9870   -0.02710
  0.9890   -0.02670
  0.9910   -0.02660
  0.9930   -0.02640
  0.9950   -0.02650
  0.9970   -0.02670
  0.9990   -0.02700
  1.0010   -0.02730
  1.0030   -0.02770
  1.0050   -0.02830
  1.0070   -0.02900
  1.0090   -0.02970
  1.0110   -0.03060
  1.0130   -0.03160
  1.0150   -0.03250
  1.0170   -0.03360
  1.0190   -0.03470
  1.0210   -0.03580
  1.0230   -0.03700
  1.0250   -0.03830
  1.0270   -0.03950
  1.0290   -0.04080
  1.0310   -0.04220
  1.0330   -0.04360
  1.0350   -0.04510
  1.0370   -0.04660
  1.0390   -0.04800
  1.0410   -0.04940
  1.0430   -0.05090
  1.0450   -0.05240
  1.0470   -0.05390
  1.0490   -0.05550
  1.0510   -0.05700
  1.0530   -0.05860
  1.0550   -0.06000
  1.0570   -0.06140
  1.0590   -0.06300
  1.0610   -0.06450
  1.0630   -0.06610
  1.0650   -0.06760
  1.0670   -0.06900
  1.0690   -0.07050
  1.0710   -0.07210
  1.0730   -0.07360
  1.0750   -0.07500
  1.0770   -0.07640
  1.0790   -0.07770
  1.0810   -0.07900
  1.0830   -0.08020
  1.0850   -0.08140
  1.0870   -0.08240
  1.0890   -0.08350
  1.0910   -0.08450
  1.0930   -0.08550
  1.0950   -0.08640
  1.0970   -0.08720
  1.0990   -0.08800
  1.1010   -0.08870
  1.1030   -0.08940
  1.1050   -0.09010
  1.1070   -0.09050
  1.1090   -0.09080
  1.1110   -0.09110
  1.1130   -0.09120
  1.1150   -0.09120
  1.1170   -0.09100
  1.1190   -0.09090
  1.1210   -0.09050
  1.1230   -0.09000
  1.1250   -0.08940
  1.1270   -0.08870
  1.1290   -0.08780
  1.1310   -0.08700
  1.1330   -0.08610
  1.1350   -0.08490
  1.1370   -0.08360
  1.1390   -0.08240
  1.1410   -0.08100
  1.1430   -0.07930
  1.1450   -0.07760
  1.1470   -0.07570
  1.1490   -0.07370
  1.1510   -0.07170
  1.1530   -0.06960
  1.1550   -0.06740
  1.1570   -0.06520
  1.1590   -0.06290
  1.1610   -0.06070
  1.1630   -0.05830
  1.1650   -0.05580
  1.1670   -0.05330
  1.1690   -0.05090
  1.1710   -0.04860
  1.1730   -0.04620
  1.1750   -0.04360
  1.1770   -0.04100
  1.1790   -0.03830
  1.1810   -0.03570
  1.1830   -0.03310
  1.1850   -0.03050
  1.1870   -0.02800
  1.1890   -0.02550
  1.1910   -0.02280
  1.1930   -0.02030
  1.1950   -0.01780
  1.1970   -0.01530
  1.1990   -0.01300
  1.2010   -0.01090
  1.2030   -0.00880
  1.2050   -0.00670
  1.2070   -0.00460
  1.2090   -0.00260
  1.2110   -0.00040
  1.2130    0.00170
  1.2150    0.00370
  1.2170    0.00540
  1.2190    0.00700
  1.2210    0.00850
  1.2230    0.01000
  1.2250    0.01130
  1.2270    0.01260
  1.2290    0.01390
  1.2310    0.01510
  1.2330    0.01600
  1.2350    0.01680
  1.2370    0.01760
  1.2390    0.01820
  1.2410    0.01870
  1.2430    0.01920
  1.2450    0.01950
  1.2470    0.01970
  1.2490    0.01980
  1.2510    0.01990
  1.2530    0.01980
  1.2550    0.01970
  1.2570    0.01960
  1.2590    0.01940
  1.2610    0.01920
  1.2630    0.01890
  1.2650    0.01850
  1.2670    0.01810
  1.2690    0.01750
  1.2710    0.01690
  1.2730    0.01610
  1.2750    0.01530
  1.2770    0.01460
  1.2790    0.01390
  1.2810    0.01310
  1.2830    0.01220
  1.2850    0.01140
  1.2870    0.01050
  1.2890    0.00960
  1.2910    0.00860
  1.2930    0.00770
  1.2950    0.00670
  1.2970    0.00570
  1.2990    0.00470
  1.3010    0.00370
  1.3030    0.00260
  1.3050    0.00160
  1.3070    0.00070
  1.3090   -0.00010
  1.3110   -0.00090
  1.3130   -0.00190
  1.3150   -0.00280
  1.3170   -0.00380
  1.3190   -0.00480
  1.3210   -0.00560
  1.3230   -0.00630
  1.3250   -0.00700
  1.3270   -0.00760
  1.3290   -0.00840
  1.3310   -0.00910
  1.3330   -0.00960
  1.3350   -0.01030
  1.3370   -0.01090
  1.3390   -0.01130
  1.3410   -0.01180
  1.3430   -0.01220
  1.3450   -0.01260
  1.3470   -0.01300
  1.3490   -0.01330
  1.3510   -0.01370
  1.3530   -0.01420
  1.3550   -0.01450
  1.3570   -0.01470
  1.3590   -0.01490
  1.3610   -0.01510
  1.3630   -0.01530
  1.3650   -0.01540
  1.3670   -0.01540
  1.3690   -0.01540
  1.3710   -0.01540
  1.3730   -0.01550
  1.3750   -0.01560
  1.3770   -0.01570
  1.3790   -0.01590
  1.3810   -0.01620
  1.3830   -0.01670
  1.3850   -0.01720
  1.3870   -0.01790
  1.3890   -0.01880
  1.3910   -0.02000
  1.3930   -0.02160
  1.3950   -0.02350
  1.3970   -0.02580
  1.3990   -0.02820
