# z (nm)   (kJ/mol)
  0.247000,  2.019800
  0.249000,  1.333600
  0.251000,  0.646100
  0.253000, -0.081600
  0.255000, -0.815500
  0.257000, -1.535800
  0.259000, -2.267600
  0.261000, -3.002300
  0.263000, -3.722300
  0.265000, -4.447300
  0.267000, -5.171100
  0.269000, -5.880400
  0.271000, -6.587200
  0.273000, -7.280800
  0.275000, -7.959400
  0.277000, -8.629400
  0.279000, -9.281500
  0.281000, -9.919800
  0.283000,-10.549600
  0.285000,-11.160000
  0.287000,-11.752400
  0.289000,-12.327300
  0.291000,-12.884800
  0.293000,-13.428500
  0.295000,-13.949600
  0.297000,-14.450800
  0.299000,-14.934400
  0.301000,-15.395900
  0.303000,-15.838900
  0.305000,-16.262200
  0.307000,-16.665100
  0.309000,-17.047900
  0.311000,-17.409100
  0.313000,-17.749700
  0.315000,-18.070600
  0.317000,-18.369900
  0.319000,-18.648100
  0.321000,-18.905700
  0.323000,-19.142700
  0.325000,-19.358900
  0.327000,-19.553600
  0.329000,-19.727400
  0.331000,-19.881100
  0.333000,-20.014900
  0.335000,-20.128800
  0.337000,-20.222800
  0.339000,-20.297500
  0.341000,-20.353600
  0.343000,-20.391400
  0.345000,-20.409900
  0.347000,-20.413000
  0.349000,-20.402500
  0.351000,-20.374000
  0.353000,-20.331300
  0.355000,-20.276800
  0.357000,-20.210000
  0.359000,-20.131200
  0.361000,-20.037500
  0.363000,-19.931800
  0.365000,-19.818900
  0.367000,-19.698000
  0.369000,-19.568600
  0.371000,-19.431800
  0.373000,-19.286900
  0.375000,-19.135500
  0.377000,-18.979200
  0.379000,-18.817400
  0.381000,-18.651300
  0.383000,-18.482400
  0.385000,-18.309900
  0.387000,-18.134600
  0.389000,-17.957200
  0.391000,-17.778000
  0.393000,-17.596900
  0.395000,-17.414300
  0.397000,-17.231500
  0.399000,-17.048300
  0.401000,-16.865300
  0.403000,-16.682900
  0.405000,-16.500600
  0.407000,-16.318600
  0.409000,-16.137100
  0.411000,-15.955900
  0.413000,-15.775700
  0.415000,-15.596500
  0.417000,-15.418800
  0.419000,-15.242700
  0.421000,-15.067200
  0.423000,-14.893200
  0.425000,-14.720700
  0.427000,-14.549700
  0.429000,-14.379900
  0.431000,-14.211200
  0.433000,-14.043700
  0.435000,-13.877800
  0.437000,-13.713600
  0.439000,-13.550900
  0.441000,-13.390000
  0.443000,-13.230500
  0.445000,-13.072500
  0.447000,-12.915400
  0.449000,-12.759500
  0.451000,-12.604800
  0.453000,-12.451200
  0.455000,-12.299400
  0.457000,-12.149100
  0.459000,-11.999900
  0.461000,-11.851500
  0.463000,-11.704100
  0.465000,-11.558300
  0.467000,-11.413700
  0.469000,-11.270200
  0.471000,-11.127800
  0.473000,-10.986400
  0.475000,-10.846000
  0.477000,-10.706500
  0.479000,-10.568000
  0.481000,-10.430400
  0.483000,-10.293600
  0.485000,-10.157400
  0.487000,-10.022000
  0.489000, -9.887400
  0.491000, -9.753300
  0.493000, -9.619700
  0.495000, -9.486400
  0.497000, -9.353400
  0.499000, -9.220700
  0.501000, -9.088400
  0.503000, -8.956300
  0.505000, -8.824300
  0.507000, -8.692100
  0.509000, -8.559700
  0.511000, -8.427000
  0.513000, -8.294100
  0.515000, -8.161100
  0.517000, -8.027800
  0.519000, -7.894100
  0.521000, -7.759700
  0.523000, -7.624800
  0.525000, -7.489700
  0.527000, -7.354300
  0.529000, -7.218400
  0.531000, -7.082200
  0.533000, -6.945100
  0.535000, -6.807600
  0.537000, -6.669400
  0.539000, -6.530700
  0.541000, -6.391900
  0.543000, -6.252600
  0.545000, -6.112900
  0.547000, -5.973000
  0.549000, -5.833000
  0.551000, -5.692800
  0.553000, -5.552700
  0.555000, -5.412400
  0.557000, -5.271800
  0.559000, -5.131200
  0.561000, -4.991100
  0.563000, -4.851100
  0.565000, -4.711100
  0.567000, -4.571800
  0.569000, -4.433600
  0.571000, -4.296300
  0.573000, -4.159600
  0.575000, -4.024100
  0.577000, -3.890000
  0.579000, -3.757000
  0.581000, -3.625800
  0.583000, -3.496000
  0.585000, -3.367500
  0.587000, -3.240500
  0.589000, -3.115000
  0.591000, -2.991700
  0.593000, -2.871200
  0.595000, -2.753500
  0.597000, -2.637700
  0.599000, -2.524200
  0.601000, -2.413900
  0.603000, -2.306200
  0.605000, -2.200600
  0.607000, -2.098300
  0.609000, -1.999600
  0.611000, -1.903700
  0.613000, -1.810500
  0.615000, -1.720200
  0.617000, -1.632700
  0.619000, -1.548400
  0.621000, -1.467700
  0.623000, -1.390400
  0.625000, -1.316100
  0.627000, -1.245300
  0.629000, -1.178100
  0.631000, -1.113900
  0.633000, -1.052900
  0.635000, -0.995500
  0.637000, -0.941200
  0.639000, -0.889900
  0.641000, -0.841800
  0.643000, -0.796800
  0.645000, -0.754800
  0.647000, -0.715600
  0.649000, -0.679700
  0.651000, -0.646700
  0.653000, -0.616300
  0.655000, -0.588500
  0.657000, -0.563600
  0.659000, -0.541300
  0.661000, -0.521500
  0.663000, -0.503700
  0.665000, -0.488100
  0.667000, -0.474800
  0.669000, -0.463700
  0.671000, -0.454700
  0.673000, -0.447700
  0.675000, -0.442400
  0.677000, -0.438700
  0.679000, -0.436600
  0.681000, -0.436000
  0.683000, -0.436600
  0.685000, -0.438600
  0.687000, -0.441700
  0.689000, -0.445900
  0.691000, -0.451000
  0.693000, -0.456900
  0.695000, -0.463600
  0.697000, -0.471000
  0.699000, -0.479000
  0.701000, -0.487700
  0.703000, -0.497000
  0.705000, -0.506700
  0.707000, -0.516800
  0.709000, -0.527200
  0.711000, -0.537800
  0.713000, -0.548400
  0.715000, -0.559400
  0.717000, -0.570500
  0.719000, -0.581500
  0.721000, -0.592400
  0.723000, -0.603200
  0.725000, -0.614000
  0.727000, -0.624800
  0.729000, -0.635500
  0.731000, -0.646100
  0.733000, -0.656200
  0.735000, -0.666100
  0.737000, -0.675800
  0.739000, -0.685400
  0.741000, -0.694800
  0.743000, -0.703900
  0.745000, -0.712400
  0.747000, -0.720600
  0.749000, -0.728500
  0.751000, -0.736100
  0.753000, -0.743400
  0.755000, -0.750200
  0.757000, -0.756700
  0.759000, -0.762800
  0.761000, -0.768500
  0.763000, -0.773700
  0.765000, -0.778500
  0.767000, -0.783000
  0.769000, -0.787000
  0.771000, -0.790700
  0.773000, -0.794000
  0.775000, -0.796800
  0.777000, -0.799100
  0.779000, -0.800900
  0.781000, -0.802500
  0.783000, -0.803800
  0.785000, -0.804500
  0.787000, -0.804800
  0.789000, -0.804800
  0.791000, -0.804100
  0.793000, -0.802900
  0.795000, -0.801300
  0.797000, -0.799400
  0.799000, -0.797100
  0.801000, -0.794300
  0.803000, -0.791100
  0.805000, -0.787400
  0.807000, -0.783300
  0.809000, -0.778800
  0.811000, -0.773600
  0.813000, -0.767900
  0.815000, -0.762100
  0.817000, -0.755800
  0.819000, -0.748900
  0.821000, -0.741400
  0.823000, -0.733400
  0.825000, -0.725200
  0.827000, -0.716800
  0.829000, -0.707800
  0.831000, -0.698500
  0.833000, -0.688900
  0.835000, -0.679100
  0.837000, -0.668800
  0.839000, -0.658200
  0.841000, -0.647400
  0.843000, -0.636200
  0.845000, -0.624800
  0.847000, -0.613100
  0.849000, -0.601200
  0.851000, -0.589300
  0.853000, -0.577100
  0.855000, -0.564700
  0.857000, -0.552000
  0.859000, -0.539300
  0.861000, -0.526500
  0.863000, -0.513600
  0.865000, -0.500700
  0.867000, -0.487600
  0.869000, -0.474500
  0.871000, -0.461400
  0.873000, -0.448300
  0.875000, -0.435100
  0.877000, -0.422000
  0.879000, -0.409000
  0.881000, -0.396100
  0.883000, -0.383300
  0.885000, -0.370700
  0.887000, -0.358100
  0.889000, -0.345600
  0.891000, -0.333300
  0.893000, -0.321000
  0.895000, -0.309000
  0.897000, -0.297200
  0.899000, -0.285500
  0.901000, -0.274100
  0.903000, -0.262900
  0.905000, -0.251900
  0.907000, -0.241200
  0.909000, -0.230600
  0.911000, -0.220400
  0.913000, -0.210400
  0.915000, -0.200700
  0.917000, -0.191000
  0.919000, -0.181800
  0.921000, -0.172800
  0.923000, -0.164000
  0.925000, -0.155600
  0.927000, -0.147400
  0.929000, -0.139500
  0.931000, -0.131800
  0.933000, -0.124400
  0.935000, -0.117300
  0.937000, -0.110500
  0.939000, -0.104100
  0.941000, -0.097900
  0.943000, -0.092000
  0.945000, -0.086300
  0.947000, -0.080900
  0.949000, -0.075800
  0.951000, -0.071000
  0.953000, -0.066400
  0.955000, -0.062100
  0.957000, -0.058200
  0.959000, -0.054500
  0.961000, -0.051100
  0.963000, -0.048000
  0.965000, -0.045100
  0.967000, -0.042300
  0.969000, -0.039800
  0.971000, -0.037600
  0.973000, -0.035600
  0.975000, -0.033800
  0.977000, -0.032200
  0.979000, -0.030800
  0.981000, -0.029600
  0.983000, -0.028600
  0.985000, -0.027700
  0.987000, -0.027100
  0.989000, -0.026700
  0.991000, -0.026600
  0.993000, -0.026400
  0.995000, -0.026500
  0.997000, -0.026700
  0.999000, -0.027000
  1.001000, -0.027300
  1.003000, -0.027700
  1.005000, -0.028300
  1.007000, -0.029000
  1.009000, -0.029700
  1.011000, -0.030600
  1.013000, -0.031600
  1.015000, -0.032500
  1.017000, -0.033600
  1.019000, -0.034700
  1.021000, -0.035800
  1.023000, -0.037000
  1.025000, -0.038300
  1.027000, -0.039500
  1.029000, -0.040800
  1.031000, -0.042200
  1.033000, -0.043600
  1.035000, -0.045100
  1.037000, -0.046600
  1.039000, -0.048000
  1.041000, -0.049400
  1.043000, -0.050900
  1.045000, -0.052400
  1.047000, -0.053900
  1.049000, -0.055500
  1.051000, -0.057000
  1.053000, -0.058600
  1.055000, -0.060000
  1.057000, -0.061400
  1.059000, -0.063000
  1.061000, -0.064500
  1.063000, -0.066100
  1.065000, -0.067600
  1.067000, -0.069000
  1.069000, -0.070500
  1.071000, -0.072100
  1.073000, -0.073600
  1.075000, -0.075000
  1.077000, -0.076400
  1.079000, -0.077700
  1.081000, -0.079000
  1.083000, -0.080200
  1.085000, -0.081400
  1.087000, -0.082400
  1.089000, -0.083500
  1.091000, -0.084500
  1.093000, -0.085500
  1.095000, -0.086400
  1.097000, -0.087200
  1.099000, -0.088000
  1.101000, -0.088700
  1.103000, -0.089400
  1.105000, -0.090100
  1.107000, -0.090500
  1.109000, -0.090800
  1.111000, -0.091100
  1.113000, -0.091200
  1.115000, -0.091200
  1.117000, -0.091000
  1.119000, -0.090900
  1.121000, -0.090500
  1.123000, -0.090000
  1.125000, -0.089400
  1.127000, -0.088700
  1.129000, -0.087800
  1.131000, -0.087000
  1.133000, -0.086100
  1.135000, -0.084900
  1.137000, -0.083600
  1.139000, -0.082400
  1.141000, -0.081000
  1.143000, -0.079300
  1.145000, -0.077600
  1.147000, -0.075700
  1.149000, -0.073700
  1.151000, -0.071700
  1.153000, -0.069600
  1.155000, -0.067400
  1.157000, -0.065200
  1.159000, -0.062900
  1.161000, -0.060700
  1.163000, -0.058300
  1.165000, -0.055800
  1.167000, -0.053300
  1.169000, -0.050900
  1.171000, -0.048600
  1.173000, -0.046200
  1.175000, -0.043600
  1.177000, -0.041000
  1.179000, -0.038300
  1.181000, -0.035700
  1.183000, -0.033100
  1.185000, -0.030500
  1.187000, -0.028000
  1.189000, -0.025500
  1.191000, -0.022800
  1.193000, -0.020300
  1.195000, -0.017800
  1.197000, -0.015300
  1.199000, -0.013000
  1.201000, -0.010900
  1.203000, -0.008800
  1.205000, -0.006700
  1.207000, -0.004600
  1.209000, -0.002600
  1.211000, -0.000400
  1.213000,  0.001700
  1.215000,  0.003700
  1.217000,  0.005400
  1.219000,  0.007000
  1.221000,  0.008500
  1.223000,  0.010000
  1.225000,  0.011300
  1.227000,  0.012600
  1.229000,  0.013900
  1.231000,  0.015100
  1.233000,  0.016000
  1.235000,  0.016800
  1.237000,  0.017600
  1.239000,  0.018200
  1.241000,  0.018700
  1.243000,  0.019200
  1.245000,  0.019500
  1.247000,  0.019700
  1.249000,  0.019800
  1.251000,  0.019900
  1.253000,  0.019800
  1.255000,  0.019700
  1.257000,  0.019600
  1.259000,  0.019400
  1.261000,  0.019200
  1.263000,  0.018900
  1.265000,  0.018500
  1.267000,  0.018100
  1.269000,  0.017500
  1.271000,  0.016900
  1.273000,  0.016100
  1.275000,  0.015300
  1.277000,  0.014600
  1.279000,  0.013900
  1.281000,  0.013100
  1.283000,  0.012200
  1.285000,  0.011400
  1.287000,  0.010500
  1.289000,  0.009600
  1.291000,  0.008600
  1.293000,  0.007700
  1.295000,  0.006700
  1.297000,  0.005700
  1.299000,  0.004700
  1.301000,  0.003700
  1.303000,  0.002600
  1.305000,  0.001600
  1.307000,  0.000700
  1.309000, -0.000100
  1.311000, -0.000900
  1.313000, -0.001900
  1.315000, -0.002800
  1.317000, -0.003800
  1.319000, -0.004800
  1.321000, -0.005600
  1.323000, -0.006300
  1.325000, -0.007000
  1.327000, -0.007600
  1.329000, -0.008400
  1.331000, -0.009100
  1.333000, -0.009600
  1.335000, -0.010300
  1.337000, -0.010900
  1.339000, -0.011300
  1.341000, -0.011800
  1.343000, -0.012200
  1.345000, -0.012600
  1.347000, -0.013000
  1.349000, -0.013300
  1.351000, -0.013700
  1.353000, -0.014200
  1.355000, -0.014500
  1.357000, -0.014700
  1.359000, -0.014900
  1.361000, -0.015100
  1.363000, -0.015300
  1.365000, -0.015400
  1.367000, -0.015400
  1.369000, -0.015400
  1.371000, -0.015400
  1.373000, -0.015500
  1.375000, -0.015600
  1.377000, -0.015700
  1.379000, -0.015900
  1.381000, -0.016200
  1.383000, -0.016700
  1.385000, -0.017200
  1.387000, -0.017900
  1.389000, -0.018800
  1.391000, -0.020000
  1.393000, -0.021600
  1.395000, -0.023500
  1.397000, -0.025800
  1.399000, -0.028200
