# z (nm)   (kJ/mol)
  0.247000, 16.841400
  0.249000, 16.580300
  0.253000, 16.025000
  0.255000, 15.684400
  0.257000, 15.334400
  0.259000, 14.973000
  0.261000, 14.614900
  0.263000, 14.245500
  0.265000, 13.865100
  0.267000, 13.492300
  0.269000, 13.113600
  0.271000, 12.727100
  0.273000, 12.334400
  0.275000, 11.945000
  0.277000, 11.550000
  0.279000, 11.148500
  0.281000, 10.746900
  0.283000, 10.337600
  0.285000,  9.926500
  0.287000,  9.516200
  0.289000,  9.113600
  0.291000,  8.710300
  0.293000,  8.305000
  0.295000,  7.900500
  0.297000,  7.500200
  0.299000,  7.109600
  0.301000,  6.725300
  0.303000,  6.341600
  0.305000,  5.961900
  0.307000,  5.592800
  0.309000,  5.226900
  0.311000,  4.868700
  0.313000,  4.519100
  0.315000,  4.174100
  0.317000,  3.840400
  0.319000,  3.516200
  0.321000,  3.197400
  0.323000,  2.884100
  0.325000,  2.579300
  0.327000,  2.283500
  0.329000,  1.998400
  0.331000,  1.725200
  0.333000,  1.459900
  0.335000,  1.203900
  0.337000,  0.958200
  0.339000,  0.720400
  0.341000,  0.490600
  0.343000,  0.270900
  0.345000,  0.058800
  0.347000, -0.145300
  0.349000, -0.339000
  0.351000, -0.523300
  0.353000, -0.698900
  0.355000, -0.865200
  0.357000, -1.022900
  0.359000, -1.172500
  0.361000, -1.313100
  0.363000, -1.443800
  0.365000, -1.565300
  0.367000, -1.678600
  0.369000, -1.784200
  0.371000, -1.881900
  0.373000, -1.970700
  0.375000, -2.050800
  0.377000, -2.124200
  0.379000, -2.190100
  0.381000, -2.248300
  0.383000, -2.299200
  0.385000, -2.342300
  0.387000, -2.378700
  0.389000, -2.409400
  0.391000, -2.433200
  0.393000, -2.449900
  0.395000, -2.460500
  0.397000, -2.465900
  0.399000, -2.466000
  0.401000, -2.459800
  0.403000, -2.448700
  0.405000, -2.433300
  0.407000, -2.413300
  0.409000, -2.388900
  0.411000, -2.360200
  0.413000, -2.327600
  0.415000, -2.292500
  0.417000, -2.254800
  0.419000, -2.214000
  0.421000, -2.170600
  0.423000, -2.124100
  0.425000, -2.075700
  0.427000, -2.026500
  0.429000, -1.975400
  0.431000, -1.922700
  0.433000, -1.867900
  0.435000, -1.811600
  0.437000, -1.754400
  0.439000, -1.696100
  0.441000, -1.637200
  0.443000, -1.577700
  0.445000, -1.517800
  0.447000, -1.458200
  0.449000, -1.398900
  0.451000, -1.339500
  0.453000, -1.280400
  0.455000, -1.222000
  0.457000, -1.163900
  0.459000, -1.106600
  0.461000, -1.050600
  0.463000, -0.995400
  0.465000, -0.940500
  0.467000, -0.886000
  0.469000, -0.832800
  0.471000, -0.781100
  0.473000, -0.730600
  0.475000, -0.681300
  0.477000, -0.633700
  0.479000, -0.587300
  0.481000, -0.542100
  0.483000, -0.498600
  0.485000, -0.457000
  0.487000, -0.416700
  0.489000, -0.377500
  0.491000, -0.340200
  0.493000, -0.304600
  0.495000, -0.270700
  0.497000, -0.238400
  0.499000, -0.207500
  0.501000, -0.178100
  0.503000, -0.150300
  0.505000, -0.124600
  0.507000, -0.100700
  0.509000, -0.078300
  0.511000, -0.057200
  0.513000, -0.038000
  0.515000, -0.020500
  0.517000, -0.004600
  0.519000,  0.009900
  0.521000,  0.022900
  0.523000,  0.034100
  0.525000,  0.043900
  0.527000,  0.052300
  0.529000,  0.058900
  0.531000,  0.063900
  0.533000,  0.067500
  0.535000,  0.069900
  0.537000,  0.070900
  0.539000,  0.070500
  0.541000,  0.068800
  0.543000,  0.065900
  0.545000,  0.061700
  0.547000,  0.056400
  0.549000,  0.049700
  0.551000,  0.041900
  0.553000,  0.033000
  0.555000,  0.022800
  0.557000,  0.011500
  0.559000, -0.000800
  0.561000, -0.014000
  0.563000, -0.028200
  0.565000, -0.043200
  0.567000, -0.058900
  0.569000, -0.075600
  0.571000, -0.093100
  0.573000, -0.111100
  0.575000, -0.129800
  0.577000, -0.149200
  0.579000, -0.169300
  0.581000, -0.190100
  0.583000, -0.211500
  0.585000, -0.233400
  0.587000, -0.255700
  0.589000, -0.278300
  0.591000, -0.301200
  0.593000, -0.324600
  0.595000, -0.348300
  0.597000, -0.372200
  0.599000, -0.396400
  0.601000, -0.420700
  0.603000, -0.445200
  0.605000, -0.469800
  0.607000, -0.494700
  0.609000, -0.519500
  0.611000, -0.544200
  0.613000, -0.568900
  0.615000, -0.593500
  0.617000, -0.617800
  0.619000, -0.641800
  0.621000, -0.665600
  0.623000, -0.689200
  0.625000, -0.712400
  0.627000, -0.735400
  0.629000, -0.757800
  0.631000, -0.779700
  0.633000, -0.801100
  0.635000, -0.822100
  0.637000, -0.842500
  0.639000, -0.862300
  0.641000, -0.881500
  0.643000, -0.900000
  0.645000, -0.917700
  0.647000, -0.934500
  0.649000, -0.950800
  0.651000, -0.966400
  0.653000, -0.981100
  0.655000, -0.995100
  0.657000, -1.008400
  0.659000, -1.020800
  0.661000, -1.032400
  0.663000, -1.043200
  0.665000, -1.053200
  0.667000, -1.062300
  0.669000, -1.070400
  0.671000, -1.077600
  0.673000, -1.084000
  0.675000, -1.089500
  0.677000, -1.094200
  0.679000, -1.098000
  0.681000, -1.100900
  0.683000, -1.103000
  0.685000, -1.104400
  0.687000, -1.105000
  0.689000, -1.104800
  0.691000, -1.104000
  0.693000, -1.102200
  0.695000, -1.099700
  0.697000, -1.096600
  0.699000, -1.092800
  0.701000, -1.088200
  0.703000, -1.082700
  0.705000, -1.076800
  0.707000, -1.070300
  0.709000, -1.063000
  0.711000, -1.055100
  0.713000, -1.046700
  0.715000, -1.037900
  0.717000, -1.028500
  0.719000, -1.018600
  0.721000, -1.008100
  0.723000, -0.997300
  0.725000, -0.986100
  0.727000, -0.974500
  0.729000, -0.962400
  0.731000, -0.949800
  0.733000, -0.937000
  0.735000, -0.924000
  0.737000, -0.910700
  0.739000, -0.896900
  0.741000, -0.882700
  0.743000, -0.868200
  0.745000, -0.853700
  0.747000, -0.839000
  0.749000, -0.824200
  0.751000, -0.809000
  0.753000, -0.793600
  0.755000, -0.778000
  0.757000, -0.762200
  0.759000, -0.746300
  0.761000, -0.730300
  0.763000, -0.714300
  0.765000, -0.698300
  0.767000, -0.682200
  0.769000, -0.666000
  0.771000, -0.649900
  0.773000, -0.633700
  0.775000, -0.617500
  0.777000, -0.601100
  0.779000, -0.584900
  0.781000, -0.568800
  0.783000, -0.552800
  0.785000, -0.536900
  0.787000, -0.521100
  0.789000, -0.505400
  0.791000, -0.489700
  0.793000, -0.474100
  0.795000, -0.458800
  0.797000, -0.443700
  0.799000, -0.428600
  0.801000, -0.413800
  0.803000, -0.399400
  0.805000, -0.385000
  0.807000, -0.370800
  0.809000, -0.356900
  0.811000, -0.343200
  0.813000, -0.329700
  0.815000, -0.316500
  0.817000, -0.303700
  0.819000, -0.291400
  0.821000, -0.279200
  0.823000, -0.267300
  0.825000, -0.255800
  0.827000, -0.244600
  0.829000, -0.233700
  0.831000, -0.223200
  0.833000, -0.213100
  0.835000, -0.203200
  0.837000, -0.193700
  0.839000, -0.184700
  0.841000, -0.176000
  0.843000, -0.167700
  0.845000, -0.159800
  0.847000, -0.152300
  0.849000, -0.145300
  0.851000, -0.138600
  0.853000, -0.132300
  0.855000, -0.126300
  0.857000, -0.120500
  0.859000, -0.115100
  0.861000, -0.110100
  0.863000, -0.105600
  0.865000, -0.101400
  0.867000, -0.097500
  0.869000, -0.093900
  0.871000, -0.090600
  0.873000, -0.087600
  0.875000, -0.085000
  0.877000, -0.082700
  0.879000, -0.080700
  0.881000, -0.079000
  0.883000, -0.077500
  0.885000, -0.076300
  0.887000, -0.075200
  0.889000, -0.074300
  0.891000, -0.073600
  0.893000, -0.073300
  0.895000, -0.073200
  0.897000, -0.073100
  0.899000, -0.073200
  0.901000, -0.073400
  0.903000, -0.073800
  0.905000, -0.074300
  0.907000, -0.074800
  0.909000, -0.075600
  0.911000, -0.076500
  0.913000, -0.077400
  0.915000, -0.078500
  0.917000, -0.079700
  0.919000, -0.080700
  0.921000, -0.081800
  0.923000, -0.083000
  0.925000, -0.084200
  0.927000, -0.085300
  0.929000, -0.086400
  0.931000, -0.087700
  0.933000, -0.088900
  0.935000, -0.089900
  0.937000, -0.090900
  0.939000, -0.092000
  0.941000, -0.093000
  0.943000, -0.093900
  0.945000, -0.094700
  0.947000, -0.095500
  0.949000, -0.096200
  0.951000, -0.096700
  0.953000, -0.097300
  0.955000, -0.097900
  0.957000, -0.098500
  0.959000, -0.098900
  0.961000, -0.099200
  0.963000, -0.099500
  0.965000, -0.099700
  0.967000, -0.099700
  0.969000, -0.099700
  0.971000, -0.099500
  0.973000, -0.099100
  0.975000, -0.098800
  0.977000, -0.098300
  0.979000, -0.097600
  0.981000, -0.096800
  0.983000, -0.095900
  0.985000, -0.095000
  0.987000, -0.094000
  0.989000, -0.093000
  0.991000, -0.091800
  0.993000, -0.090500
  0.995000, -0.089200
  0.997000, -0.087600
  0.999000, -0.085800
  1.001000, -0.084000
  1.003000, -0.082200
  1.005000, -0.080500
  1.007000, -0.078600
  1.009000, -0.076600
  1.011000, -0.074700
  1.013000, -0.072900
  1.015000, -0.070900
  1.017000, -0.069000
  1.019000, -0.067200
  1.021000, -0.065300
  1.023000, -0.063100
  1.025000, -0.061000
  1.027000, -0.059000
  1.029000, -0.057100
  1.031000, -0.055100
  1.033000, -0.053400
  1.035000, -0.051600
  1.037000, -0.049900
  1.039000, -0.048200
  1.041000, -0.046500
  1.043000, -0.044800
  1.045000, -0.043300
  1.047000, -0.041900
  1.049000, -0.040500
  1.051000, -0.039200
  1.053000, -0.038000
  1.055000, -0.036900
  1.057000, -0.035800
  1.059000, -0.034700
  1.061000, -0.033800
  1.063000, -0.033000
  1.065000, -0.032100
  1.067000, -0.031400
  1.069000, -0.030700
  1.071000, -0.030100
  1.073000, -0.029500
  1.075000, -0.029100
  1.077000, -0.028500
  1.079000, -0.027900
  1.081000, -0.027400
  1.083000, -0.026800
  1.085000, -0.026200
  1.087000, -0.025800
  1.089000, -0.025300
  1.091000, -0.024600
  1.093000, -0.024000
  1.095000, -0.023400
  1.097000, -0.022700
  1.099000, -0.021700
  1.101000, -0.020600
  1.103000, -0.019500
  1.105000, -0.018300
  1.107000, -0.017300
  1.109000, -0.016100
  1.111000, -0.014700
  1.113000, -0.013300
  1.115000, -0.011700
  1.117000, -0.010200
  1.119000, -0.008700
  1.121000, -0.006700
  1.123000, -0.004600
  1.125000, -0.002300
  1.127000,  0.000200
  1.129000,  0.002500
  1.131000,  0.004800
  1.133000,  0.007400
  1.135000,  0.009900
  1.137000,  0.012600
  1.139000,  0.015400
  1.141000,  0.018400
  1.143000,  0.021300
  1.145000,  0.024000
  1.147000,  0.026900
  1.149000,  0.029900
  1.151000,  0.032800
  1.153000,  0.035700
  1.155000,  0.038500
  1.157000,  0.041300
  1.159000,  0.044000
  1.161000,  0.046600
  1.163000,  0.049100
  1.165000,  0.051600
  1.167000,  0.054100
  1.169000,  0.056500
  1.171000,  0.058600
  1.173000,  0.060500
  1.175000,  0.062400
  1.177000,  0.064000
  1.179000,  0.065400
  1.181000,  0.066600
  1.183000,  0.067600
  1.185000,  0.068600
  1.187000,  0.069200
  1.189000,  0.069600
  1.191000,  0.069900
  1.193000,  0.069900
  1.195000,  0.069700
  1.197000,  0.069200
  1.199000,  0.068600
  1.201000,  0.067800
  1.203000,  0.066800
  1.205000,  0.065500
  1.207000,  0.064000
  1.209000,  0.062300
  1.211000,  0.060300
  1.213000,  0.058300
  1.215000,  0.056100
  1.217000,  0.053700
  1.219000,  0.051200
  1.221000,  0.048600
  1.223000,  0.045900
  1.225000,  0.043000
  1.227000,  0.040000
  1.229000,  0.036900
  1.231000,  0.033700
  1.233000,  0.030400
  1.235000,  0.027100
  1.237000,  0.023700
  1.239000,  0.020400
  1.241000,  0.017100
  1.243000,  0.013700
  1.245000,  0.010300
  1.247000,  0.006900
  1.249000,  0.003500
  1.251000,  0.000100
  1.253000, -0.003100
  1.255000, -0.006300
  1.257000, -0.009500
  1.259000, -0.012600
  1.261000, -0.015600
  1.263000, -0.018600
  1.265000, -0.021400
  1.267000, -0.024000
  1.269000, -0.026700
  1.271000, -0.029200
  1.273000, -0.031700
  1.275000, -0.034100
  1.277000, -0.036200
  1.279000, -0.038200
  1.281000, -0.040100
  1.283000, -0.041900
  1.285000, -0.043700
  1.287000, -0.045200
  1.289000, -0.046700
  1.291000, -0.048000
  1.293000, -0.049100
  1.295000, -0.050100
  1.297000, -0.050900
  1.299000, -0.051500
  1.301000, -0.052100
  1.303000, -0.052400
  1.305000, -0.052500
  1.307000, -0.052500
  1.309000, -0.052300
  1.311000, -0.052000
  1.313000, -0.051500
  1.315000, -0.050800
  1.317000, -0.049900
  1.319000, -0.048800
  1.321000, -0.047600
  1.323000, -0.046200
  1.325000, -0.044700
  1.327000, -0.043000
  1.329000, -0.041100
  1.331000, -0.039100
  1.333000, -0.037000
  1.335000, -0.034800
  1.337000, -0.032300
  1.339000, -0.029700
  1.341000, -0.026900
  1.343000, -0.024000
  1.345000, -0.021000
  1.347000, -0.017800
  1.349000, -0.014500
  1.351000, -0.011100
  1.353000, -0.007600
  1.355000, -0.004100
  1.357000, -0.000500
  1.359000,  0.003200
  1.361000,  0.007100
  1.363000,  0.010900
  1.365000,  0.014700
  1.367000,  0.018600
  1.369000,  0.022500
  1.371000,  0.026300
  1.373000,  0.030100
  1.375000,  0.033800
  1.377000,  0.037300
  1.379000,  0.040800
  1.381000,  0.044200
  1.383000,  0.047300
  1.385000,  0.050200
  1.387000,  0.053100
  1.389000,  0.055700
  1.391000,  0.058200
  1.393000,  0.060300
  1.395000,  0.061800
  1.397000,  0.062700
  1.399000,  0.063300
