# z (nm)   (kJ/mol)
  0.281000, 14.009500
  0.283000, 13.705900
  0.285000, 13.442400
  0.287000, 13.147100
  0.289000, 12.823200
  0.291000, 12.503200
  0.293000, 12.169300
  0.295000, 11.824800
  0.297000, 11.479700
  0.299000, 11.110200
  0.301000, 10.741300
  0.303000, 10.378900
  0.305000, 10.004500
  0.307000,  9.619700
  0.309000,  9.232700
  0.311000,  8.849400
  0.313000,  8.464000
  0.315000,  8.079500
  0.317000,  7.693000
  0.319000,  7.295400
  0.321000,  6.893300
  0.323000,  6.488400
  0.325000,  6.077200
  0.327000,  5.667300
  0.329000,  5.258100
  0.331000,  4.845100
  0.333000,  4.437500
  0.335000,  4.031100
  0.337000,  3.622600
  0.339000,  3.215600
  0.341000,  2.809900
  0.343000,  2.409000
  0.345000,  2.011600
  0.347000,  1.616600
  0.349000,  1.222800
  0.351000,  0.835200
  0.353000,  0.451700
  0.355000,  0.071300
  0.357000, -0.304700
  0.359000, -0.677000
  0.361000, -1.044600
  0.363000, -1.410800
  0.365000, -1.771600
  0.367000, -2.127300
  0.369000, -2.473700
  0.371000, -2.813400
  0.373000, -3.151200
  0.375000, -3.479800
  0.377000, -3.801200
  0.379000, -4.118200
  0.381000, -4.429200
  0.383000, -4.733300
  0.385000, -5.030200
  0.387000, -5.320600
  0.389000, -5.604200
  0.391000, -5.880800
  0.393000, -6.149600
  0.395000, -6.410100
  0.397000, -6.662700
  0.399000, -6.907000
  0.401000, -7.142100
  0.403000, -7.368800
  0.405000, -7.586600
  0.407000, -7.794000
  0.409000, -7.993200
  0.411000, -8.184700
  0.413000, -8.366500
  0.415000, -8.538800
  0.417000, -8.703200
  0.419000, -8.859500
  0.421000, -9.007800
  0.423000, -9.146900
  0.425000, -9.275400
  0.427000, -9.395300
  0.429000, -9.506900
  0.431000, -9.610000
  0.433000, -9.703000
  0.435000, -9.786600
  0.437000, -9.862900
  0.439000, -9.931800
  0.441000, -9.994700
  0.443000,-10.051200
  0.445000,-10.099800
  0.447000,-10.139900
  0.449000,-10.172400
  0.451000,-10.197600
  0.453000,-10.216400
  0.455000,-10.229400
  0.457000,-10.234800
  0.459000,-10.233000
  0.461000,-10.225500
  0.463000,-10.212500
  0.465000,-10.195100
  0.467000,-10.172800
  0.469000,-10.144800
  0.471000,-10.111500
  0.473000,-10.073400
  0.475000,-10.031200
  0.477000, -9.983600
  0.479000, -9.931300
  0.481000, -9.876400
  0.483000, -9.818000
  0.485000, -9.756200
  0.487000, -9.690400
  0.489000, -9.620900
  0.491000, -9.548600
  0.493000, -9.472600
  0.495000, -9.393400
  0.497000, -9.311400
  0.499000, -9.226800
  0.501000, -9.139600
  0.503000, -9.049500
  0.505000, -8.956900
  0.507000, -8.861900
  0.509000, -8.764600
  0.511000, -8.665000
  0.513000, -8.563000
  0.515000, -8.458900
  0.517000, -8.353100
  0.519000, -8.244700
  0.521000, -8.134300
  0.523000, -8.022000
  0.525000, -7.907900
  0.527000, -7.792700
  0.529000, -7.675400
  0.531000, -7.556300
  0.533000, -7.435900
  0.535000, -7.314100
  0.537000, -7.190900
  0.539000, -7.065800
  0.541000, -6.939300
  0.543000, -6.811700
  0.545000, -6.682300
  0.547000, -6.552100
  0.549000, -6.421800
  0.551000, -6.290500
  0.553000, -6.158200
  0.555000, -6.025100
  0.557000, -5.891100
  0.559000, -5.756700
  0.561000, -5.621900
  0.563000, -5.486900
  0.565000, -5.351800
  0.567000, -5.216600
  0.569000, -5.082000
  0.571000, -4.947900
  0.573000, -4.813700
  0.575000, -4.679800
  0.577000, -4.546600
  0.579000, -4.414000
  0.581000, -4.282500
  0.583000, -4.152300
  0.585000, -4.023200
  0.587000, -3.895700
  0.589000, -3.769200
  0.591000, -3.644700
  0.593000, -3.522300
  0.595000, -3.401900
  0.597000, -3.282700
  0.599000, -3.165300
  0.601000, -3.050500
  0.603000, -2.938200
  0.605000, -2.828100
  0.607000, -2.720900
  0.609000, -2.616600
  0.611000, -2.515000
  0.613000, -2.416200
  0.615000, -2.320600
  0.617000, -2.227600
  0.619000, -2.137200
  0.621000, -2.050300
  0.623000, -1.966100
  0.625000, -1.885000
  0.627000, -1.807300
  0.629000, -1.732900
  0.631000, -1.662200
  0.633000, -1.594900
  0.635000, -1.530600
  0.637000, -1.469300
  0.639000, -1.411100
  0.641000, -1.356000
  0.643000, -1.304300
  0.645000, -1.255600
  0.647000, -1.209900
  0.649000, -1.167100
  0.651000, -1.127000
  0.653000, -1.089800
  0.655000, -1.055300
  0.657000, -1.023600
  0.659000, -0.994300
  0.661000, -0.967300
  0.663000, -0.942900
  0.665000, -0.921000
  0.667000, -0.900800
  0.669000, -0.882500
  0.671000, -0.866100
  0.673000, -0.851500
  0.675000, -0.838800
  0.677000, -0.827500
  0.679000, -0.817600
  0.681000, -0.809100
  0.683000, -0.801800
  0.685000, -0.795600
  0.687000, -0.790600
  0.689000, -0.786500
  0.691000, -0.783400
  0.693000, -0.781000
  0.695000, -0.779400
  0.697000, -0.778500
  0.699000, -0.777900
  0.701000, -0.777700
  0.703000, -0.777800
  0.705000, -0.778100
  0.707000, -0.778600
  0.709000, -0.779600
  0.711000, -0.780700
  0.713000, -0.781900
  0.715000, -0.783000
  0.717000, -0.784000
  0.719000, -0.784900
  0.721000, -0.785500
  0.723000, -0.786000
  0.725000, -0.786500
  0.727000, -0.786900
  0.729000, -0.787000
  0.731000, -0.787000
  0.733000, -0.786700
  0.735000, -0.786000
  0.737000, -0.785000
  0.739000, -0.783400
  0.741000, -0.781500
  0.743000, -0.779700
  0.745000, -0.777500
  0.747000, -0.774700
  0.749000, -0.771600
  0.751000, -0.768200
  0.753000, -0.764700
  0.755000, -0.760900
  0.757000, -0.756800
  0.759000, -0.752200
  0.761000, -0.747400
  0.763000, -0.742400
  0.765000, -0.737300
  0.767000, -0.732300
  0.769000, -0.727000
  0.771000, -0.721200
  0.773000, -0.715400
  0.775000, -0.709800
  0.777000, -0.703700
  0.779000, -0.697100
  0.781000, -0.690200
  0.783000, -0.683300
  0.785000, -0.676400
  0.787000, -0.669400
  0.789000, -0.662000
  0.791000, -0.654700
  0.793000, -0.647300
  0.795000, -0.639700
  0.797000, -0.632000
  0.799000, -0.624100
  0.801000, -0.616000
  0.803000, -0.608000
  0.805000, -0.599900
  0.807000, -0.591800
  0.809000, -0.583500
  0.811000, -0.575000
  0.813000, -0.566700
  0.815000, -0.558500
  0.817000, -0.550100
  0.819000, -0.541800
  0.821000, -0.533500
  0.823000, -0.525100
  0.825000, -0.516700
  0.827000, -0.508400
  0.829000, -0.500000
  0.831000, -0.491400
  0.833000, -0.482700
  0.835000, -0.474200
  0.837000, -0.465600
  0.839000, -0.457000
  0.841000, -0.448600
  0.843000, -0.440200
  0.845000, -0.431800
  0.847000, -0.423400
  0.849000, -0.414900
  0.851000, -0.406400
  0.853000, -0.398100
  0.855000, -0.389700
  0.857000, -0.381200
  0.859000, -0.372900
  0.861000, -0.364400
  0.863000, -0.355900
  0.865000, -0.347400
  0.867000, -0.338800
  0.869000, -0.330100
  0.871000, -0.321500
  0.873000, -0.312800
  0.875000, -0.304400
  0.877000, -0.296000
  0.879000, -0.287600
  0.881000, -0.279200
  0.883000, -0.270900
  0.885000, -0.262500
  0.887000, -0.254200
  0.889000, -0.246000
  0.891000, -0.237800
  0.893000, -0.229600
  0.895000, -0.221500
  0.897000, -0.213400
  0.899000, -0.205400
  0.901000, -0.197500
  0.903000, -0.189600
  0.905000, -0.181600
  0.907000, -0.173500
  0.909000, -0.165600
  0.911000, -0.157900
  0.913000, -0.150300
  0.915000, -0.142800
  0.917000, -0.135300
  0.919000, -0.127900
  0.921000, -0.120400
  0.923000, -0.113000
  0.925000, -0.105900
  0.927000, -0.099100
  0.929000, -0.092200
  0.931000, -0.085400
  0.933000, -0.078700
  0.935000, -0.072100
  0.937000, -0.065500
  0.939000, -0.059000
  0.941000, -0.052700
  0.943000, -0.046500
  0.945000, -0.040500
  0.947000, -0.034800
  0.949000, -0.029200
  0.951000, -0.023700
  0.953000, -0.018100
  0.955000, -0.012600
  0.957000, -0.007300
  0.959000, -0.002200
  0.961000,  0.002800
  0.963000,  0.007500
  0.965000,  0.012100
  0.967000,  0.016600
  0.969000,  0.021000
  0.971000,  0.025200
  0.973000,  0.029300
  0.975000,  0.033100
  0.977000,  0.036700
  0.979000,  0.040200
  0.981000,  0.043500
  0.983000,  0.046800
  0.985000,  0.049800
  0.987000,  0.052500
  0.989000,  0.055100
  0.991000,  0.057400
  0.993000,  0.059600
  0.995000,  0.061400
  0.997000,  0.063100
  0.999000,  0.064600
  1.001000,  0.065900
  1.003000,  0.067100
  1.005000,  0.068100
  1.007000,  0.068700
  1.009000,  0.069100
  1.011000,  0.069300
  1.013000,  0.069300
  1.015000,  0.069000
  1.017000,  0.068300
  1.019000,  0.067400
  1.021000,  0.066300
  1.023000,  0.064900
  1.025000,  0.063500
  1.027000,  0.061700
  1.029000,  0.059700
  1.031000,  0.057500
  1.033000,  0.055300
  1.035000,  0.053000
  1.037000,  0.050400
  1.039000,  0.047600
  1.041000,  0.044800
  1.043000,  0.041800
  1.045000,  0.038700
  1.047000,  0.035500
  1.049000,  0.032200
  1.051000,  0.028900
  1.053000,  0.025600
  1.055000,  0.022200
  1.057000,  0.018700
  1.059000,  0.015200
  1.061000,  0.011900
  1.063000,  0.008600
  1.065000,  0.005500
  1.067000,  0.002200
  1.069000, -0.001000
  1.071000, -0.004100
  1.073000, -0.007200
  1.075000, -0.010200
  1.077000, -0.013100
  1.079000, -0.015900
  1.081000, -0.018400
  1.083000, -0.020700
  1.085000, -0.023000
  1.087000, -0.025200
  1.089000, -0.027200
  1.091000, -0.029000
  1.093000, -0.030700
  1.095000, -0.032200
  1.097000, -0.033600
  1.099000, -0.034900
  1.101000, -0.035900
  1.103000, -0.036800
  1.105000, -0.037500
  1.107000, -0.038100
  1.109000, -0.038500
  1.111000, -0.038800
  1.113000, -0.038900
  1.115000, -0.038900
  1.117000, -0.038800
  1.119000, -0.038600
  1.121000, -0.038300
  1.123000, -0.037800
  1.125000, -0.037200
  1.127000, -0.036600
  1.129000, -0.036000
  1.131000, -0.035300
  1.133000, -0.034600
  1.135000, -0.033700
  1.137000, -0.032800
  1.139000, -0.032000
  1.141000, -0.031100
  1.143000, -0.030100
  1.145000, -0.029200
  1.147000, -0.028400
  1.149000, -0.027400
  1.151000, -0.026400
  1.153000, -0.025500
  1.155000, -0.024700
  1.157000, -0.023800
  1.159000, -0.023000
  1.161000, -0.022100
  1.163000, -0.021300
  1.165000, -0.020500
  1.167000, -0.019700
  1.169000, -0.018800
  1.171000, -0.017900
  1.173000, -0.017100
  1.175000, -0.016200
  1.177000, -0.015300
  1.179000, -0.014400
  1.181000, -0.013600
  1.183000, -0.012800
  1.185000, -0.012000
  1.187000, -0.011300
  1.189000, -0.010800
  1.191000, -0.010200
  1.193000, -0.009600
  1.195000, -0.009100
  1.197000, -0.008700
  1.199000, -0.008200
  1.201000, -0.007700
  1.203000, -0.007200
  1.205000, -0.006700
  1.207000, -0.006300
  1.209000, -0.005900
  1.211000, -0.005500
  1.213000, -0.005100
  1.215000, -0.004900
  1.217000, -0.004700
  1.219000, -0.004600
  1.221000, -0.004500
  1.223000, -0.004400
  1.225000, -0.004400
  1.227000, -0.004300
  1.229000, -0.004300
  1.231000, -0.004400
  1.233000, -0.004500
  1.235000, -0.004700
  1.237000, -0.004800
  1.239000, -0.005000
  1.241000, -0.005200
  1.243000, -0.005500
  1.245000, -0.005800
  1.247000, -0.006100
  1.249000, -0.006500
  1.251000, -0.006900
  1.253000, -0.007300
  1.255000, -0.007700
  1.257000, -0.008200
  1.259000, -0.008700
  1.261000, -0.009200
  1.263000, -0.009700
  1.265000, -0.010200
  1.267000, -0.010800
  1.269000, -0.011200
  1.271000, -0.011800
  1.273000, -0.012500
  1.275000, -0.012900
  1.277000, -0.013400
  1.279000, -0.013800
  1.281000, -0.014200
  1.283000, -0.014700
  1.285000, -0.015100
  1.287000, -0.015500
  1.289000, -0.016000
  1.291000, -0.016400
  1.293000, -0.016800
  1.295000, -0.017200
  1.297000, -0.017500
  1.299000, -0.017800
  1.301000, -0.017800
  1.303000, -0.017700
  1.305000, -0.017600
  1.307000, -0.017600
  1.309000, -0.017500
  1.311000, -0.017400
  1.313000, -0.017100
  1.315000, -0.016700
  1.317000, -0.016300
  1.319000, -0.015900
  1.321000, -0.015300
  1.323000, -0.014800
  1.325000, -0.014100
  1.327000, -0.013200
  1.329000, -0.012300
  1.331000, -0.011400
  1.333000, -0.010300
  1.335000, -0.009100
  1.337000, -0.007700
  1.339000, -0.006400
  1.341000, -0.004900
  1.343000, -0.003300
  1.345000, -0.001400
  1.347000,  0.000600
  1.349000,  0.002700
  1.351000,  0.004700
  1.353000,  0.006700
  1.355000,  0.008800
  1.357000,  0.011100
  1.359000,  0.013400
  1.361000,  0.015700
  1.363000,  0.018200
  1.365000,  0.020700
  1.367000,  0.023000
  1.369000,  0.025400
  1.371000,  0.027800
  1.373000,  0.030200
  1.375000,  0.032700
  1.377000,  0.035000
  1.379000,  0.037200
  1.381000,  0.039300
  1.383000,  0.041400
  1.385000,  0.043300
  1.387000,  0.045000
  1.389000,  0.046400
  1.391000,  0.047600
  1.393000,  0.048500
  1.395000,  0.049100
  1.397000,  0.049400
  1.399000,  0.049300
