# z (nm)   (kJ/mol)
  0.2530    3.10630
  0.2550    2.49110
  0.2570    1.85620
  0.2590    1.26120
  0.2610    0.68970
  0.2630    0.09870
  0.2650   -0.50020
  0.2670   -1.07960
  0.2690   -1.64890
  0.2710   -2.22340
  0.2730   -2.79100
  0.2750   -3.34440
  0.2770   -3.89290
  0.2790   -4.43580
  0.2810   -4.96890
  0.2830   -5.48540
  0.2850   -5.98750
  0.2870   -6.47930
  0.2890   -6.95780
  0.2910   -7.42150
  0.2930   -7.87510
  0.2950   -8.31660
  0.2970   -8.74270
  0.2990   -9.15400
  0.3010   -9.54910
  0.3030   -9.92960
  0.3050  -10.29530
  0.3070  -10.64490
  0.3090  -10.98200
  0.3110  -11.30580
  0.3130  -11.61180
  0.3150  -11.90410
  0.3170  -12.18190
  0.3190  -12.44350
  0.3210  -12.68920
  0.3230  -12.91980
  0.3250  -13.13500
  0.3270  -13.33450
  0.3290  -13.51870
  0.3310  -13.68800
  0.3330  -13.84250
  0.3350  -13.98230
  0.3370  -14.10720
  0.3390  -14.21750
  0.3410  -14.31360
  0.3430  -14.39630
  0.3450  -14.46590
  0.3470  -14.52240
  0.3490  -14.56660
  0.3510  -14.60010
  0.3530  -14.62200
  0.3550  -14.63190
  0.3570  -14.63100
  0.3590  -14.61870
  0.3610  -14.59500
  0.3630  -14.56260
  0.3650  -14.52270
  0.3670  -14.47560
  0.3690  -14.42270
  0.3710  -14.36220
  0.3730  -14.29410
  0.3750  -14.22090
  0.3770  -14.14250
  0.3790  -14.05780
  0.3810  -13.96710
  0.3830  -13.87270
  0.3850  -13.77380
  0.3870  -13.67120
  0.3890  -13.56560
  0.3910  -13.45690
  0.3930  -13.34560
  0.3950  -13.23140
  0.3970  -13.11470
  0.3990  -12.99580
  0.4010  -12.87510
  0.4030  -12.75240
  0.4050  -12.62810
  0.4070  -12.50240
  0.4090  -12.37510
  0.4110  -12.24580
  0.4130  -12.11480
  0.4150  -11.98220
  0.4170  -11.84810
  0.4190  -11.71270
  0.4210  -11.57590
  0.4230  -11.43850
  0.4250  -11.30000
  0.4270  -11.15980
  0.4290  -11.01830
  0.4310  -10.87520
  0.4330  -10.73060
  0.4350  -10.58460
  0.4370  -10.43740
  0.4390  -10.28970
  0.4410  -10.14080
  0.4430   -9.99100
  0.4450   -9.84050
  0.4470   -9.68900
  0.4490   -9.53610
  0.4510   -9.38160
  0.4530   -9.22680
  0.4550   -9.07220
  0.4570   -8.91650
  0.4590   -8.76020
  0.4610   -8.60330
  0.4630   -8.44550
  0.4650   -8.28740
  0.4670   -8.12920
  0.4690   -7.97090
  0.4710   -7.81280
  0.4730   -7.65490
  0.4750   -7.49700
  0.4770   -7.33940
  0.4790   -7.18230
  0.4810   -7.02550
  0.4830   -6.86920
  0.4850   -6.71340
  0.4870   -6.55840
  0.4890   -6.40470
  0.4910   -6.25190
  0.4930   -6.09980
  0.4950   -5.94890
  0.4970   -5.79910
  0.4990   -5.65070
  0.5010   -5.50370
  0.5030   -5.35830
  0.5050   -5.21440
  0.5070   -5.07190
  0.5090   -4.93080
  0.5110   -4.79170
  0.5130   -4.65480
  0.5150   -4.51980
  0.5170   -4.38670
  0.5190   -4.25560
  0.5210   -4.12650
  0.5230   -3.99950
  0.5250   -3.87470
  0.5270   -3.75190
  0.5290   -3.63140
  0.5310   -3.51330
  0.5330   -3.39750
  0.5350   -3.28450
  0.5370   -3.17420
  0.5390   -3.06590
  0.5410   -2.96000
  0.5430   -2.85650
  0.5450   -2.75560
  0.5470   -2.65720
  0.5490   -2.56140
  0.5510   -2.46820
  0.5530   -2.37780
  0.5550   -2.29010
  0.5570   -2.20500
  0.5590   -2.12280
  0.5610   -2.04310
  0.5630   -1.96590
  0.5650   -1.89150
  0.5670   -1.81960
  0.5690   -1.75020
  0.5710   -1.68380
  0.5730   -1.62040
  0.5750   -1.55980
  0.5770   -1.50160
  0.5790   -1.44600
  0.5810   -1.39320
  0.5830   -1.34310
  0.5850   -1.29530
  0.5870   -1.24990
  0.5890   -1.20720
  0.5910   -1.16700
  0.5930   -1.12920
  0.5950   -1.09420
  0.5970   -1.06150
  0.5990   -1.03090
  0.6010   -1.00290
  0.6030   -0.97720
  0.6050   -0.95360
  0.6070   -0.93230
  0.6090   -0.91290
  0.6110   -0.89550
  0.6130   -0.88040
  0.6150   -0.86710
  0.6170   -0.85560
  0.6190   -0.84620
  0.6210   -0.83850
  0.6230   -0.83250
  0.6250   -0.82820
  0.6270   -0.82550
  0.6290   -0.82440
  0.6310   -0.82460
  0.6330   -0.82620
  0.6350   -0.82910
  0.6370   -0.83310
  0.6390   -0.83840
  0.6410   -0.84520
  0.6430   -0.85310
  0.6450   -0.86160
  0.6470   -0.87100
  0.6490   -0.88150
  0.6510   -0.89270
  0.6530   -0.90440
  0.6550   -0.91690
  0.6570   -0.93040
  0.6590   -0.94440
  0.6610   -0.95860
  0.6630   -0.97330
  0.6650   -0.98830
  0.6670   -1.00330
  0.6690   -1.01870
  0.6710   -1.03440
  0.6730   -1.05020
  0.6750   -1.06570
  0.6770   -1.08110
  0.6790   -1.09650
  0.6810   -1.11180
  0.6830   -1.12720
  0.6850   -1.14250
  0.6870   -1.15770
  0.6890   -1.17260
  0.6910   -1.18710
  0.6930   -1.20100
  0.6950   -1.21460
  0.6970   -1.22780
  0.6990   -1.24050
  0.7010   -1.25270
  0.7030   -1.26440
  0.7050   -1.27550
  0.7070   -1.28580
  0.7090   -1.29590
  0.7110   -1.30550
  0.7130   -1.31440
  0.7150   -1.32250
  0.7170   -1.33000
  0.7190   -1.33670
  0.7210   -1.34280
  0.7230   -1.34820
  0.7250   -1.35290
  0.7270   -1.35690
  0.7290   -1.36010
  0.7310   -1.36240
  0.7330   -1.36390
  0.7350   -1.36480
  0.7370   -1.36500
  0.7390   -1.36430
  0.7410   -1.36280
  0.7430   -1.36060
  0.7450   -1.35780
  0.7470   -1.35420
  0.7490   -1.34980
  0.7510   -1.34470
  0.7530   -1.33880
  0.7550   -1.33230
  0.7570   -1.32510
  0.7590   -1.31710
  0.7610   -1.30830
  0.7630   -1.29890
  0.7650   -1.28900
  0.7670   -1.27840
  0.7690   -1.26700
  0.7710   -1.25510
  0.7730   -1.24260
  0.7750   -1.22970
  0.7770   -1.21620
  0.7790   -1.20220
  0.7810   -1.18770
  0.7830   -1.17270
  0.7850   -1.15730
  0.7870   -1.14140
  0.7890   -1.12520
  0.7910   -1.10860
  0.7930   -1.09160
  0.7950   -1.07430
  0.7970   -1.05660
  0.7990   -1.03860
  0.8010   -1.02030
  0.8030   -1.00180
  0.8050   -0.98320
  0.8070   -0.96430
  0.8090   -0.94510
  0.8110   -0.92590
  0.8130   -0.90670
  0.8150   -0.88730
  0.8170   -0.86790
  0.8190   -0.84850
  0.8210   -0.82900
  0.8230   -0.80940
  0.8250   -0.78980
  0.8270   -0.77030
  0.8290   -0.75080
  0.8310   -0.73130
  0.8330   -0.71180
  0.8350   -0.69250
  0.8370   -0.67320
  0.8390   -0.65410
  0.8410   -0.63520
  0.8430   -0.61640
  0.8450   -0.59790
  0.8470   -0.57970
  0.8490   -0.56160
  0.8510   -0.54360
  0.8530   -0.52600
  0.8550   -0.50840
  0.8570   -0.49130
  0.8590   -0.47450
  0.8610   -0.45770
  0.8630   -0.44120
  0.8650   -0.42500
  0.8670   -0.40920
  0.8690   -0.39390
  0.8710   -0.37870
  0.8730   -0.36390
  0.8750   -0.34940
  0.8770   -0.33550
  0.8790   -0.32200
  0.8810   -0.30880
  0.8830   -0.29610
  0.8850   -0.28390
  0.8870   -0.27200
  0.8890   -0.26050
  0.8910   -0.24940
  0.8930   -0.23870
  0.8950   -0.22840
  0.8970   -0.21860
  0.8990   -0.20930
  0.9010   -0.20040
  0.9030   -0.19200
  0.9050   -0.18410
  0.9070   -0.17660
  0.9090   -0.16950
  0.9110   -0.16280
  0.9130   -0.15670
  0.9150   -0.15100
  0.9170   -0.14570
  0.9190   -0.14090
  0.9210   -0.13650
  0.9230   -0.13250
  0.9250   -0.12910
  0.9270   -0.12610
  0.9290   -0.12350
  0.9310   -0.12130
  0.9330   -0.11940
  0.9350   -0.11780
  0.9370   -0.11660
  0.9390   -0.11580
  0.9410   -0.11540
  0.9430   -0.11510
  0.9450   -0.11520
  0.9470   -0.11560
  0.9490   -0.11640
  0.9510   -0.11750
  0.9530   -0.11880
  0.9550   -0.12030
  0.9570   -0.12190
  0.9590   -0.12370
  0.9610   -0.12570
  0.9630   -0.12780
  0.9650   -0.13020
  0.9670   -0.13270
  0.9690   -0.13520
  0.9710   -0.13790
  0.9730   -0.14080
  0.9750   -0.14380
  0.9770   -0.14680
  0.9790   -0.14980
  0.9810   -0.15270
  0.9830   -0.15570
  0.9850   -0.15880
  0.9870   -0.16180
  0.9890   -0.16490
  0.9910   -0.16790
  0.9930   -0.17080
  0.9950   -0.17380
  0.9970   -0.17670
  0.9990   -0.17960
  1.0010   -0.18240
  1.0030   -0.18500
  1.0050   -0.18750
  1.0070   -0.19000
  1.0090   -0.19240
  1.0110   -0.19460
  1.0130   -0.19690
  1.0150   -0.19900
  1.0170   -0.20090
  1.0190   -0.20280
  1.0210   -0.20450
  1.0230   -0.20610
  1.0250   -0.20740
  1.0270   -0.20870
  1.0290   -0.20990
  1.0310   -0.21090
  1.0330   -0.21170
  1.0350   -0.21240
  1.0370   -0.21280
  1.0390   -0.21310
  1.0410   -0.21330
  1.0430   -0.21330
  1.0450   -0.21320
  1.0470   -0.21290
  1.0490   -0.21240
  1.0510   -0.21170
  1.0530   -0.21110
  1.0550   -0.21030
  1.0570   -0.20910
  1.0590   -0.20790
  1.0610   -0.20660
  1.0630   -0.20490
  1.0650   -0.20320
  1.0670   -0.20150
  1.0690   -0.19950
  1.0710   -0.19730
  1.0730   -0.19500
  1.0750   -0.19260
  1.0770   -0.19010
  1.0790   -0.18740
  1.0810   -0.18470
  1.0830   -0.18190
  1.0850   -0.17890
  1.0870   -0.17590
  1.0890   -0.17270
  1.0910   -0.16940
  1.0930   -0.16610
  1.0950   -0.16270
  1.0970   -0.15930
  1.0990   -0.15570
  1.1010   -0.15210
  1.1030   -0.14850
  1.1050   -0.14490
  1.1070   -0.14130
  1.1090   -0.13770
  1.1110   -0.13400
  1.1130   -0.13020
  1.1150   -0.12640
  1.1170   -0.12270
  1.1190   -0.11900
  1.1210   -0.11540
  1.1230   -0.11180
  1.1250   -0.10830
  1.1270   -0.10480
  1.1290   -0.10130
  1.1310   -0.09790
  1.1330   -0.09460
  1.1350   -0.09150
  1.1370   -0.08830
  1.1390   -0.08520
  1.1410   -0.08230
  1.1430   -0.07940
  1.1450   -0.07660
  1.1470   -0.07400
  1.1490   -0.07150
  1.1510   -0.06910
  1.1530   -0.06680
  1.1550   -0.06460
  1.1570   -0.06260
  1.1590   -0.06080
  1.1610   -0.05900
  1.1630   -0.05740
  1.1650   -0.05600
  1.1670   -0.05470
  1.1690   -0.05340
  1.1710   -0.05220
  1.1730   -0.05110
  1.1750   -0.05020
  1.1770   -0.04940
  1.1790   -0.04870
  1.1810   -0.04800
  1.1830   -0.04760
  1.1850   -0.04710
  1.1870   -0.04670
  1.1890   -0.04650
  1.1910   -0.04640
  1.1930   -0.04630
  1.1950   -0.04630
  1.1970   -0.04630
  1.1990   -0.04630
  1.2010   -0.04630
  1.2030   -0.04630
  1.2050   -0.04640
  1.2070   -0.04660
  1.2090   -0.04680
  1.2110   -0.04690
  1.2130   -0.04690
  1.2150   -0.04700
  1.2170   -0.04700
  1.2190   -0.04700
  1.2210   -0.04710
  1.2230   -0.04720
  1.2250   -0.04720
  1.2270   -0.04730
  1.2290   -0.04730
  1.2310   -0.04710
  1.2330   -0.04680
  1.2350   -0.04660
  1.2370   -0.04630
  1.2390   -0.04590
  1.2410   -0.04540
  1.2430   -0.04490
  1.2450   -0.04440
  1.2470   -0.04380
  1.2490   -0.04310
  1.2510   -0.04230
  1.2530   -0.04160
  1.2550   -0.04080
  1.2570   -0.03990
  1.2590   -0.03890
  1.2610   -0.03790
  1.2630   -0.03690
  1.2650   -0.03580
  1.2670   -0.03470
  1.2690   -0.03350
  1.2710   -0.03210
  1.2730   -0.03070
  1.2750   -0.02930
  1.2770   -0.02800
  1.2790   -0.02660
  1.2810   -0.02520
  1.2830   -0.02370
  1.2850   -0.02220
  1.2870   -0.02060
  1.2890   -0.01910
  1.2910   -0.01760
  1.2930   -0.01610
  1.2950   -0.01450
  1.2970   -0.01280
  1.2990   -0.01110
  1.3010   -0.00940
  1.3030   -0.00780
  1.3050   -0.00620
  1.3070   -0.00440
  1.3090   -0.00270
  1.3110   -0.00100
  1.3130    0.00080
  1.3150    0.00270
  1.3170    0.00450
  1.3190    0.00630
  1.3210    0.00830
  1.3230    0.01010
  1.3250    0.01180
  1.3270    0.01370
  1.3290    0.01570
  1.3310    0.01780
  1.3330    0.01980
  1.3350    0.02200
  1.3370    0.02420
  1.3390    0.02630
  1.3410    0.02840
  1.3430    0.03060
  1.3450    0.03280
  1.3470    0.03510
  1.3490    0.03730
  1.3510    0.03940
  1.3530    0.04160
  1.3550    0.04380
  1.3570    0.04600
  1.3590    0.04830
  1.3610    0.05060
  1.3630    0.05280
  1.3650    0.05520
  1.3670    0.05760
  1.3690    0.05980
  1.3710    0.06180
  1.3730    0.06390
  1.3750    0.06620
  1.3770    0.06830
  1.3790    0.07030
  1.3810    0.07230
  1.3830    0.07430
  1.3850    0.07600
  1.3870    0.07770
  1.3890    0.07920
  1.3910    0.08050
  1.3930    0.08170
  1.3950    0.08290
  1.3970    0.08350
  1.3990    0.08360
