# z (nm)   (kJ/mol)
  0.253000,  3.106300
  0.255000,  2.491100
  0.257000,  1.856200
  0.259000,  1.261200
  0.261000,  0.689700
  0.263000,  0.098700
  0.265000, -0.500200
  0.267000, -1.079600
  0.269000, -1.648900
  0.271000, -2.223400
  0.273000, -2.791000
  0.275000, -3.344400
  0.277000, -3.892900
  0.279000, -4.435800
  0.281000, -4.968900
  0.283000, -5.485400
  0.285000, -5.987500
  0.287000, -6.479300
  0.289000, -6.957800
  0.291000, -7.421500
  0.293000, -7.875100
  0.295000, -8.316600
  0.297000, -8.742700
  0.299000, -9.154000
  0.301000, -9.549100
  0.303000, -9.929600
  0.305000,-10.295300
  0.307000,-10.644900
  0.309000,-10.982000
  0.311000,-11.305800
  0.313000,-11.611800
  0.315000,-11.904100
  0.317000,-12.181900
  0.319000,-12.443500
  0.321000,-12.689200
  0.323000,-12.919800
  0.325000,-13.135000
  0.327000,-13.334500
  0.329000,-13.518700
  0.331000,-13.688000
  0.333000,-13.842500
  0.335000,-13.982300
  0.337000,-14.107200
  0.339000,-14.217500
  0.341000,-14.313600
  0.343000,-14.396300
  0.345000,-14.465900
  0.347000,-14.522400
  0.349000,-14.566600
  0.351000,-14.600100
  0.353000,-14.622000
  0.355000,-14.631900
  0.357000,-14.631000
  0.359000,-14.618700
  0.361000,-14.595000
  0.363000,-14.562600
  0.365000,-14.522700
  0.367000,-14.475600
  0.369000,-14.422700
  0.371000,-14.362200
  0.373000,-14.294100
  0.375000,-14.220900
  0.377000,-14.142500
  0.379000,-14.057800
  0.381000,-13.967100
  0.383000,-13.872700
  0.385000,-13.773800
  0.387000,-13.671200
  0.389000,-13.565600
  0.391000,-13.456900
  0.393000,-13.345600
  0.395000,-13.231400
  0.397000,-13.114700
  0.399000,-12.995800
  0.401000,-12.875100
  0.403000,-12.752400
  0.405000,-12.628100
  0.407000,-12.502400
  0.409000,-12.375100
  0.411000,-12.245800
  0.413000,-12.114800
  0.415000,-11.982200
  0.417000,-11.848100
  0.419000,-11.712700
  0.421000,-11.575900
  0.423000,-11.438500
  0.425000,-11.300000
  0.427000,-11.159800
  0.429000,-11.018300
  0.431000,-10.875200
  0.433000,-10.730600
  0.435000,-10.584600
  0.437000,-10.437400
  0.439000,-10.289700
  0.441000,-10.140800
  0.443000, -9.991000
  0.445000, -9.840500
  0.447000, -9.689000
  0.449000, -9.536100
  0.451000, -9.381600
  0.453000, -9.226800
  0.455000, -9.072200
  0.457000, -8.916500
  0.459000, -8.760200
  0.461000, -8.603300
  0.463000, -8.445500
  0.465000, -8.287400
  0.467000, -8.129200
  0.469000, -7.970900
  0.471000, -7.812800
  0.473000, -7.654900
  0.475000, -7.497000
  0.477000, -7.339400
  0.479000, -7.182300
  0.481000, -7.025500
  0.483000, -6.869200
  0.485000, -6.713400
  0.487000, -6.558400
  0.489000, -6.404700
  0.491000, -6.251900
  0.493000, -6.099800
  0.495000, -5.948900
  0.497000, -5.799100
  0.499000, -5.650700
  0.501000, -5.503700
  0.503000, -5.358300
  0.505000, -5.214400
  0.507000, -5.071900
  0.509000, -4.930800
  0.511000, -4.791700
  0.513000, -4.654800
  0.515000, -4.519800
  0.517000, -4.386700
  0.519000, -4.255600
  0.521000, -4.126500
  0.523000, -3.999500
  0.525000, -3.874700
  0.527000, -3.751900
  0.529000, -3.631400
  0.531000, -3.513300
  0.533000, -3.397500
  0.535000, -3.284500
  0.537000, -3.174200
  0.539000, -3.065900
  0.541000, -2.960000
  0.543000, -2.856500
  0.545000, -2.755600
  0.547000, -2.657200
  0.549000, -2.561400
  0.551000, -2.468200
  0.553000, -2.377800
  0.555000, -2.290100
  0.557000, -2.205000
  0.559000, -2.122800
  0.561000, -2.043100
  0.563000, -1.965900
  0.565000, -1.891500
  0.567000, -1.819600
  0.569000, -1.750200
  0.571000, -1.683800
  0.573000, -1.620400
  0.575000, -1.559800
  0.577000, -1.501600
  0.579000, -1.446000
  0.581000, -1.393200
  0.583000, -1.343100
  0.585000, -1.295300
  0.587000, -1.249900
  0.589000, -1.207200
  0.591000, -1.167000
  0.593000, -1.129200
  0.595000, -1.094200
  0.597000, -1.061500
  0.599000, -1.030900
  0.601000, -1.002900
  0.603000, -0.977200
  0.605000, -0.953600
  0.607000, -0.932300
  0.609000, -0.912900
  0.611000, -0.895500
  0.613000, -0.880400
  0.615000, -0.867100
  0.617000, -0.855600
  0.619000, -0.846200
  0.621000, -0.838500
  0.623000, -0.832500
  0.625000, -0.828200
  0.627000, -0.825500
  0.629000, -0.824400
  0.631000, -0.824600
  0.633000, -0.826200
  0.635000, -0.829100
  0.637000, -0.833100
  0.639000, -0.838400
  0.641000, -0.845200
  0.643000, -0.853100
  0.645000, -0.861600
  0.647000, -0.871000
  0.649000, -0.881500
  0.651000, -0.892700
  0.653000, -0.904400
  0.655000, -0.916900
  0.657000, -0.930400
  0.659000, -0.944400
  0.661000, -0.958600
  0.663000, -0.973300
  0.665000, -0.988300
  0.667000, -1.003300
  0.669000, -1.018700
  0.671000, -1.034400
  0.673000, -1.050200
  0.675000, -1.065700
  0.677000, -1.081100
  0.679000, -1.096500
  0.681000, -1.111800
  0.683000, -1.127200
  0.685000, -1.142500
  0.687000, -1.157700
  0.689000, -1.172600
  0.691000, -1.187100
  0.693000, -1.201000
  0.695000, -1.214600
  0.697000, -1.227800
  0.699000, -1.240500
  0.701000, -1.252700
  0.703000, -1.264400
  0.705000, -1.275500
  0.707000, -1.285800
  0.709000, -1.295900
  0.711000, -1.305500
  0.713000, -1.314400
  0.715000, -1.322500
  0.717000, -1.330000
  0.719000, -1.336700
  0.721000, -1.342800
  0.723000, -1.348200
  0.725000, -1.352900
  0.727000, -1.356900
  0.729000, -1.360100
  0.731000, -1.362400
  0.733000, -1.363900
  0.735000, -1.364800
  0.737000, -1.365000
  0.739000, -1.364300
  0.741000, -1.362800
  0.743000, -1.360600
  0.745000, -1.357800
  0.747000, -1.354200
  0.749000, -1.349800
  0.751000, -1.344700
  0.753000, -1.338800
  0.755000, -1.332300
  0.757000, -1.325100
  0.759000, -1.317100
  0.761000, -1.308300
  0.763000, -1.298900
  0.765000, -1.289000
  0.767000, -1.278400
  0.769000, -1.267000
  0.771000, -1.255100
  0.773000, -1.242600
  0.775000, -1.229700
  0.777000, -1.216200
  0.779000, -1.202200
  0.781000, -1.187700
  0.783000, -1.172700
  0.785000, -1.157300
  0.787000, -1.141400
  0.789000, -1.125200
  0.791000, -1.108600
  0.793000, -1.091600
  0.795000, -1.074300
  0.797000, -1.056600
  0.799000, -1.038600
  0.801000, -1.020300
  0.803000, -1.001800
  0.805000, -0.983200
  0.807000, -0.964300
  0.809000, -0.945100
  0.811000, -0.925900
  0.813000, -0.906700
  0.815000, -0.887300
  0.817000, -0.867900
  0.819000, -0.848500
  0.821000, -0.829000
  0.823000, -0.809400
  0.825000, -0.789800
  0.827000, -0.770300
  0.829000, -0.750800
  0.831000, -0.731300
  0.833000, -0.711800
  0.835000, -0.692500
  0.837000, -0.673200
  0.839000, -0.654100
  0.841000, -0.635200
  0.843000, -0.616400
  0.845000, -0.597900
  0.847000, -0.579700
  0.849000, -0.561600
  0.851000, -0.543600
  0.853000, -0.526000
  0.855000, -0.508400
  0.857000, -0.491300
  0.859000, -0.474500
  0.861000, -0.457700
  0.863000, -0.441200
  0.865000, -0.425000
  0.867000, -0.409200
  0.869000, -0.393900
  0.871000, -0.378700
  0.873000, -0.363900
  0.875000, -0.349400
  0.877000, -0.335500
  0.879000, -0.322000
  0.881000, -0.308800
  0.883000, -0.296100
  0.885000, -0.283900
  0.887000, -0.272000
  0.889000, -0.260500
  0.891000, -0.249400
  0.893000, -0.238700
  0.895000, -0.228400
  0.897000, -0.218600
  0.899000, -0.209300
  0.901000, -0.200400
  0.903000, -0.192000
  0.905000, -0.184100
  0.907000, -0.176600
  0.909000, -0.169500
  0.911000, -0.162800
  0.913000, -0.156700
  0.915000, -0.151000
  0.917000, -0.145700
  0.919000, -0.140900
  0.921000, -0.136500
  0.923000, -0.132500
  0.925000, -0.129100
  0.927000, -0.126100
  0.929000, -0.123500
  0.931000, -0.121300
  0.933000, -0.119400
  0.935000, -0.117800
  0.937000, -0.116600
  0.939000, -0.115800
  0.941000, -0.115400
  0.943000, -0.115100
  0.945000, -0.115200
  0.947000, -0.115600
  0.949000, -0.116400
  0.951000, -0.117500
  0.953000, -0.118800
  0.955000, -0.120300
  0.957000, -0.121900
  0.959000, -0.123700
  0.961000, -0.125700
  0.963000, -0.127800
  0.965000, -0.130200
  0.967000, -0.132700
  0.969000, -0.135200
  0.971000, -0.137900
  0.973000, -0.140800
  0.975000, -0.143800
  0.977000, -0.146800
  0.979000, -0.149800
  0.981000, -0.152700
  0.983000, -0.155700
  0.985000, -0.158800
  0.987000, -0.161800
  0.989000, -0.164900
  0.991000, -0.167900
  0.993000, -0.170800
  0.995000, -0.173800
  0.997000, -0.176700
  0.999000, -0.179600
  1.001000, -0.182400
  1.003000, -0.185000
  1.005000, -0.187500
  1.007000, -0.190000
  1.009000, -0.192400
  1.011000, -0.194600
  1.013000, -0.196900
  1.015000, -0.199000
  1.017000, -0.200900
  1.019000, -0.202800
  1.021000, -0.204500
  1.023000, -0.206100
  1.025000, -0.207400
  1.027000, -0.208700
  1.029000, -0.209900
  1.031000, -0.210900
  1.033000, -0.211700
  1.035000, -0.212400
  1.037000, -0.212800
  1.039000, -0.213100
  1.041000, -0.213300
  1.043000, -0.213300
  1.045000, -0.213200
  1.047000, -0.212900
  1.049000, -0.212400
  1.051000, -0.211700
  1.053000, -0.211100
  1.055000, -0.210300
  1.057000, -0.209100
  1.059000, -0.207900
  1.061000, -0.206600
  1.063000, -0.204900
  1.065000, -0.203200
  1.067000, -0.201500
  1.069000, -0.199500
  1.071000, -0.197300
  1.073000, -0.195000
  1.075000, -0.192600
  1.077000, -0.190100
  1.079000, -0.187400
  1.081000, -0.184700
  1.083000, -0.181900
  1.085000, -0.178900
  1.087000, -0.175900
  1.089000, -0.172700
  1.091000, -0.169400
  1.093000, -0.166100
  1.095000, -0.162700
  1.097000, -0.159300
  1.099000, -0.155700
  1.101000, -0.152100
  1.103000, -0.148500
  1.105000, -0.144900
  1.107000, -0.141300
  1.109000, -0.137700
  1.111000, -0.134000
  1.113000, -0.130200
  1.115000, -0.126400
  1.117000, -0.122700
  1.119000, -0.119000
  1.121000, -0.115400
  1.123000, -0.111800
  1.125000, -0.108300
  1.127000, -0.104800
  1.129000, -0.101300
  1.131000, -0.097900
  1.133000, -0.094600
  1.135000, -0.091500
  1.137000, -0.088300
  1.139000, -0.085200
  1.141000, -0.082300
  1.143000, -0.079400
  1.145000, -0.076600
  1.147000, -0.074000
  1.149000, -0.071500
  1.151000, -0.069100
  1.153000, -0.066800
  1.155000, -0.064600
  1.157000, -0.062600
  1.159000, -0.060800
  1.161000, -0.059000
  1.163000, -0.057400
  1.165000, -0.056000
  1.167000, -0.054700
  1.169000, -0.053400
  1.171000, -0.052200
  1.173000, -0.051100
  1.175000, -0.050200
  1.177000, -0.049400
  1.179000, -0.048700
  1.181000, -0.048000
  1.183000, -0.047600
  1.185000, -0.047100
  1.187000, -0.046700
  1.189000, -0.046500
  1.191000, -0.046400
  1.193000, -0.046300
  1.195000, -0.046300
  1.197000, -0.046300
  1.199000, -0.046300
  1.201000, -0.046300
  1.203000, -0.046300
  1.205000, -0.046400
  1.207000, -0.046600
  1.209000, -0.046800
  1.211000, -0.046900
  1.213000, -0.046900
  1.215000, -0.047000
  1.217000, -0.047000
  1.219000, -0.047000
  1.221000, -0.047100
  1.223000, -0.047200
  1.225000, -0.047200
  1.227000, -0.047300
  1.229000, -0.047300
  1.231000, -0.047100
  1.233000, -0.046800
  1.235000, -0.046600
  1.237000, -0.046300
  1.239000, -0.045900
  1.241000, -0.045400
  1.243000, -0.044900
  1.245000, -0.044400
  1.247000, -0.043800
  1.249000, -0.043100
  1.251000, -0.042300
  1.253000, -0.041600
  1.255000, -0.040800
  1.257000, -0.039900
  1.259000, -0.038900
  1.261000, -0.037900
  1.263000, -0.036900
  1.265000, -0.035800
  1.267000, -0.034700
  1.269000, -0.033500
  1.271000, -0.032100
  1.273000, -0.030700
  1.275000, -0.029300
  1.277000, -0.028000
  1.279000, -0.026600
  1.281000, -0.025200
  1.283000, -0.023700
  1.285000, -0.022200
  1.287000, -0.020600
  1.289000, -0.019100
  1.291000, -0.017600
  1.293000, -0.016100
  1.295000, -0.014500
  1.297000, -0.012800
  1.299000, -0.011100
  1.301000, -0.009400
  1.303000, -0.007800
  1.305000, -0.006200
  1.307000, -0.004400
  1.309000, -0.002700
  1.311000, -0.001000
  1.313000,  0.000800
  1.315000,  0.002700
  1.317000,  0.004500
  1.319000,  0.006300
  1.321000,  0.008300
  1.323000,  0.010100
  1.325000,  0.011800
  1.327000,  0.013700
  1.329000,  0.015700
  1.331000,  0.017800
  1.333000,  0.019800
  1.335000,  0.022000
  1.337000,  0.024200
  1.339000,  0.026300
  1.341000,  0.028400
  1.343000,  0.030600
  1.345000,  0.032800
  1.347000,  0.035100
  1.349000,  0.037300
  1.351000,  0.039400
  1.353000,  0.041600
  1.355000,  0.043800
  1.357000,  0.046000
  1.359000,  0.048300
  1.361000,  0.050600
  1.363000,  0.052800
  1.365000,  0.055200
  1.367000,  0.057600
  1.369000,  0.059800
  1.371000,  0.061800
  1.373000,  0.063900
  1.375000,  0.066200
  1.377000,  0.068300
  1.379000,  0.070300
  1.381000,  0.072300
  1.383000,  0.074300
  1.385000,  0.076000
  1.387000,  0.077700
  1.389000,  0.079200
  1.391000,  0.080500
  1.393000,  0.081700
  1.395000,  0.082900
  1.397000,  0.083500
  1.399000,  0.083600
