# z (nm)   (kJ/mol)
  0.253000, -2.035700
  0.255000, -2.828700
  0.257000, -3.581800
  0.259000, -4.275600
  0.261000, -4.975800
  0.263000, -5.692900
  0.265000, -6.412600
  0.267000, -7.124000
  0.269000, -7.827900
  0.271000, -8.529100
  0.273000, -9.220700
  0.275000, -9.900800
  0.277000,-10.564100
  0.279000,-11.214800
  0.281000,-11.854000
  0.283000,-12.473500
  0.285000,-13.073100
  0.287000,-13.657500
  0.289000,-14.228200
  0.291000,-14.781000
  0.293000,-15.314800
  0.295000,-15.829300
  0.297000,-16.323000
  0.299000,-16.796600
  0.301000,-17.250300
  0.303000,-17.684500
  0.305000,-18.097600
  0.307000,-18.489300
  0.309000,-18.860300
  0.311000,-19.209900
  0.313000,-19.539500
  0.315000,-19.847800
  0.317000,-20.133800
  0.319000,-20.398200
  0.321000,-20.640900
  0.323000,-20.861700
  0.325000,-21.061000
  0.327000,-21.239100
  0.329000,-21.396100
  0.331000,-21.531500
  0.333000,-21.646800
  0.335000,-21.741500
  0.337000,-21.816100
  0.339000,-21.870500
  0.341000,-21.906200
  0.343000,-21.926100
  0.345000,-21.927900
  0.347000,-21.911200
  0.349000,-21.878500
  0.351000,-21.832700
  0.353000,-21.773000
  0.355000,-21.696900
  0.357000,-21.606300
  0.359000,-21.502800
  0.361000,-21.392200
  0.363000,-21.273200
  0.365000,-21.141300
  0.367000,-21.002100
  0.369000,-20.856100
  0.371000,-20.701600
  0.373000,-20.540100
  0.375000,-20.373100
  0.377000,-20.200200
  0.379000,-20.022200
  0.381000,-19.841700
  0.383000,-19.658400
  0.385000,-19.471200
  0.387000,-19.280400
  0.389000,-19.087800
  0.391000,-18.894600
  0.393000,-18.699500
  0.395000,-18.502500
  0.397000,-18.305500
  0.399000,-18.108400
  0.401000,-17.911600
  0.403000,-17.715200
  0.405000,-17.519400
  0.407000,-17.324400
  0.409000,-17.130300
  0.411000,-16.937200
  0.413000,-16.745700
  0.415000,-16.555800
  0.417000,-16.367600
  0.419000,-16.180800
  0.421000,-15.996100
  0.423000,-15.813200
  0.425000,-15.631700
  0.427000,-15.452300
  0.429000,-15.275100
  0.431000,-15.099800
  0.433000,-14.926600
  0.435000,-14.755300
  0.437000,-14.585600
  0.439000,-14.417700
  0.441000,-14.252100
  0.443000,-14.088500
  0.445000,-13.926700
  0.447000,-13.766700
  0.449000,-13.608400
  0.451000,-13.451800
  0.453000,-13.297300
  0.455000,-13.144600
  0.457000,-12.993400
  0.459000,-12.843800
  0.461000,-12.695600
  0.463000,-12.548700
  0.465000,-12.403400
  0.467000,-12.260000
  0.469000,-12.117800
  0.471000,-11.976700
  0.473000,-11.837000
  0.475000,-11.698400
  0.477000,-11.561600
  0.479000,-11.426200
  0.481000,-11.291700
  0.483000,-11.158300
  0.485000,-11.026200
  0.487000,-10.895100
  0.489000,-10.764800
  0.491000,-10.635500
  0.493000,-10.507000
  0.495000,-10.379200
  0.497000,-10.251700
  0.499000,-10.125100
  0.501000, -9.999300
  0.503000, -9.874100
  0.505000, -9.749500
  0.507000, -9.625400
  0.509000, -9.501800
  0.511000, -9.378500
  0.513000, -9.255400
  0.515000, -9.132400
  0.517000, -9.009700
  0.519000, -8.887300
  0.521000, -8.765000
  0.523000, -8.642600
  0.525000, -8.520400
  0.527000, -8.398100
  0.529000, -8.275600
  0.531000, -8.152800
  0.533000, -8.030000
  0.535000, -7.907100
  0.537000, -7.784000
  0.539000, -7.660700
  0.541000, -7.537100
  0.543000, -7.412900
  0.545000, -7.288300
  0.547000, -7.163300
  0.549000, -7.037900
  0.551000, -6.912500
  0.553000, -6.786900
  0.555000, -6.660800
  0.557000, -6.534200
  0.559000, -6.407300
  0.561000, -6.280300
  0.563000, -6.153000
  0.565000, -6.025300
  0.567000, -5.897600
  0.569000, -5.770000
  0.571000, -5.642000
  0.573000, -5.514400
  0.575000, -5.387300
  0.577000, -5.260100
  0.579000, -5.133100
  0.581000, -5.006300
  0.583000, -4.879600
  0.585000, -4.753800
  0.587000, -4.628700
  0.589000, -4.503400
  0.591000, -4.379000
  0.593000, -4.255700
  0.595000, -4.133200
  0.597000, -4.011500
  0.599000, -3.891400
  0.601000, -3.773300
  0.603000, -3.656100
  0.605000, -3.540300
  0.607000, -3.426400
  0.609000, -3.314500
  0.611000, -3.204200
  0.613000, -3.095600
  0.615000, -2.989600
  0.617000, -2.886000
  0.619000, -2.784600
  0.621000, -2.685500
  0.623000, -2.588800
  0.625000, -2.494200
  0.627000, -2.402400
  0.629000, -2.313500
  0.631000, -2.227000
  0.633000, -2.143400
  0.635000, -2.063000
  0.637000, -1.985400
  0.639000, -1.910900
  0.641000, -1.839400
  0.643000, -1.770400
  0.645000, -1.704600
  0.647000, -1.642200
  0.649000, -1.583000
  0.651000, -1.527200
  0.653000, -1.474600
  0.655000, -1.424500
  0.657000, -1.377100
  0.659000, -1.332500
  0.661000, -1.291100
  0.663000, -1.252400
  0.665000, -1.216000
  0.667000, -1.182500
  0.669000, -1.151700
  0.671000, -1.123200
  0.673000, -1.097100
  0.675000, -1.073300
  0.677000, -1.051600
  0.679000, -1.032000
  0.681000, -1.014800
  0.683000, -0.999400
  0.685000, -0.985600
  0.687000, -0.973700
  0.689000, -0.963200
  0.691000, -0.954300
  0.693000, -0.946800
  0.695000, -0.940600
  0.697000, -0.935500
  0.699000, -0.931400
  0.701000, -0.928600
  0.703000, -0.926700
  0.705000, -0.925600
  0.707000, -0.925200
  0.709000, -0.925400
  0.711000, -0.926200
  0.713000, -0.927600
  0.715000, -0.929400
  0.717000, -0.931500
  0.719000, -0.934000
  0.721000, -0.936700
  0.723000, -0.939700
  0.725000, -0.942700
  0.727000, -0.946000
  0.729000, -0.949300
  0.731000, -0.952600
  0.733000, -0.956000
  0.735000, -0.959100
  0.737000, -0.962000
  0.739000, -0.964700
  0.741000, -0.967200
  0.743000, -0.969600
  0.745000, -0.971800
  0.747000, -0.973800
  0.749000, -0.975500
  0.751000, -0.976900
  0.753000, -0.977800
  0.755000, -0.978600
  0.757000, -0.979200
  0.759000, -0.979400
  0.761000, -0.979200
  0.763000, -0.978600
  0.765000, -0.977600
  0.767000, -0.976500
  0.769000, -0.974900
  0.771000, -0.972900
  0.773000, -0.970600
  0.775000, -0.968000
  0.777000, -0.965000
  0.779000, -0.961700
  0.781000, -0.958100
  0.783000, -0.954100
  0.785000, -0.949800
  0.787000, -0.945200
  0.789000, -0.940400
  0.791000, -0.935300
  0.793000, -0.929800
  0.795000, -0.924100
  0.797000, -0.918000
  0.799000, -0.911800
  0.801000, -0.905200
  0.803000, -0.898400
  0.805000, -0.891200
  0.807000, -0.883900
  0.809000, -0.876100
  0.811000, -0.868000
  0.813000, -0.859700
  0.815000, -0.851200
  0.817000, -0.842500
  0.819000, -0.833500
  0.821000, -0.824300
  0.823000, -0.815000
  0.825000, -0.805500
  0.827000, -0.795500
  0.829000, -0.785300
  0.831000, -0.774800
  0.833000, -0.764200
  0.835000, -0.753400
  0.837000, -0.742500
  0.839000, -0.731300
  0.841000, -0.719700
  0.843000, -0.707900
  0.845000, -0.696000
  0.847000, -0.683900
  0.849000, -0.671700
  0.851000, -0.659400
  0.853000, -0.647000
  0.855000, -0.634200
  0.857000, -0.621400
  0.859000, -0.608300
  0.861000, -0.595000
  0.863000, -0.581600
  0.865000, -0.568100
  0.867000, -0.554400
  0.869000, -0.540600
  0.871000, -0.526800
  0.873000, -0.513100
  0.875000, -0.499200
  0.877000, -0.485300
  0.879000, -0.471400
  0.881000, -0.457600
  0.883000, -0.443800
  0.885000, -0.430200
  0.887000, -0.416600
  0.889000, -0.402900
  0.891000, -0.389300
  0.893000, -0.375600
  0.895000, -0.362100
  0.897000, -0.348700
  0.899000, -0.335600
  0.901000, -0.322500
  0.903000, -0.309700
  0.905000, -0.297000
  0.907000, -0.284400
  0.909000, -0.272000
  0.911000, -0.259900
  0.913000, -0.248100
  0.915000, -0.236500
  0.917000, -0.225200
  0.919000, -0.214000
  0.921000, -0.203200
  0.923000, -0.192700
  0.925000, -0.182500
  0.927000, -0.172600
  0.929000, -0.162900
  0.931000, -0.153700
  0.933000, -0.144900
  0.935000, -0.136400
  0.937000, -0.128200
  0.939000, -0.120200
  0.941000, -0.112600
  0.943000, -0.105400
  0.945000, -0.098600
  0.947000, -0.092100
  0.949000, -0.085800
  0.951000, -0.080000
  0.953000, -0.074500
  0.955000, -0.069400
  0.957000, -0.064600
  0.959000, -0.060100
  0.961000, -0.056000
  0.963000, -0.052300
  0.965000, -0.048800
  0.967000, -0.045700
  0.969000, -0.042800
  0.971000, -0.040100
  0.973000, -0.037700
  0.975000, -0.035700
  0.977000, -0.033900
  0.979000, -0.032300
  0.981000, -0.031000
  0.983000, -0.029900
  0.985000, -0.029100
  0.987000, -0.028500
  0.989000, -0.028100
  0.991000, -0.027800
  0.993000, -0.027700
  0.995000, -0.027600
  0.997000, -0.027600
  0.999000, -0.028000
  1.001000, -0.028600
  1.003000, -0.029100
  1.005000, -0.029800
  1.007000, -0.030700
  1.009000, -0.031700
  1.011000, -0.032800
  1.013000, -0.034000
  1.015000, -0.035100
  1.017000, -0.036200
  1.019000, -0.037400
  1.021000, -0.038700
  1.023000, -0.040000
  1.025000, -0.041400
  1.027000, -0.042600
  1.029000, -0.043900
  1.031000, -0.045300
  1.033000, -0.046800
  1.035000, -0.048400
  1.037000, -0.049800
  1.039000, -0.051200
  1.041000, -0.052700
  1.043000, -0.054200
  1.045000, -0.055600
  1.047000, -0.057000
  1.049000, -0.058400
  1.051000, -0.059900
  1.053000, -0.061200
  1.055000, -0.062600
  1.057000, -0.064200
  1.059000, -0.065700
  1.061000, -0.067200
  1.063000, -0.068800
  1.065000, -0.070400
  1.067000, -0.071800
  1.069000, -0.073300
  1.071000, -0.074900
  1.073000, -0.076400
  1.075000, -0.077900
  1.077000, -0.079500
  1.079000, -0.081000
  1.081000, -0.082400
  1.083000, -0.084000
  1.085000, -0.085500
  1.087000, -0.086900
  1.089000, -0.088500
  1.091000, -0.090100
  1.093000, -0.091700
  1.095000, -0.093200
  1.097000, -0.094700
  1.099000, -0.096300
  1.101000, -0.097800
  1.103000, -0.099300
  1.105000, -0.100700
  1.107000, -0.102100
  1.109000, -0.103600
  1.111000, -0.105000
  1.113000, -0.106300
  1.115000, -0.107500
  1.117000, -0.108600
  1.119000, -0.109900
  1.121000, -0.111000
  1.123000, -0.112000
  1.125000, -0.113000
  1.127000, -0.113900
  1.129000, -0.114800
  1.131000, -0.115500
  1.133000, -0.116100
  1.135000, -0.116600
  1.137000, -0.116900
  1.139000, -0.117200
  1.141000, -0.117600
  1.143000, -0.117900
  1.145000, -0.117900
  1.147000, -0.117800
  1.149000, -0.117400
  1.151000, -0.116900
  1.153000, -0.116200
  1.155000, -0.115500
  1.157000, -0.114700
  1.159000, -0.113600
  1.161000, -0.112300
  1.163000, -0.110800
  1.165000, -0.109200
  1.167000, -0.107500
  1.169000, -0.105600
  1.171000, -0.103500
  1.173000, -0.101300
  1.175000, -0.098900
  1.177000, -0.096500
  1.179000, -0.093900
  1.181000, -0.091200
  1.183000, -0.088300
  1.185000, -0.085300
  1.187000, -0.082300
  1.189000, -0.079200
  1.191000, -0.075900
  1.193000, -0.072500
  1.195000, -0.069300
  1.197000, -0.065900
  1.199000, -0.062400
  1.201000, -0.058800
  1.203000, -0.055300
  1.205000, -0.051600
  1.207000, -0.047800
  1.209000, -0.044000
  1.211000, -0.040200
  1.213000, -0.036200
  1.215000, -0.032600
  1.217000, -0.028800
  1.219000, -0.025100
  1.221000, -0.021300
  1.223000, -0.017400
  1.225000, -0.013800
  1.227000, -0.010600
  1.229000, -0.007300
  1.231000, -0.004000
  1.233000, -0.000600
  1.235000,  0.002500
  1.237000,  0.005400
  1.239000,  0.008400
  1.241000,  0.011500
  1.243000,  0.014100
  1.245000,  0.016600
  1.247000,  0.018900
  1.249000,  0.021000
  1.251000,  0.023000
  1.253000,  0.025000
  1.255000,  0.026700
  1.257000,  0.028100
  1.259000,  0.029700
  1.261000,  0.031100
  1.263000,  0.032100
  1.265000,  0.032900
  1.267000,  0.033500
  1.269000,  0.034000
  1.271000,  0.034400
  1.273000,  0.034700
  1.275000,  0.035000
  1.277000,  0.035100
  1.279000,  0.034900
  1.281000,  0.034400
  1.283000,  0.033600
  1.285000,  0.032800
  1.287000,  0.031900
  1.289000,  0.030700
  1.291000,  0.029400
  1.293000,  0.028100
  1.295000,  0.026800
  1.297000,  0.025200
  1.299000,  0.023600
  1.301000,  0.022000
  1.303000,  0.020100
  1.305000,  0.018200
  1.307000,  0.016500
  1.309000,  0.014700
  1.311000,  0.012800
  1.313000,  0.010900
  1.315000,  0.008900
  1.317000,  0.006800
  1.319000,  0.004800
  1.321000,  0.002700
  1.323000,  0.000600
  1.325000, -0.001300
  1.327000, -0.003100
  1.329000, -0.004900
  1.331000, -0.006700
  1.333000, -0.008300
  1.335000, -0.009800
  1.337000, -0.011400
  1.339000, -0.012800
  1.341000, -0.014100
  1.343000, -0.015200
  1.345000, -0.016200
  1.347000, -0.017000
  1.349000, -0.017800
  1.351000, -0.018500
  1.353000, -0.018900
  1.355000, -0.019300
  1.357000, -0.019500
  1.359000, -0.019600
  1.361000, -0.019600
  1.363000, -0.019500
  1.365000, -0.019200
  1.367000, -0.018600
  1.369000, -0.018000
  1.371000, -0.017400
  1.373000, -0.016700
  1.375000, -0.015700
  1.377000, -0.014500
  1.379000, -0.013300
  1.381000, -0.012100
  1.383000, -0.010900
  1.385000, -0.009800
  1.387000, -0.008700
  1.389000, -0.007300
  1.391000, -0.006200
  1.393000, -0.005300
  1.395000, -0.004700
  1.397000, -0.004300
  1.399000, -0.004000
