# z (nm)   (kJ/mol)
  0.247000, -1.552800
  0.251000, -2.215100
  0.253000, -2.885600
  0.257000, -3.618400
  0.259000, -4.318100
  0.261000, -5.007700
  0.263000, -5.731500
  0.265000, -6.459400
  0.267000, -7.180600
  0.269000, -7.889400
  0.271000, -8.582000
  0.273000, -9.266200
  0.275000, -9.939000
  0.277000,-10.594700
  0.279000,-11.239000
  0.281000,-11.872400
  0.283000,-12.488600
  0.285000,-13.089700
  0.287000,-13.675400
  0.289000,-14.241000
  0.291000,-14.785900
  0.293000,-15.310600
  0.295000,-15.814800
  0.297000,-16.298800
  0.299000,-16.762800
  0.301000,-17.206400
  0.303000,-17.629500
  0.305000,-18.031000
  0.307000,-18.408600
  0.309000,-18.764500
  0.311000,-19.098300
  0.313000,-19.410300
  0.315000,-19.700600
  0.317000,-19.967700
  0.319000,-20.212200
  0.321000,-20.434900
  0.323000,-20.636700
  0.325000,-20.817000
  0.327000,-20.975400
  0.329000,-21.113000
  0.331000,-21.230100
  0.333000,-21.326900
  0.335000,-21.403400
  0.337000,-21.460600
  0.339000,-21.499900
  0.341000,-21.520900
  0.343000,-21.523200
  0.345000,-21.507600
  0.347000,-21.475200
  0.349000,-21.427900
  0.351000,-21.365100
  0.353000,-21.288600
  0.355000,-21.201700
  0.357000,-21.102300
  0.359000,-20.989700
  0.361000,-20.867200
  0.363000,-20.735700
  0.365000,-20.594900
  0.367000,-20.444900
  0.369000,-20.288800
  0.371000,-20.126100
  0.373000,-19.955600
  0.375000,-19.779500
  0.377000,-19.597600
  0.379000,-19.410700
  0.381000,-19.220900
  0.383000,-19.027800
  0.385000,-18.831200
  0.387000,-18.632000
  0.389000,-18.430600
  0.391000,-18.228400
  0.393000,-18.025300
  0.395000,-17.820900
  0.397000,-17.615900
  0.399000,-17.411100
  0.401000,-17.206700
  0.403000,-17.002000
  0.405000,-16.797200
  0.407000,-16.593400
  0.409000,-16.390900
  0.411000,-16.189600
  0.413000,-15.989400
  0.415000,-15.791000
  0.417000,-15.594600
  0.419000,-15.400000
  0.421000,-15.207200
  0.423000,-15.016700
  0.425000,-14.828200
  0.427000,-14.641700
  0.429000,-14.457500
  0.431000,-14.275700
  0.433000,-14.096100
  0.435000,-13.919200
  0.437000,-13.744800
  0.439000,-13.572900
  0.441000,-13.403400
  0.443000,-13.236300
  0.445000,-13.071800
  0.447000,-12.909800
  0.449000,-12.750200
  0.451000,-12.593100
  0.453000,-12.438200
  0.455000,-12.285800
  0.457000,-12.135800
  0.459000,-11.988100
  0.461000,-11.842700
  0.463000,-11.699800
  0.465000,-11.559000
  0.467000,-11.420500
  0.469000,-11.284200
  0.471000,-11.149900
  0.473000,-11.017800
  0.475000,-10.887800
  0.477000,-10.759600
  0.479000,-10.633400
  0.481000,-10.509300
  0.483000,-10.386600
  0.485000,-10.265600
  0.487000,-10.146400
  0.489000,-10.028800
  0.491000, -9.912300
  0.493000, -9.797200
  0.495000, -9.683100
  0.497000, -9.569600
  0.499000, -9.456900
  0.501000, -9.345000
  0.503000, -9.233900
  0.505000, -9.123400
  0.507000, -9.013200
  0.509000, -8.903300
  0.511000, -8.793800
  0.513000, -8.684100
  0.515000, -8.574400
  0.517000, -8.464700
  0.519000, -8.354700
  0.521000, -8.244300
  0.523000, -8.133400
  0.525000, -8.022200
  0.527000, -7.910400
  0.529000, -7.797800
  0.531000, -7.684400
  0.533000, -7.570200
  0.535000, -7.455200
  0.537000, -7.339400
  0.539000, -7.223100
  0.541000, -7.105900
  0.543000, -6.988100
  0.545000, -6.869200
  0.547000, -6.748800
  0.549000, -6.627600
  0.551000, -6.505100
  0.553000, -6.381300
  0.555000, -6.257200
  0.557000, -6.132400
  0.559000, -6.006800
  0.561000, -5.880200
  0.563000, -5.752700
  0.565000, -5.624500
  0.567000, -5.496200
  0.569000, -5.367000
  0.571000, -5.237300
  0.573000, -5.107600
  0.575000, -4.977700
  0.577000, -4.847600
  0.579000, -4.717700
  0.581000, -4.587900
  0.583000, -4.458300
  0.585000, -4.329600
  0.587000, -4.201700
  0.589000, -4.074100
  0.591000, -3.946700
  0.593000, -3.821400
  0.595000, -3.697100
  0.597000, -3.573300
  0.599000, -3.451300
  0.601000, -3.330800
  0.603000, -3.212600
  0.605000, -3.097300
  0.607000, -2.984100
  0.609000, -2.872400
  0.611000, -2.762700
  0.613000, -2.655300
  0.615000, -2.550500
  0.617000, -2.447900
  0.619000, -2.348500
  0.621000, -2.252300
  0.623000, -2.158600
  0.625000, -2.068100
  0.627000, -1.980500
  0.629000, -1.896200
  0.631000, -1.815400
  0.633000, -1.737700
  0.635000, -1.663600
  0.637000, -1.592900
  0.639000, -1.525000
  0.641000, -1.460300
  0.643000, -1.399000
  0.645000, -1.341300
  0.647000, -1.287100
  0.649000, -1.236300
  0.651000, -1.188900
  0.653000, -1.144500
  0.655000, -1.102900
  0.657000, -1.064400
  0.659000, -1.028700
  0.661000, -0.996200
  0.663000, -0.967100
  0.665000, -0.940600
  0.667000, -0.916700
  0.669000, -0.895500
  0.671000, -0.877000
  0.673000, -0.860800
  0.675000, -0.847100
  0.677000, -0.835600
  0.679000, -0.826300
  0.681000, -0.819000
  0.683000, -0.813600
  0.685000, -0.810300
  0.687000, -0.808900
  0.689000, -0.808900
  0.691000, -0.810300
  0.693000, -0.813200
  0.695000, -0.817300
  0.697000, -0.822800
  0.699000, -0.829100
  0.701000, -0.836200
  0.703000, -0.844400
  0.705000, -0.853600
  0.707000, -0.863500
  0.709000, -0.873800
  0.711000, -0.884700
  0.713000, -0.896400
  0.715000, -0.908400
  0.717000, -0.920700
  0.719000, -0.933300
  0.721000, -0.945900
  0.723000, -0.958200
  0.725000, -0.970600
  0.727000, -0.983000
  0.729000, -0.995000
  0.731000, -1.006700
  0.733000, -1.018600
  0.735000, -1.030300
  0.737000, -1.041600
  0.739000, -1.052600
  0.741000, -1.063200
  0.743000, -1.073200
  0.745000, -1.082800
  0.747000, -1.091900
  0.749000, -1.100500
  0.751000, -1.108200
  0.753000, -1.115200
  0.755000, -1.121700
  0.757000, -1.127700
  0.759000, -1.133000
  0.761000, -1.137600
  0.763000, -1.141500
  0.765000, -1.144800
  0.767000, -1.147500
  0.769000, -1.149500
  0.771000, -1.150700
  0.773000, -1.151200
  0.775000, -1.151100
  0.777000, -1.150200
  0.779000, -1.148500
  0.781000, -1.146000
  0.783000, -1.142900
  0.785000, -1.139100
  0.787000, -1.134400
  0.789000, -1.129000
  0.791000, -1.123000
  0.793000, -1.116300
  0.795000, -1.109200
  0.797000, -1.101700
  0.799000, -1.093500
  0.801000, -1.084700
  0.803000, -1.075300
  0.805000, -1.065200
  0.807000, -1.054400
  0.809000, -1.042900
  0.811000, -1.031000
  0.813000, -1.018800
  0.815000, -1.006200
  0.817000, -0.993200
  0.819000, -0.979800
  0.821000, -0.966200
  0.823000, -0.952000
  0.825000, -0.937300
  0.827000, -0.922300
  0.829000, -0.907300
  0.831000, -0.892200
  0.833000, -0.876700
  0.835000, -0.860900
  0.837000, -0.844900
  0.839000, -0.828900
  0.841000, -0.812800
  0.843000, -0.796400
  0.845000, -0.779700
  0.847000, -0.763000
  0.849000, -0.746100
  0.851000, -0.729100
  0.853000, -0.712000
  0.855000, -0.695100
  0.857000, -0.678000
  0.859000, -0.660800
  0.861000, -0.643900
  0.863000, -0.627100
  0.865000, -0.610000
  0.867000, -0.593000
  0.869000, -0.576400
  0.871000, -0.559700
  0.873000, -0.543300
  0.875000, -0.527000
  0.877000, -0.510800
  0.879000, -0.494600
  0.881000, -0.478700
  0.883000, -0.462900
  0.885000, -0.447300
  0.887000, -0.432000
  0.889000, -0.416900
  0.891000, -0.402000
  0.893000, -0.387100
  0.895000, -0.372600
  0.897000, -0.358300
  0.899000, -0.344200
  0.901000, -0.330400
  0.903000, -0.316900
  0.905000, -0.303700
  0.907000, -0.290800
  0.909000, -0.278100
  0.911000, -0.265700
  0.913000, -0.253600
  0.915000, -0.241800
  0.917000, -0.230200
  0.919000, -0.219000
  0.921000, -0.208100
  0.923000, -0.197700
  0.925000, -0.187600
  0.927000, -0.177700
  0.929000, -0.168200
  0.931000, -0.159200
  0.933000, -0.150300
  0.935000, -0.141800
  0.937000, -0.133600
  0.939000, -0.125600
  0.941000, -0.118000
  0.943000, -0.110800
  0.945000, -0.104000
  0.947000, -0.097700
  0.949000, -0.091700
  0.951000, -0.085900
  0.953000, -0.080500
  0.955000, -0.075300
  0.957000, -0.070400
  0.959000, -0.065900
  0.961000, -0.061500
  0.963000, -0.057600
  0.965000, -0.054100
  0.967000, -0.050900
  0.969000, -0.047900
  0.971000, -0.045200
  0.973000, -0.042800
  0.975000, -0.040800
  0.977000, -0.038900
  0.979000, -0.037200
  0.981000, -0.035700
  0.983000, -0.034500
  0.985000, -0.033800
  0.987000, -0.033200
  0.989000, -0.032900
  0.991000, -0.032800
  0.993000, -0.033000
  0.995000, -0.033200
  0.997000, -0.033700
  0.999000, -0.034400
  1.001000, -0.035400
  1.003000, -0.036400
  1.005000, -0.037500
  1.007000, -0.038900
  1.009000, -0.040500
  1.011000, -0.042200
  1.013000, -0.044000
  1.015000, -0.046000
  1.017000, -0.048200
  1.019000, -0.050400
  1.021000, -0.052700
  1.023000, -0.055300
  1.025000, -0.057900
  1.027000, -0.060500
  1.029000, -0.063300
  1.031000, -0.066000
  1.033000, -0.068700
  1.035000, -0.071500
  1.037000, -0.074400
  1.039000, -0.077400
  1.041000, -0.080400
  1.043000, -0.083400
  1.045000, -0.086500
  1.047000, -0.089600
  1.049000, -0.092600
  1.051000, -0.095600
  1.053000, -0.098600
  1.055000, -0.101600
  1.057000, -0.104600
  1.059000, -0.107400
  1.061000, -0.110200
  1.063000, -0.112900
  1.065000, -0.115600
  1.067000, -0.118300
  1.069000, -0.120800
  1.071000, -0.123200
  1.073000, -0.125500
  1.075000, -0.127700
  1.077000, -0.129900
  1.079000, -0.131800
  1.081000, -0.133700
  1.083000, -0.135400
  1.085000, -0.137100
  1.087000, -0.138700
  1.089000, -0.140000
  1.091000, -0.141300
  1.093000, -0.142400
  1.095000, -0.143300
  1.097000, -0.144000
  1.099000, -0.144800
  1.101000, -0.145400
  1.103000, -0.145700
  1.105000, -0.145900
  1.107000, -0.145900
  1.109000, -0.145700
  1.111000, -0.145400
  1.113000, -0.145100
  1.115000, -0.144600
  1.117000, -0.143900
  1.119000, -0.143000
  1.121000, -0.142000
  1.123000, -0.140800
  1.125000, -0.139500
  1.127000, -0.138300
  1.129000, -0.136800
  1.131000, -0.135200
  1.133000, -0.133500
  1.135000, -0.131700
  1.137000, -0.129800
  1.139000, -0.127900
  1.141000, -0.126000
  1.143000, -0.124000
  1.145000, -0.121800
  1.147000, -0.119400
  1.149000, -0.116900
  1.151000, -0.114600
  1.153000, -0.112300
  1.155000, -0.109700
  1.157000, -0.107200
  1.159000, -0.104600
  1.161000, -0.101900
  1.163000, -0.099300
  1.165000, -0.096900
  1.167000, -0.094400
  1.169000, -0.091700
  1.171000, -0.088900
  1.173000, -0.086300
  1.175000, -0.083600
  1.177000, -0.081100
  1.179000, -0.078500
  1.181000, -0.076000
  1.183000, -0.073500
  1.185000, -0.071000
  1.187000, -0.068600
  1.189000, -0.066100
  1.191000, -0.063700
  1.193000, -0.061300
  1.195000, -0.058900
  1.197000, -0.056600
  1.199000, -0.054300
  1.201000, -0.052100
  1.203000, -0.050000
  1.205000, -0.047900
  1.207000, -0.045900
  1.209000, -0.043800
  1.211000, -0.041600
  1.213000, -0.039700
  1.215000, -0.037800
  1.217000, -0.035900
  1.219000, -0.034200
  1.221000, -0.032500
  1.223000, -0.030800
  1.225000, -0.029200
  1.227000, -0.027600
  1.229000, -0.025900
  1.231000, -0.024400
  1.233000, -0.022900
  1.235000, -0.021600
  1.237000, -0.020500
  1.239000, -0.019400
  1.241000, -0.018300
  1.243000, -0.017200
  1.245000, -0.016100
  1.247000, -0.015200
  1.249000, -0.014300
  1.251000, -0.013500
  1.253000, -0.012700
  1.255000, -0.012000
  1.257000, -0.011400
  1.259000, -0.010700
  1.261000, -0.010200
  1.263000, -0.009700
  1.265000, -0.009200
  1.267000, -0.008800
  1.269000, -0.008500
  1.271000, -0.008200
  1.273000, -0.007700
  1.275000, -0.007400
  1.277000, -0.007200
  1.279000, -0.006900
  1.281000, -0.006600
  1.283000, -0.006300
  1.285000, -0.006100
  1.287000, -0.005800
  1.289000, -0.005600
  1.291000, -0.005500
  1.293000, -0.005200
  1.295000, -0.005000
  1.297000, -0.004700
  1.299000, -0.004200
  1.301000, -0.003700
  1.303000, -0.003100
  1.305000, -0.002600
  1.307000, -0.002100
  1.309000, -0.001500
  1.311000, -0.000900
  1.313000, -0.000100
  1.315000,  0.000600
  1.317000,  0.001400
  1.319000,  0.002200
  1.321000,  0.003100
  1.323000,  0.004200
  1.325000,  0.005300
  1.327000,  0.006500
  1.329000,  0.007700
  1.331000,  0.008900
  1.333000,  0.010200
  1.335000,  0.011500
  1.337000,  0.012900
  1.339000,  0.014300
  1.341000,  0.015600
  1.343000,  0.016900
  1.345000,  0.018300
  1.347000,  0.019700
  1.349000,  0.021200
  1.351000,  0.022600
  1.353000,  0.024100
  1.355000,  0.025600
  1.357000,  0.026900
  1.359000,  0.028200
  1.361000,  0.029600
  1.363000,  0.030900
  1.365000,  0.032200
  1.367000,  0.033300
  1.369000,  0.034300
  1.371000,  0.035200
  1.373000,  0.036000
  1.375000,  0.036700
  1.377000,  0.037300
  1.379000,  0.038000
  1.381000,  0.038600
  1.383000,  0.038900
  1.385000,  0.039000
  1.387000,  0.038900
  1.389000,  0.038400
  1.391000,  0.037500
  1.393000,  0.036400
  1.395000,  0.035200
  1.397000,  0.033800
  1.399000,  0.031900
