# z (nm)   (kJ/mol)
  0.281000,  3.920500
  0.283000,  3.264000
  0.285000,  2.662100
  0.287000,  2.045200
  0.289000,  1.395200
  0.291000,  0.736600
  0.293000,  0.091400
  0.295000, -0.528400
  0.297000, -1.151900
  0.299000, -1.777100
  0.301000, -2.395100
  0.303000, -3.006900
  0.305000, -3.612500
  0.307000, -4.205500
  0.309000, -4.784800
  0.311000, -5.355300
  0.313000, -5.919600
  0.315000, -6.475100
  0.317000, -7.016800
  0.319000, -7.549000
  0.321000, -8.071800
  0.323000, -8.581600
  0.325000, -9.076400
  0.327000, -9.558300
  0.329000,-10.027900
  0.331000,-10.483100
  0.333000,-10.924800
  0.335000,-11.351300
  0.337000,-11.763000
  0.339000,-12.159300
  0.341000,-12.540400
  0.343000,-12.906000
  0.345000,-13.257500
  0.347000,-13.594700
  0.349000,-13.916200
  0.351000,-14.221700
  0.353000,-14.511800
  0.355000,-14.786800
  0.357000,-15.046100
  0.359000,-15.287400
  0.361000,-15.512400
  0.363000,-15.722600
  0.365000,-15.916800
  0.367000,-16.095100
  0.369000,-16.257900
  0.371000,-16.405800
  0.373000,-16.539100
  0.375000,-16.657000
  0.377000,-16.759700
  0.379000,-16.848000
  0.381000,-16.920700
  0.383000,-16.979700
  0.385000,-17.026000
  0.387000,-17.059500
  0.389000,-17.081400
  0.391000,-17.090700
  0.393000,-17.090800
  0.395000,-17.081500
  0.397000,-17.061600
  0.399000,-17.033600
  0.401000,-16.995900
  0.403000,-16.948300
  0.405000,-16.893100
  0.407000,-16.832100
  0.409000,-16.764500
  0.411000,-16.689600
  0.413000,-16.609800
  0.415000,-16.525300
  0.417000,-16.435100
  0.419000,-16.340200
  0.421000,-16.240800
  0.423000,-16.137000
  0.425000,-16.031000
  0.427000,-15.922700
  0.429000,-15.810700
  0.431000,-15.696400
  0.433000,-15.580300
  0.435000,-15.462500
  0.437000,-15.342200
  0.439000,-15.219500
  0.441000,-15.096100
  0.443000,-14.970800
  0.445000,-14.842900
  0.447000,-14.714300
  0.449000,-14.584700
  0.451000,-14.453400
  0.453000,-14.319400
  0.455000,-14.183200
  0.457000,-14.047200
  0.459000,-13.909300
  0.461000,-13.769200
  0.463000,-13.628500
  0.465000,-13.485200
  0.467000,-13.339800
  0.469000,-13.192600
  0.471000,-13.043000
  0.473000,-12.892700
  0.475000,-12.740600
  0.477000,-12.585700
  0.479000,-12.429900
  0.481000,-12.272000
  0.483000,-12.111100
  0.485000,-11.948100
  0.487000,-11.782900
  0.489000,-11.615800
  0.491000,-11.446000
  0.493000,-11.273500
  0.495000,-11.099100
  0.497000,-10.922700
  0.499000,-10.744200
  0.501000,-10.563500
  0.503000,-10.380600
  0.505000,-10.195700
  0.507000,-10.008700
  0.509000, -9.820000
  0.511000, -9.629700
  0.513000, -9.437500
  0.515000, -9.243600
  0.517000, -9.048100
  0.519000, -8.851400
  0.521000, -8.653500
  0.523000, -8.454300
  0.525000, -8.254100
  0.527000, -8.052800
  0.529000, -7.850700
  0.531000, -7.648500
  0.533000, -7.445700
  0.535000, -7.242800
  0.537000, -7.039800
  0.539000, -6.836000
  0.541000, -6.632500
  0.543000, -6.430300
  0.545000, -6.228700
  0.547000, -6.027100
  0.549000, -5.826000
  0.551000, -5.626100
  0.553000, -5.427800
  0.555000, -5.230900
  0.557000, -5.034600
  0.559000, -4.840100
  0.561000, -4.648500
  0.563000, -4.458400
  0.565000, -4.270100
  0.567000, -4.084700
  0.569000, -3.901900
  0.571000, -3.721000
  0.573000, -3.543200
  0.575000, -3.368500
  0.577000, -3.195800
  0.579000, -3.025800
  0.581000, -2.858400
  0.583000, -2.695000
  0.585000, -2.535600
  0.587000, -2.379600
  0.589000, -2.226400
  0.591000, -2.076800
  0.593000, -1.931200
  0.595000, -1.789000
  0.597000, -1.650400
  0.599000, -1.515200
  0.601000, -1.384000
  0.603000, -1.256600
  0.605000, -1.133300
  0.607000, -1.014800
  0.609000, -0.900300
  0.611000, -0.789500
  0.613000, -0.682900
  0.615000, -0.581000
  0.617000, -0.483100
  0.619000, -0.388700
  0.621000, -0.298800
  0.623000, -0.212900
  0.625000, -0.130600
  0.627000, -0.053000
  0.629000,  0.020300
  0.631000,  0.089700
  0.633000,  0.154900
  0.635000,  0.216200
  0.637000,  0.273600
  0.639000,  0.326700
  0.641000,  0.375600
  0.643000,  0.420200
  0.645000,  0.461000
  0.647000,  0.497900
  0.649000,  0.531000
  0.651000,  0.560400
  0.653000,  0.585900
  0.655000,  0.607800
  0.657000,  0.626400
  0.659000,  0.641600
  0.661000,  0.653200
  0.663000,  0.661700
  0.665000,  0.667000
  0.667000,  0.669300
  0.669000,  0.668800
  0.671000,  0.665100
  0.673000,  0.658500
  0.675000,  0.649100
  0.677000,  0.637200
  0.679000,  0.623100
  0.681000,  0.606500
  0.683000,  0.587400
  0.685000,  0.566500
  0.687000,  0.543800
  0.689000,  0.519300
  0.691000,  0.492800
  0.693000,  0.464800
  0.695000,  0.436100
  0.697000,  0.405600
  0.699000,  0.373400
  0.701000,  0.340700
  0.703000,  0.307500
  0.705000,  0.273300
  0.707000,  0.238200
  0.709000,  0.202600
  0.711000,  0.166400
  0.713000,  0.129600
  0.715000,  0.093100
  0.717000,  0.056500
  0.719000,  0.019900
  0.721000, -0.016600
  0.723000, -0.052800
  0.725000, -0.088600
  0.727000, -0.124100
  0.729000, -0.159100
  0.731000, -0.193200
  0.733000, -0.226900
  0.735000, -0.259800
  0.737000, -0.292000
  0.739000, -0.323300
  0.741000, -0.353300
  0.743000, -0.382700
  0.745000, -0.411200
  0.747000, -0.438100
  0.749000, -0.463900
  0.751000, -0.488600
  0.753000, -0.512100
  0.755000, -0.534600
  0.757000, -0.555700
  0.759000, -0.575700
  0.761000, -0.594300
  0.763000, -0.611600
  0.765000, -0.627600
  0.767000, -0.642300
  0.769000, -0.655600
  0.771000, -0.667600
  0.773000, -0.678100
  0.775000, -0.687400
  0.777000, -0.695500
  0.779000, -0.702400
  0.781000, -0.708100
  0.783000, -0.712600
  0.785000, -0.715900
  0.787000, -0.717900
  0.789000, -0.718900
  0.791000, -0.718900
  0.793000, -0.717500
  0.795000, -0.715200
  0.797000, -0.712100
  0.799000, -0.708300
  0.801000, -0.703600
  0.803000, -0.697600
  0.805000, -0.690700
  0.807000, -0.683100
  0.809000, -0.674600
  0.811000, -0.665300
  0.813000, -0.655300
  0.815000, -0.644800
  0.817000, -0.633500
  0.819000, -0.621500
  0.821000, -0.608900
  0.823000, -0.595700
  0.825000, -0.581800
  0.827000, -0.567400
  0.829000, -0.552700
  0.831000, -0.537800
  0.833000, -0.522000
  0.835000, -0.505800
  0.837000, -0.489600
  0.839000, -0.473000
  0.841000, -0.456000
  0.843000, -0.438700
  0.845000, -0.421300
  0.847000, -0.403800
  0.849000, -0.385800
  0.851000, -0.367600
  0.853000, -0.349200
  0.855000, -0.330900
  0.857000, -0.312500
  0.859000, -0.294100
  0.861000, -0.275400
  0.863000, -0.256700
  0.865000, -0.238000
  0.867000, -0.219200
  0.869000, -0.200400
  0.871000, -0.181600
  0.873000, -0.163100
  0.875000, -0.144500
  0.877000, -0.126300
  0.879000, -0.108300
  0.881000, -0.090200
  0.883000, -0.072500
  0.885000, -0.055000
  0.887000, -0.037500
  0.889000, -0.020100
  0.891000, -0.003200
  0.893000,  0.013500
  0.895000,  0.029900
  0.897000,  0.045900
  0.899000,  0.061400
  0.901000,  0.076700
  0.903000,  0.091700
  0.905000,  0.106100
  0.907000,  0.120100
  0.909000,  0.133700
  0.911000,  0.146900
  0.913000,  0.159600
  0.915000,  0.171800
  0.917000,  0.183500
  0.919000,  0.194700
  0.921000,  0.205300
  0.923000,  0.215400
  0.925000,  0.224800
  0.927000,  0.233600
  0.929000,  0.241900
  0.931000,  0.249600
  0.933000,  0.256700
  0.935000,  0.263200
  0.937000,  0.269100
  0.939000,  0.274400
  0.941000,  0.279100
  0.943000,  0.283100
  0.945000,  0.286700
  0.947000,  0.289700
  0.949000,  0.291900
  0.951000,  0.293500
  0.953000,  0.294500
  0.955000,  0.294900
  0.957000,  0.294700
  0.959000,  0.294100
  0.961000,  0.292900
  0.963000,  0.291000
  0.965000,  0.288600
  0.967000,  0.285800
  0.969000,  0.282500
  0.971000,  0.278700
  0.973000,  0.274400
  0.975000,  0.269700
  0.977000,  0.264600
  0.979000,  0.259100
  0.981000,  0.253100
  0.983000,  0.246900
  0.985000,  0.240400
  0.987000,  0.233400
  0.989000,  0.225900
  0.991000,  0.218300
  0.993000,  0.210400
  0.995000,  0.202300
  0.997000,  0.194100
  0.999000,  0.185500
  1.001000,  0.176700
  1.003000,  0.167800
  1.005000,  0.158600
  1.007000,  0.149500
  1.009000,  0.140400
  1.011000,  0.131200
  1.013000,  0.121900
  1.015000,  0.112500
  1.017000,  0.103200
  1.019000,  0.093900
  1.021000,  0.084700
  1.023000,  0.075400
  1.025000,  0.066200
  1.027000,  0.057000
  1.029000,  0.047700
  1.031000,  0.038800
  1.033000,  0.030000
  1.035000,  0.021300
  1.037000,  0.012900
  1.039000,  0.004400
  1.041000, -0.003900
  1.043000, -0.011900
  1.045000, -0.019800
  1.047000, -0.027700
  1.049000, -0.035300
  1.051000, -0.042600
  1.053000, -0.049800
  1.055000, -0.056700
  1.057000, -0.063500
  1.059000, -0.070100
  1.061000, -0.076300
  1.063000, -0.082200
  1.065000, -0.088000
  1.067000, -0.093500
  1.069000, -0.098700
  1.071000, -0.103900
  1.073000, -0.108800
  1.075000, -0.113400
  1.077000, -0.117700
  1.079000, -0.121800
  1.081000, -0.125800
  1.083000, -0.129700
  1.085000, -0.133200
  1.087000, -0.136600
  1.089000, -0.139800
  1.091000, -0.142600
  1.093000, -0.145100
  1.095000, -0.147400
  1.097000, -0.149500
  1.099000, -0.151400
  1.101000, -0.153100
  1.103000, -0.154700
  1.105000, -0.156100
  1.107000, -0.157200
  1.109000, -0.158100
  1.111000, -0.159000
  1.113000, -0.159600
  1.115000, -0.159900
  1.117000, -0.160100
  1.119000, -0.160200
  1.121000, -0.160300
  1.123000, -0.160100
  1.125000, -0.159700
  1.127000, -0.159300
  1.129000, -0.158700
  1.131000, -0.157800
  1.133000, -0.156800
  1.135000, -0.155600
  1.137000, -0.154300
  1.139000, -0.153000
  1.141000, -0.151600
  1.143000, -0.150100
  1.145000, -0.148500
  1.147000, -0.146700
  1.149000, -0.145000
  1.151000, -0.143100
  1.153000, -0.141100
  1.155000, -0.139000
  1.157000, -0.136800
  1.159000, -0.134500
  1.161000, -0.132200
  1.163000, -0.129900
  1.165000, -0.127400
  1.167000, -0.124700
  1.169000, -0.122000
  1.171000, -0.119300
  1.173000, -0.116500
  1.175000, -0.113700
  1.177000, -0.110800
  1.179000, -0.107800
  1.181000, -0.104800
  1.183000, -0.101800
  1.185000, -0.098800
  1.187000, -0.095700
  1.189000, -0.092600
  1.191000, -0.089400
  1.193000, -0.086100
  1.195000, -0.082900
  1.197000, -0.079700
  1.199000, -0.076400
  1.201000, -0.073200
  1.203000, -0.070000
  1.205000, -0.066900
  1.207000, -0.063800
  1.209000, -0.060500
  1.211000, -0.057400
  1.213000, -0.054300
  1.215000, -0.051000
  1.217000, -0.047900
  1.219000, -0.044900
  1.221000, -0.041900
  1.223000, -0.039000
  1.225000, -0.036200
  1.227000, -0.033300
  1.229000, -0.030600
  1.231000, -0.027800
  1.233000, -0.025100
  1.235000, -0.022600
  1.237000, -0.020200
  1.239000, -0.017800
  1.241000, -0.015300
  1.243000, -0.013000
  1.245000, -0.010700
  1.247000, -0.008700
  1.249000, -0.006800
  1.251000, -0.004800
  1.253000, -0.002700
  1.255000, -0.000800
  1.257000,  0.000900
  1.259000,  0.002400
  1.261000,  0.003900
  1.263000,  0.005400
  1.265000,  0.006800
  1.267000,  0.008100
  1.269000,  0.009300
  1.271000,  0.010300
  1.273000,  0.011300
  1.275000,  0.012100
  1.277000,  0.013000
  1.279000,  0.014000
  1.281000,  0.014700
  1.283000,  0.015400
  1.285000,  0.016000
  1.287000,  0.016500
  1.289000,  0.016800
  1.291000,  0.017100
  1.293000,  0.017300
  1.295000,  0.017500
  1.297000,  0.017600
  1.299000,  0.017500
  1.301000,  0.017400
  1.303000,  0.017500
  1.305000,  0.017600
  1.307000,  0.017600
  1.309000,  0.017400
  1.311000,  0.017100
  1.313000,  0.016500
  1.315000,  0.016000
  1.317000,  0.015600
  1.319000,  0.015100
  1.321000,  0.014500
  1.323000,  0.013800
  1.325000,  0.013200
  1.327000,  0.012700
  1.329000,  0.012200
  1.331000,  0.011900
  1.333000,  0.011500
  1.335000,  0.010900
  1.337000,  0.010400
  1.339000,  0.010100
  1.341000,  0.009700
  1.343000,  0.009500
  1.345000,  0.009300
  1.347000,  0.009200
  1.349000,  0.009200
  1.351000,  0.009300
  1.353000,  0.009400
  1.355000,  0.009500
  1.357000,  0.009700
  1.359000,  0.009900
  1.361000,  0.010200
  1.363000,  0.010600
  1.365000,  0.011200
  1.367000,  0.011800
  1.369000,  0.012500
  1.371000,  0.013300
  1.373000,  0.014200
  1.375000,  0.015100
  1.377000,  0.016000
  1.379000,  0.017200
  1.381000,  0.018300
  1.383000,  0.019300
  1.385000,  0.020200
  1.387000,  0.021000
  1.389000,  0.021900
  1.391000,  0.022700
  1.393000,  0.023200
  1.395000,  0.023400
  1.397000,  0.023100
  1.399000,  0.022700
