# z (nm)   (kJ/mol)
  0.275000, 23.982200
  0.279000, 21.788000
  0.281000, 20.719100
  0.283000, 19.678600
  0.285000, 18.631100
  0.287000, 17.563500
  0.289000, 16.504900
  0.291000, 15.455600
  0.293000, 14.421900
  0.295000, 13.392700
  0.297000, 12.377200
  0.299000, 11.379800
  0.301000, 10.398100
  0.303000,  9.433700
  0.305000,  8.484400
  0.307000,  7.562100
  0.309000,  6.665500
  0.311000,  5.787600
  0.313000,  4.934300
  0.315000,  4.107700
  0.317000,  3.309000
  0.319000,  2.538000
  0.321000,  1.790300
  0.323000,  1.061900
  0.325000,  0.356500
  0.327000, -0.322200
  0.329000, -0.971900
  0.331000, -1.595000
  0.333000, -2.197900
  0.335000, -2.777700
  0.337000, -3.333800
  0.339000, -3.869600
  0.341000, -4.386400
  0.343000, -4.882600
  0.345000, -5.354900
  0.347000, -5.806400
  0.349000, -6.237800
  0.351000, -6.648900
  0.353000, -7.042300
  0.355000, -7.418000
  0.357000, -7.777000
  0.359000, -8.118100
  0.361000, -8.438800
  0.363000, -8.742800
  0.365000, -9.030200
  0.367000, -9.301100
  0.369000, -9.554800
  0.371000, -9.791500
  0.373000,-10.012300
  0.375000,-10.216000
  0.377000,-10.404400
  0.379000,-10.575500
  0.381000,-10.729400
  0.383000,-10.869100
  0.385000,-10.994400
  0.387000,-11.105800
  0.389000,-11.204400
  0.391000,-11.289100
  0.393000,-11.359100
  0.395000,-11.415400
  0.397000,-11.459600
  0.399000,-11.492200
  0.401000,-11.514900
  0.403000,-11.528600
  0.405000,-11.531500
  0.407000,-11.522800
  0.409000,-11.505700
  0.411000,-11.482900
  0.413000,-11.451200
  0.415000,-11.411600
  0.417000,-11.366200
  0.419000,-11.314600
  0.421000,-11.258000
  0.423000,-11.196800
  0.425000,-11.130500
  0.427000,-11.060600
  0.429000,-10.987300
  0.431000,-10.910300
  0.433000,-10.829400
  0.435000,-10.745800
  0.437000,-10.660600
  0.439000,-10.573100
  0.441000,-10.483000
  0.443000,-10.391300
  0.445000,-10.297800
  0.447000,-10.202000
  0.449000,-10.105100
  0.451000,-10.007800
  0.453000, -9.909600
  0.455000, -9.809600
  0.457000, -9.708900
  0.459000, -9.607100
  0.461000, -9.503900
  0.463000, -9.400300
  0.465000, -9.296300
  0.467000, -9.192000
  0.469000, -9.087600
  0.471000, -8.982700
  0.473000, -8.877100
  0.475000, -8.771300
  0.477000, -8.665800
  0.479000, -8.560100
  0.481000, -8.453900
  0.483000, -8.347900
  0.485000, -8.242100
  0.487000, -8.136400
  0.489000, -8.031000
  0.491000, -7.926100
  0.493000, -7.821500
  0.495000, -7.717000
  0.497000, -7.613000
  0.499000, -7.509600
  0.501000, -7.406800
  0.503000, -7.304100
  0.505000, -7.201800
  0.507000, -7.100600
  0.509000, -7.000100
  0.511000, -6.900300
  0.513000, -6.801400
  0.515000, -6.702900
  0.517000, -6.605100
  0.519000, -6.508200
  0.521000, -6.411800
  0.523000, -6.315700
  0.525000, -6.220300
  0.527000, -6.125500
  0.529000, -6.031300
  0.531000, -5.937900
  0.533000, -5.845200
  0.535000, -5.753500
  0.537000, -5.662200
  0.539000, -5.571300
  0.541000, -5.480900
  0.543000, -5.390900
  0.545000, -5.301500
  0.547000, -5.212500
  0.549000, -5.123700
  0.551000, -5.035500
  0.553000, -4.947700
  0.555000, -4.860200
  0.557000, -4.773300
  0.559000, -4.686800
  0.561000, -4.600400
  0.563000, -4.514100
  0.565000, -4.428200
  0.567000, -4.342800
  0.569000, -4.257700
  0.571000, -4.173100
  0.573000, -4.088800
  0.575000, -4.004900
  0.577000, -3.921500
  0.579000, -3.838400
  0.581000, -3.755700
  0.583000, -3.673700
  0.585000, -3.592500
  0.587000, -3.511700
  0.589000, -3.431700
  0.591000, -3.352700
  0.593000, -3.274700
  0.595000, -3.197600
  0.597000, -3.121100
  0.599000, -3.045200
  0.601000, -2.970500
  0.603000, -2.897000
  0.605000, -2.825200
  0.607000, -2.754700
  0.609000, -2.685400
  0.611000, -2.618200
  0.613000, -2.552800
  0.615000, -2.488700
  0.617000, -2.426200
  0.619000, -2.365200
  0.621000, -2.306400
  0.623000, -2.249700
  0.625000, -2.194500
  0.627000, -2.141500
  0.629000, -2.091100
  0.631000, -2.042900
  0.633000, -1.996800
  0.635000, -1.952500
  0.637000, -1.910700
  0.639000, -1.871300
  0.641000, -1.834100
  0.643000, -1.799300
  0.645000, -1.766800
  0.647000, -1.736700
  0.649000, -1.708800
  0.651000, -1.683200
  0.653000, -1.659700
  0.655000, -1.638100
  0.657000, -1.618300
  0.659000, -1.600100
  0.661000, -1.584000
  0.663000, -1.569900
  0.665000, -1.557700
  0.667000, -1.547000
  0.669000, -1.537700
  0.671000, -1.530000
  0.673000, -1.523700
  0.675000, -1.518800
  0.677000, -1.515300
  0.679000, -1.512900
  0.681000, -1.511100
  0.683000, -1.510100
  0.685000, -1.510100
  0.687000, -1.510600
  0.689000, -1.511400
  0.691000, -1.512800
  0.693000, -1.514400
  0.695000, -1.516100
  0.697000, -1.517800
  0.699000, -1.519500
  0.701000, -1.521200
  0.703000, -1.522800
  0.705000, -1.524300
  0.707000, -1.525500
  0.709000, -1.526300
  0.711000, -1.526800
  0.713000, -1.526700
  0.715000, -1.526200
  0.717000, -1.525100
  0.719000, -1.523400
  0.721000, -1.521000
  0.723000, -1.518000
  0.725000, -1.514300
  0.727000, -1.509700
  0.729000, -1.504500
  0.731000, -1.498500
  0.733000, -1.491800
  0.735000, -1.484300
  0.737000, -1.476100
  0.739000, -1.467200
  0.741000, -1.457400
  0.743000, -1.446900
  0.745000, -1.435900
  0.747000, -1.424200
  0.749000, -1.411900
  0.751000, -1.399000
  0.753000, -1.385400
  0.755000, -1.371300
  0.757000, -1.356600
  0.759000, -1.341600
  0.761000, -1.326100
  0.763000, -1.310000
  0.765000, -1.293500
  0.767000, -1.276500
  0.769000, -1.259400
  0.771000, -1.242100
  0.773000, -1.224600
  0.775000, -1.206600
  0.777000, -1.188400
  0.779000, -1.170000
  0.781000, -1.151400
  0.783000, -1.132900
  0.785000, -1.114300
  0.787000, -1.095800
  0.789000, -1.077200
  0.791000, -1.058200
  0.793000, -1.039300
  0.795000, -1.020600
  0.797000, -1.001900
  0.799000, -0.983200
  0.801000, -0.964500
  0.803000, -0.945800
  0.805000, -0.927300
  0.807000, -0.908800
  0.809000, -0.890500
  0.811000, -0.872300
  0.813000, -0.854100
  0.815000, -0.836100
  0.817000, -0.818200
  0.819000, -0.800400
  0.821000, -0.782600
  0.823000, -0.765000
  0.825000, -0.747500
  0.827000, -0.730100
  0.829000, -0.712800
  0.831000, -0.695600
  0.833000, -0.678600
  0.835000, -0.661700
  0.837000, -0.645000
  0.839000, -0.628400
  0.841000, -0.611900
  0.843000, -0.595700
  0.845000, -0.579700
  0.847000, -0.563800
  0.849000, -0.548000
  0.851000, -0.532500
  0.853000, -0.517200
  0.855000, -0.502100
  0.857000, -0.487100
  0.859000, -0.472400
  0.861000, -0.458000
  0.863000, -0.443900
  0.865000, -0.430100
  0.867000, -0.416500
  0.869000, -0.403100
  0.871000, -0.389900
  0.873000, -0.377200
  0.875000, -0.364900
  0.877000, -0.353000
  0.879000, -0.341400
  0.881000, -0.330300
  0.883000, -0.319400
  0.885000, -0.308800
  0.887000, -0.298600
  0.889000, -0.289000
  0.891000, -0.279900
  0.893000, -0.271100
  0.895000, -0.262700
  0.897000, -0.254800
  0.899000, -0.247500
  0.901000, -0.240600
  0.903000, -0.233900
  0.905000, -0.227800
  0.907000, -0.222400
  0.909000, -0.217500
  0.911000, -0.212900
  0.913000, -0.208700
  0.915000, -0.205000
  0.917000, -0.201800
  0.919000, -0.199200
  0.921000, -0.196800
  0.923000, -0.194900
  0.925000, -0.193400
  0.927000, -0.192200
  0.929000, -0.191400
  0.931000, -0.191100
  0.933000, -0.191100
  0.935000, -0.191500
  0.937000, -0.192300
  0.939000, -0.193500
  0.941000, -0.195100
  0.943000, -0.197000
  0.945000, -0.199400
  0.947000, -0.202100
  0.949000, -0.204700
  0.951000, -0.207500
  0.953000, -0.210600
  0.955000, -0.213800
  0.957000, -0.217400
  0.959000, -0.221000
  0.961000, -0.224800
  0.963000, -0.228800
  0.965000, -0.232900
  0.967000, -0.237100
  0.969000, -0.241400
  0.971000, -0.245800
  0.973000, -0.250000
  0.975000, -0.254300
  0.977000, -0.258600
  0.979000, -0.262900
  0.981000, -0.267200
  0.983000, -0.271500
  0.985000, -0.275400
  0.987000, -0.279300
  0.989000, -0.283100
  0.991000, -0.286700
  0.993000, -0.290200
  0.995000, -0.293500
  0.997000, -0.296800
  0.999000, -0.299900
  1.001000, -0.302800
  1.003000, -0.305400
  1.005000, -0.307800
  1.007000, -0.309800
  1.009000, -0.311500
  1.011000, -0.313300
  1.013000, -0.314700
  1.015000, -0.315800
  1.017000, -0.316600
  1.019000, -0.316800
  1.021000, -0.316800
  1.023000, -0.316500
  1.025000, -0.316000
  1.027000, -0.315200
  1.029000, -0.314100
  1.031000, -0.312500
  1.033000, -0.310700
  1.035000, -0.308700
  1.037000, -0.306400
  1.039000, -0.303800
  1.041000, -0.300800
  1.043000, -0.297700
  1.045000, -0.294200
  1.047000, -0.290400
  1.049000, -0.286500
  1.051000, -0.282300
  1.053000, -0.277900
  1.055000, -0.273400
  1.057000, -0.268700
  1.059000, -0.263800
  1.061000, -0.258700
  1.063000, -0.253500
  1.065000, -0.248100
  1.067000, -0.242600
  1.069000, -0.237200
  1.071000, -0.231700
  1.073000, -0.226100
  1.075000, -0.220400
  1.077000, -0.214700
  1.079000, -0.209100
  1.081000, -0.203600
  1.083000, -0.198000
  1.085000, -0.192400
  1.087000, -0.186900
  1.089000, -0.181600
  1.091000, -0.176400
  1.093000, -0.171400
  1.095000, -0.166500
  1.097000, -0.161700
  1.099000, -0.156900
  1.101000, -0.152300
  1.103000, -0.147800
  1.105000, -0.143400
  1.107000, -0.139400
  1.109000, -0.135500
  1.111000, -0.131700
  1.113000, -0.128200
  1.115000, -0.124800
  1.117000, -0.121700
  1.119000, -0.118600
  1.121000, -0.115700
  1.123000, -0.112900
  1.125000, -0.110200
  1.127000, -0.107700
  1.129000, -0.105400
  1.131000, -0.103200
  1.133000, -0.101100
  1.135000, -0.099100
  1.137000, -0.097200
  1.139000, -0.095400
  1.141000, -0.093600
  1.143000, -0.091900
  1.145000, -0.090200
  1.147000, -0.088500
  1.149000, -0.087000
  1.151000, -0.085500
  1.153000, -0.083900
  1.155000, -0.082300
  1.157000, -0.080700
  1.159000, -0.079000
  1.161000, -0.077300
  1.163000, -0.075600
  1.165000, -0.073800
  1.167000, -0.071800
  1.169000, -0.069800
  1.171000, -0.067900
  1.173000, -0.066000
  1.175000, -0.063900
  1.177000, -0.061800
  1.179000, -0.059700
  1.181000, -0.057500
  1.183000, -0.055200
  1.185000, -0.052800
  1.187000, -0.050300
  1.189000, -0.047700
  1.191000, -0.045200
  1.193000, -0.042700
  1.195000, -0.040100
  1.197000, -0.037500
  1.199000, -0.034900
  1.201000, -0.032200
  1.203000, -0.029500
  1.205000, -0.026800
  1.207000, -0.024100
  1.209000, -0.021500
  1.211000, -0.018800
  1.213000, -0.016200
  1.215000, -0.013700
  1.217000, -0.011300
  1.219000, -0.009000
  1.221000, -0.006600
  1.223000, -0.004300
  1.225000, -0.002100
  1.227000,  0.000200
  1.229000,  0.002300
  1.231000,  0.004400
  1.233000,  0.006500
  1.235000,  0.008400
  1.237000,  0.010200
  1.239000,  0.011800
  1.241000,  0.013400
  1.243000,  0.015000
  1.245000,  0.016400
  1.247000,  0.017600
  1.249000,  0.018800
  1.251000,  0.020000
  1.253000,  0.021000
  1.255000,  0.022000
  1.257000,  0.022800
  1.259000,  0.023500
  1.261000,  0.024200
  1.263000,  0.024700
  1.265000,  0.025100
  1.267000,  0.025200
  1.269000,  0.025400
  1.271000,  0.025500
  1.273000,  0.025500
  1.275000,  0.025400
  1.277000,  0.025300
  1.279000,  0.025000
  1.281000,  0.024600
  1.283000,  0.024100
  1.285000,  0.023500
  1.287000,  0.022800
  1.289000,  0.021900
  1.291000,  0.021000
  1.293000,  0.019900
  1.295000,  0.018600
  1.297000,  0.017300
  1.299000,  0.015900
  1.301000,  0.014300
  1.303000,  0.012500
  1.305000,  0.010700
  1.307000,  0.008800
  1.309000,  0.006700
  1.311000,  0.004700
  1.313000,  0.002500
  1.315000,  0.000200
  1.317000, -0.002200
  1.319000, -0.004500
  1.321000, -0.006900
  1.323000, -0.009300
  1.325000, -0.011700
  1.327000, -0.014200
  1.329000, -0.016600
  1.331000, -0.019200
  1.333000, -0.021700
  1.335000, -0.024000
  1.337000, -0.026400
  1.339000, -0.028600
  1.341000, -0.030500
  1.343000, -0.032300
  1.345000, -0.034200
  1.347000, -0.035700
  1.349000, -0.036900
  1.351000, -0.037800
  1.353000, -0.038400
  1.355000, -0.038700
  1.357000, -0.038600
  1.359000, -0.038100
  1.361000, -0.037300
  1.363000, -0.036100
  1.365000, -0.034400
  1.367000, -0.032400
  1.369000, -0.029900
  1.371000, -0.026900
  1.373000, -0.023400
  1.375000, -0.019100
  1.377000, -0.014300
  1.379000, -0.009000
  1.381000, -0.003200
  1.383000,  0.003300
  1.385000,  0.010400
  1.387000,  0.018200
  1.389000,  0.026400
  1.391000,  0.035000
  1.393000,  0.044100
  1.395000,  0.053900
  1.397000,  0.064200
  1.399000,  0.074600
