# z (nm)   (kJ/mol)
  0.2530   -3.99600
  0.2570   -5.64760
  0.2590   -6.47930
  0.2610   -7.28480
  0.2630   -8.07860
  0.2650   -8.88570
  0.2670   -9.68400
  0.2690  -10.45910
  0.2710  -11.23400
  0.2730  -12.00640
  0.2750  -12.76170
  0.2770  -13.50200
  0.2790  -14.22600
  0.2810  -14.93190
  0.2830  -15.62170
  0.2850  -16.29450
  0.2870  -16.94130
  0.2890  -17.56310
  0.2910  -18.16460
  0.2930  -18.74120
  0.2950  -19.29670
  0.2970  -19.82650
  0.2990  -20.33000
  0.3010  -20.80740
  0.3030  -21.25680
  0.3050  -21.67970
  0.3070  -22.07770
  0.3090  -22.44810
  0.3110  -22.79370
  0.3130  -23.11500
  0.3150  -23.40620
  0.3170  -23.66920
  0.3190  -23.90860
  0.3210  -24.12410
  0.3230  -24.31340
  0.3250  -24.47810
  0.3270  -24.61980
  0.3290  -24.73750
  0.3310  -24.83060
  0.3330  -24.89920
  0.3350  -24.94540
  0.3370  -24.97060
  0.3390  -24.97440
  0.3410  -24.95740
  0.3430  -24.92140
  0.3450  -24.86810
  0.3470  -24.79810
  0.3490  -24.71140
  0.3510  -24.60890
  0.3530  -24.49140
  0.3550  -24.36030
  0.3570  -24.21640
  0.3590  -24.06120
  0.3610  -23.89650
  0.3630  -23.72170
  0.3650  -23.53790
  0.3670  -23.34650
  0.3690  -23.14830
  0.3710  -22.94390
  0.3730  -22.73400
  0.3750  -22.51950
  0.3770  -22.30090
  0.3790  -22.07840
  0.3810  -21.85330
  0.3830  -21.62650
  0.3850  -21.39840
  0.3870  -21.16900
  0.3890  -20.93850
  0.3910  -20.70790
  0.3930  -20.47780
  0.3950  -20.24840
  0.3970  -20.01950
  0.3990  -19.79140
  0.4010  -19.56490
  0.4030  -19.34000
  0.4050  -19.11690
  0.4070  -18.89560
  0.4090  -18.67640
  0.4110  -18.46000
  0.4130  -18.24660
  0.4150  -18.03570
  0.4170  -17.82760
  0.4190  -17.62230
  0.4210  -17.41970
  0.4230  -17.22040
  0.4250  -17.02480
  0.4270  -16.83270
  0.4290  -16.64390
  0.4310  -16.45860
  0.4330  -16.27660
  0.4350  -16.09750
  0.4370  -15.92250
  0.4390  -15.75200
  0.4410  -15.58530
  0.4430  -15.42210
  0.4450  -15.26270
  0.4470  -15.10660
  0.4490  -14.95380
  0.4510  -14.80470
  0.4530  -14.65890
  0.4550  -14.51640
  0.4570  -14.37720
  0.4590  -14.24180
  0.4610  -14.10980
  0.4630  -13.98060
  0.4650  -13.85450
  0.4670  -13.73140
  0.4690  -13.61080
  0.4710  -13.49290
  0.4730  -13.37760
  0.4750  -13.26420
  0.4770  -13.15310
  0.4790  -13.04450
  0.4810  -12.93770
  0.4830  -12.83250
  0.4850  -12.72900
  0.4870  -12.62710
  0.4890  -12.52620
  0.4910  -12.42600
  0.4930  -12.32680
  0.4950  -12.22860
  0.4970  -12.13070
  0.4990  -12.03260
  0.5010  -11.93460
  0.5030  -11.83690
  0.5050  -11.73900
  0.5070  -11.64060
  0.5090  -11.54130
  0.5110  -11.44100
  0.5130  -11.33980
  0.5150  -11.23750
  0.5170  -11.13370
  0.5190  -11.02880
  0.5210  -10.92240
  0.5230  -10.81410
  0.5250  -10.70440
  0.5270  -10.59300
  0.5290  -10.47960
  0.5310  -10.36440
  0.5330  -10.24730
  0.5350  -10.12790
  0.5370  -10.00690
  0.5390   -9.88380
  0.5410   -9.75830
  0.5430   -9.63090
  0.5450   -9.50130
  0.5470   -9.37000
  0.5490   -9.23690
  0.5510   -9.10180
  0.5530   -8.96450
  0.5550   -8.82540
  0.5570   -8.68440
  0.5590   -8.54190
  0.5610   -8.39740
  0.5630   -8.25100
  0.5650   -8.10310
  0.5670   -7.95320
  0.5690   -7.80210
  0.5710   -7.64990
  0.5730   -7.49620
  0.5750   -7.34140
  0.5770   -7.18560
  0.5790   -7.02900
  0.5810   -6.87120
  0.5830   -6.71240
  0.5850   -6.55270
  0.5870   -6.39220
  0.5890   -6.23150
  0.5910   -6.07040
  0.5930   -5.90840
  0.5950   -5.74630
  0.5970   -5.58470
  0.5990   -5.42300
  0.6010   -5.26170
  0.6030   -5.10190
  0.6050   -4.94280
  0.6070   -4.78410
  0.6090   -4.62590
  0.6110   -4.46720
  0.6130   -4.30950
  0.6150   -4.15370
  0.6170   -3.99910
  0.6190   -3.84630
  0.6210   -3.69390
  0.6230   -3.54280
  0.6250   -3.39430
  0.6270   -3.24860
  0.6290   -3.10570
  0.6310   -2.96480
  0.6330   -2.82540
  0.6350   -2.68730
  0.6370   -2.55180
  0.6390   -2.41860
  0.6410   -2.28840
  0.6430   -2.16130
  0.6450   -2.03700
  0.6470   -1.91580
  0.6490   -1.79780
  0.6510   -1.68310
  0.6530   -1.57100
  0.6550   -1.46310
  0.6570   -1.35880
  0.6590   -1.25720
  0.6610   -1.15920
  0.6630   -1.06480
  0.6650   -0.97430
  0.6670   -0.88800
  0.6690   -0.80530
  0.6710   -0.72570
  0.6730   -0.64940
  0.6750   -0.57730
  0.6770   -0.50890
  0.6790   -0.44400
  0.6810   -0.38300
  0.6830   -0.32560
  0.6850   -0.27140
  0.6870   -0.22050
  0.6890   -0.17310
  0.6910   -0.12930
  0.6930   -0.08900
  0.6950   -0.05200
  0.6970   -0.01820
  0.6990    0.01260
  0.7010    0.04040
  0.7030    0.06540
  0.7050    0.08760
  0.7070    0.10670
  0.7090    0.12320
  0.7110    0.13730
  0.7130    0.14910
  0.7150    0.15890
  0.7170    0.16630
  0.7190    0.17120
  0.7210    0.17380
  0.7230    0.17460
  0.7250    0.17370
  0.7270    0.17120
  0.7290    0.16720
  0.7310    0.16160
  0.7330    0.15460
  0.7350    0.14610
  0.7370    0.13680
  0.7390    0.12650
  0.7410    0.11480
  0.7430    0.10230
  0.7450    0.08930
  0.7470    0.07540
  0.7490    0.06070
  0.7510    0.04580
  0.7530    0.03030
  0.7550    0.01430
  0.7570   -0.00200
  0.7590   -0.01860
  0.7610   -0.03560
  0.7630   -0.05290
  0.7650   -0.07020
  0.7670   -0.08780
  0.7690   -0.10540
  0.7710   -0.12310
  0.7730   -0.14100
  0.7750   -0.15880
  0.7770   -0.17640
  0.7790   -0.19380
  0.7810   -0.21120
  0.7830   -0.22850
  0.7850   -0.24550
  0.7870   -0.26220
  0.7890   -0.27850
  0.7910   -0.29480
  0.7930   -0.31090
  0.7950   -0.32660
  0.7970   -0.34190
  0.7990   -0.35660
  0.8010   -0.37100
  0.8030   -0.38490
  0.8050   -0.39850
  0.8070   -0.41180
  0.8090   -0.42450
  0.8110   -0.43680
  0.8130   -0.44870
  0.8150   -0.46030
  0.8170   -0.47160
  0.8190   -0.48210
  0.8210   -0.49210
  0.8230   -0.50160
  0.8250   -0.51050
  0.8270   -0.51890
  0.8290   -0.52690
  0.8310   -0.53420
  0.8330   -0.54110
  0.8350   -0.54740
  0.8370   -0.55290
  0.8390   -0.55780
  0.8410   -0.56210
  0.8430   -0.56600
  0.8450   -0.56920
  0.8470   -0.57180
  0.8490   -0.57370
  0.8510   -0.57510
  0.8530   -0.57590
  0.8550   -0.57600
  0.8570   -0.57560
  0.8590   -0.57450
  0.8610   -0.57280
  0.8630   -0.57040
  0.8650   -0.56730
  0.8670   -0.56380
  0.8690   -0.55960
  0.8710   -0.55480
  0.8730   -0.54950
  0.8750   -0.54370
  0.8770   -0.53730
  0.8790   -0.53050
  0.8810   -0.52310
  0.8830   -0.51520
  0.8850   -0.50660
  0.8870   -0.49750
  0.8890   -0.48800
  0.8910   -0.47790
  0.8930   -0.46740
  0.8950   -0.45660
  0.8970   -0.44550
  0.8990   -0.43400
  0.9010   -0.42200
  0.9030   -0.40970
  0.9050   -0.39700
  0.9070   -0.38420
  0.9090   -0.37110
  0.9110   -0.35780
  0.9130   -0.34420
  0.9150   -0.33040
  0.9170   -0.31650
  0.9190   -0.30250
  0.9210   -0.28820
  0.9230   -0.27390
  0.9250   -0.25960
  0.9270   -0.24530
  0.9290   -0.23090
  0.9310   -0.21660
  0.9330   -0.20230
  0.9350   -0.18790
  0.9370   -0.17350
  0.9390   -0.15920
  0.9410   -0.14520
  0.9430   -0.13130
  0.9450   -0.11750
  0.9470   -0.10390
  0.9490   -0.09040
  0.9510   -0.07730
  0.9530   -0.06450
  0.9550   -0.05190
  0.9570   -0.03960
  0.9590   -0.02740
  0.9610   -0.01550
  0.9630   -0.00420
  0.9650    0.00690
  0.9670    0.01780
  0.9690    0.02820
  0.9710    0.03810
  0.9730    0.04770
  0.9750    0.05690
  0.9770    0.06580
  0.9790    0.07440
  0.9810    0.08270
  0.9830    0.09060
  0.9850    0.09790
  0.9870    0.10490
  0.9890    0.11160
  0.9910    0.11790
  0.9930    0.12390
  0.9950    0.12940
  0.9970    0.13430
  0.9990    0.13890
  1.0010    0.14320
  1.0030    0.14720
  1.0050    0.15070
  1.0070    0.15380
  1.0090    0.15660
  1.0110    0.15910
  1.0130    0.16120
  1.0150    0.16300
  1.0170    0.16450
  1.0190    0.16560
  1.0210    0.16640
  1.0230    0.16700
  1.0250    0.16730
  1.0270    0.16740
  1.0290    0.16710
  1.0310    0.16650
  1.0330    0.16570
  1.0350    0.16460
  1.0370    0.16320
  1.0390    0.16150
  1.0410    0.15970
  1.0430    0.15780
  1.0450    0.15570
  1.0470    0.15340
  1.0490    0.15080
  1.0510    0.14830
  1.0530    0.14540
  1.0550    0.14240
  1.0570    0.13940
  1.0590    0.13630
  1.0610    0.13300
  1.0630    0.12950
  1.0650    0.12600
  1.0670    0.12240
  1.0690    0.11880
  1.0710    0.11510
  1.0730    0.11140
  1.0750    0.10760
  1.0770    0.10380
  1.0790    0.09990
  1.0810    0.09600
  1.0830    0.09200
  1.0850    0.08800
  1.0870    0.08400
  1.0890    0.08000
  1.0910    0.07580
  1.0930    0.07170
  1.0950    0.06770
  1.0970    0.06380
  1.0990    0.05990
  1.1010    0.05600
  1.1030    0.05220
  1.1050    0.04840
  1.1070    0.04460
  1.1090    0.04080
  1.1110    0.03710
  1.1130    0.03350
  1.1150    0.03000
  1.1170    0.02650
  1.1190    0.02320
  1.1210    0.01990
  1.1230    0.01670
  1.1250    0.01360
  1.1270    0.01050
  1.1290    0.00760
  1.1310    0.00480
  1.1330    0.00200
  1.1350   -0.00080
  1.1370   -0.00360
  1.1390   -0.00630
  1.1410   -0.00880
  1.1430   -0.01120
  1.1450   -0.01340
  1.1470   -0.01570
  1.1490   -0.01790
  1.1510   -0.02000
  1.1530   -0.02210
  1.1550   -0.02410
  1.1570   -0.02590
  1.1590   -0.02770
  1.1610   -0.02930
  1.1630   -0.03090
  1.1650   -0.03250
  1.1670   -0.03400
  1.1690   -0.03540
  1.1710   -0.03670
  1.1730   -0.03810
  1.1750   -0.03940
  1.1770   -0.04060
  1.1790   -0.04160
  1.1810   -0.04260
  1.1830   -0.04350
  1.1850   -0.04430
  1.1870   -0.04490
  1.1890   -0.04560
  1.1910   -0.04620
  1.1930   -0.04680
  1.1950   -0.04720
  1.1970   -0.04760
  1.1990   -0.04780
  1.2010   -0.04800
  1.2030   -0.04820
  1.2050   -0.04820
  1.2070   -0.04810
  1.2090   -0.04810
  1.2110   -0.04800
  1.2130   -0.04780
  1.2150   -0.04750
  1.2170   -0.04710
  1.2190   -0.04670
  1.2210   -0.04610
  1.2230   -0.04550
  1.2250   -0.04490
  1.2270   -0.04410
  1.2290   -0.04330
  1.2310   -0.04250
  1.2330   -0.04150
  1.2350   -0.04050
  1.2370   -0.03950
  1.2390   -0.03850
  1.2410   -0.03750
  1.2430   -0.03640
  1.2450   -0.03520
  1.2470   -0.03400
  1.2490   -0.03270
  1.2510   -0.03140
  1.2530   -0.02990
  1.2550   -0.02850
  1.2570   -0.02720
  1.2590   -0.02580
  1.2610   -0.02430
  1.2630   -0.02290
  1.2650   -0.02150
  1.2670   -0.02010
  1.2690   -0.01870
  1.2710   -0.01730
  1.2730   -0.01600
  1.2750   -0.01450
  1.2770   -0.01310
  1.2790   -0.01180
  1.2810   -0.01050
  1.2830   -0.00940
  1.2850   -0.00810
  1.2870   -0.00680
  1.2890   -0.00570
  1.2910   -0.00460
  1.2930   -0.00330
  1.2950   -0.00200
  1.2970   -0.00090
  1.2990    0.00010
  1.3010    0.00110
  1.3030    0.00220
  1.3050    0.00340
  1.3070    0.00430
  1.3090    0.00520
  1.3110    0.00620
  1.3130    0.00730
  1.3150    0.00840
  1.3170    0.00930
  1.3190    0.01040
  1.3210    0.01150
  1.3230    0.01250
  1.3250    0.01350
  1.3270    0.01460
  1.3290    0.01570
  1.3310    0.01690
  1.3330    0.01810
  1.3350    0.01930
  1.3370    0.02060
  1.3390    0.02200
  1.3410    0.02340
  1.3430    0.02490
  1.3450    0.02640
  1.3470    0.02770
  1.3490    0.02910
  1.3510    0.03060
  1.3530    0.03210
  1.3550    0.03370
  1.3570    0.03550
  1.3590    0.03720
  1.3610    0.03870
  1.3630    0.04030
  1.3650    0.04210
  1.3670    0.04380
  1.3690    0.04520
  1.3710    0.04660
  1.3730    0.04780
  1.3750    0.04890
  1.3770    0.05000
  1.3790    0.05100
  1.3810    0.05190
  1.3830    0.05260
  1.3850    0.05320
  1.3870    0.05370
  1.3890    0.05380
  1.3910    0.05370
  1.3930    0.05330
  1.3950    0.05240
  1.3970    0.05110
  1.3990    0.04940
