# z (nm)   (kJ/mol)
  0.2310   10.29650
  0.2350    9.85720
  0.2370    9.35750
  0.2390    8.82070
  0.2410    8.31540
  0.2430    7.82670
  0.2450    7.31970
  0.2470    6.80510
  0.2490    6.29050
  0.2510    5.77700
  0.2530    5.27600
  0.2550    4.78060
  0.2570    4.28440
  0.2590    3.78950
  0.2610    3.30160
  0.2630    2.82600
  0.2650    2.35670
  0.2670    1.89110
  0.2690    1.43150
  0.2710    0.98280
  0.2730    0.54730
  0.2750    0.12160
  0.2770   -0.29680
  0.2790   -0.71090
  0.2810   -1.11620
  0.2830   -1.50710
  0.2850   -1.88750
  0.2870   -2.25990
  0.2890   -2.62300
  0.2910   -2.97520
  0.2930   -3.31510
  0.2950   -3.64450
  0.2970   -3.96380
  0.2990   -4.27200
  0.3010   -4.56840
  0.3030   -4.85230
  0.3050   -5.12420
  0.3070   -5.38740
  0.3090   -5.64100
  0.3110   -5.88300
  0.3130   -6.11340
  0.3150   -6.33290
  0.3170   -6.54210
  0.3190   -6.73990
  0.3210   -6.92750
  0.3230   -7.10430
  0.3250   -7.27010
  0.3270   -7.42530
  0.3290   -7.56960
  0.3310   -7.70460
  0.3330   -7.82960
  0.3350   -7.94460
  0.3370   -8.04990
  0.3390   -8.14610
  0.3410   -8.23240
  0.3430   -8.30970
  0.3450   -8.37860
  0.3470   -8.43910
  0.3490   -8.49120
  0.3510   -8.53490
  0.3530   -8.57130
  0.3550   -8.60010
  0.3570   -8.62250
  0.3590   -8.63850
  0.3610   -8.64760
  0.3630   -8.65010
  0.3650   -8.64550
  0.3670   -8.63560
  0.3690   -8.62140
  0.3710   -8.60110
  0.3730   -8.57510
  0.3750   -8.54460
  0.3770   -8.50950
  0.3790   -8.46990
  0.3810   -8.42610
  0.3830   -8.37810
  0.3850   -8.32670
  0.3870   -8.27210
  0.3890   -8.21370
  0.3910   -8.15160
  0.3930   -8.08610
  0.3950   -8.01760
  0.3970   -7.94620
  0.3990   -7.87180
  0.4010   -7.79430
  0.4030   -7.71390
  0.4050   -7.63090
  0.4070   -7.54530
  0.4090   -7.45730
  0.4110   -7.36660
  0.4130   -7.27340
  0.4150   -7.17780
  0.4170   -7.07990
  0.4190   -6.97990
  0.4210   -6.87810
  0.4230   -6.77420
  0.4250   -6.66810
  0.4270   -6.56020
  0.4290   -6.45060
  0.4310   -6.33900
  0.4330   -6.22550
  0.4350   -6.11080
  0.4370   -5.99460
  0.4390   -5.87680
  0.4410   -5.75760
  0.4430   -5.63750
  0.4450   -5.51670
  0.4470   -5.39470
  0.4490   -5.27180
  0.4510   -5.14810
  0.4530   -5.02370
  0.4550   -4.89890
  0.4570   -4.77400
  0.4590   -4.64880
  0.4610   -4.52340
  0.4630   -4.39830
  0.4650   -4.27300
  0.4670   -4.14780
  0.4690   -4.02310
  0.4710   -3.89900
  0.4730   -3.77530
  0.4750   -3.65240
  0.4770   -3.53020
  0.4790   -3.40910
  0.4810   -3.28910
  0.4830   -3.17000
  0.4850   -3.05220
  0.4870   -2.93600
  0.4890   -2.82110
  0.4910   -2.70770
  0.4930   -2.59590
  0.4950   -2.48590
  0.4970   -2.37790
  0.4990   -2.27170
  0.5010   -2.16760
  0.5030   -2.06550
  0.5050   -1.96520
  0.5070   -1.86690
  0.5090   -1.77130
  0.5110   -1.67770
  0.5130   -1.58630
  0.5150   -1.49690
  0.5170   -1.40960
  0.5190   -1.32500
  0.5210   -1.24280
  0.5230   -1.16290
  0.5250   -1.08550
  0.5270   -1.01080
  0.5290   -0.93830
  0.5310   -0.86810
  0.5330   -0.80050
  0.5350   -0.73540
  0.5370   -0.67280
  0.5390   -0.61290
  0.5410   -0.55530
  0.5430   -0.50000
  0.5450   -0.44700
  0.5470   -0.39640
  0.5490   -0.34850
  0.5510   -0.30280
  0.5530   -0.25930
  0.5550   -0.21840
  0.5570   -0.18000
  0.5590   -0.14390
  0.5610   -0.10990
  0.5630   -0.07830
  0.5650   -0.04890
  0.5670   -0.02180
  0.5690    0.00330
  0.5710    0.02620
  0.5730    0.04690
  0.5750    0.06530
  0.5770    0.08190
  0.5790    0.09650
  0.5810    0.10920
  0.5830    0.12020
  0.5850    0.12900
  0.5870    0.13610
  0.5890    0.14130
  0.5910    0.14480
  0.5930    0.14680
  0.5950    0.14710
  0.5970    0.14580
  0.5990    0.14290
  0.6010    0.13850
  0.6030    0.13290
  0.6050    0.12590
  0.6070    0.11730
  0.6090    0.10750
  0.6110    0.09660
  0.6130    0.08460
  0.6150    0.07150
  0.6170    0.05740
  0.6190    0.04230
  0.6210    0.02600
  0.6230    0.00900
  0.6250   -0.00860
  0.6270   -0.02680
  0.6290   -0.04560
  0.6310   -0.06520
  0.6330   -0.08500
  0.6350   -0.10530
  0.6370   -0.12620
  0.6390   -0.14740
  0.6410   -0.16920
  0.6430   -0.19090
  0.6450   -0.21280
  0.6470   -0.23500
  0.6490   -0.25680
  0.6510   -0.27880
  0.6530   -0.30090
  0.6550   -0.32290
  0.6570   -0.34480
  0.6590   -0.36640
  0.6610   -0.38760
  0.6630   -0.40860
  0.6650   -0.42910
  0.6670   -0.44920
  0.6690   -0.46920
  0.6710   -0.48880
  0.6730   -0.50770
  0.6750   -0.52610
  0.6770   -0.54410
  0.6790   -0.56130
  0.6810   -0.57780
  0.6830   -0.59360
  0.6850   -0.60860
  0.6870   -0.62310
  0.6890   -0.63690
  0.6910   -0.64960
  0.6930   -0.66160
  0.6950   -0.67300
  0.6970   -0.68350
  0.6990   -0.69330
  0.7010   -0.70230
  0.7030   -0.71030
  0.7050   -0.71740
  0.7070   -0.72380
  0.7090   -0.72940
  0.7110   -0.73410
  0.7130   -0.73810
  0.7150   -0.74120
  0.7170   -0.74350
  0.7190   -0.74490
  0.7210   -0.74550
  0.7230   -0.74550
  0.7250   -0.74450
  0.7270   -0.74270
  0.7290   -0.74020
  0.7310   -0.73700
  0.7330   -0.73300
  0.7350   -0.72820
  0.7370   -0.72290
  0.7390   -0.71690
  0.7410   -0.71020
  0.7430   -0.70300
  0.7450   -0.69510
  0.7470   -0.68660
  0.7490   -0.67760
  0.7510   -0.66790
  0.7530   -0.65770
  0.7550   -0.64710
  0.7570   -0.63600
  0.7590   -0.62440
  0.7610   -0.61250
  0.7630   -0.60020
  0.7650   -0.58760
  0.7670   -0.57470
  0.7690   -0.56140
  0.7710   -0.54780
  0.7730   -0.53400
  0.7750   -0.52000
  0.7770   -0.50570
  0.7790   -0.49120
  0.7810   -0.47660
  0.7830   -0.46200
  0.7850   -0.44710
  0.7870   -0.43220
  0.7890   -0.41720
  0.7910   -0.40210
  0.7930   -0.38690
  0.7950   -0.37170
  0.7970   -0.35650
  0.7990   -0.34140
  0.8010   -0.32620
  0.8030   -0.31110
  0.8050   -0.29620
  0.8070   -0.28130
  0.8090   -0.26650
  0.8110   -0.25180
  0.8130   -0.23730
  0.8150   -0.22280
  0.8170   -0.20840
  0.8190   -0.19440
  0.8210   -0.18060
  0.8230   -0.16690
  0.8250   -0.15340
  0.8270   -0.14020
  0.8290   -0.12730
  0.8310   -0.11460
  0.8330   -0.10230
  0.8350   -0.09020
  0.8370   -0.07830
  0.8390   -0.06670
  0.8410   -0.05540
  0.8430   -0.04450
  0.8450   -0.03380
  0.8470   -0.02360
  0.8490   -0.01350
  0.8510   -0.00380
  0.8530    0.00540
  0.8550    0.01430
  0.8570    0.02270
  0.8590    0.03080
  0.8610    0.03850
  0.8630    0.04580
  0.8650    0.05280
  0.8670    0.05930
  0.8690    0.06540
  0.8710    0.07110
  0.8730    0.07650
  0.8750    0.08130
  0.8770    0.08570
  0.8790    0.08980
  0.8810    0.09350
  0.8830    0.09660
  0.8850    0.09940
  0.8870    0.10180
  0.8890    0.10370
  0.8910    0.10510
  0.8930    0.10620
  0.8950    0.10700
  0.8970    0.10740
  0.8990    0.10740
  0.9010    0.10710
  0.9030    0.10640
  0.9050    0.10530
  0.9070    0.10400
  0.9090    0.10230
  0.9110    0.10020
  0.9130    0.09780
  0.9150    0.09500
  0.9170    0.09210
  0.9190    0.08890
  0.9210    0.08530
  0.9230    0.08150
  0.9250    0.07750
  0.9270    0.07330
  0.9290    0.06880
  0.9310    0.06410
  0.9330    0.05940
  0.9350    0.05430
  0.9370    0.04900
  0.9390    0.04360
  0.9410    0.03810
  0.9430    0.03250
  0.9450    0.02670
  0.9470    0.02070
  0.9490    0.01460
  0.9510    0.00850
  0.9530    0.00210
  0.9550   -0.00420
  0.9570   -0.01060
  0.9590   -0.01700
  0.9610   -0.02340
  0.9630   -0.02990
  0.9650   -0.03650
  0.9670   -0.04300
  0.9690   -0.04950
  0.9710   -0.05600
  0.9730   -0.06240
  0.9750   -0.06890
  0.9770   -0.07510
  0.9790   -0.08130
  0.9810   -0.08750
  0.9830   -0.09370
  0.9850   -0.09970
  0.9870   -0.10560
  0.9890   -0.11140
  0.9910   -0.11710
  0.9930   -0.12250
  0.9950   -0.12780
  0.9970   -0.13300
  0.9990   -0.13800
  1.0010   -0.14290
  1.0030   -0.14750
  1.0050   -0.15200
  1.0070   -0.15630
  1.0090   -0.16030
  1.0110   -0.16410
  1.0130   -0.16770
  1.0150   -0.17100
  1.0170   -0.17410
  1.0190   -0.17700
  1.0210   -0.17960
  1.0230   -0.18190
  1.0250   -0.18400
  1.0270   -0.18580
  1.0290   -0.18740
  1.0310   -0.18880
  1.0330   -0.18990
  1.0350   -0.19080
  1.0370   -0.19160
  1.0390   -0.19210
  1.0410   -0.19230
  1.0430   -0.19220
  1.0450   -0.19200
  1.0470   -0.19160
  1.0490   -0.19110
  1.0510   -0.19040
  1.0530   -0.18950
  1.0550   -0.18850
  1.0570   -0.18730
  1.0590   -0.18590
  1.0610   -0.18440
  1.0630   -0.18270
  1.0650   -0.18100
  1.0670   -0.17900
  1.0690   -0.17710
  1.0710   -0.17500
  1.0730   -0.17290
  1.0750   -0.17050
  1.0770   -0.16800
  1.0790   -0.16560
  1.0810   -0.16320
  1.0830   -0.16060
  1.0850   -0.15790
  1.0870   -0.15530
  1.0890   -0.15270
  1.0910   -0.15000
  1.0930   -0.14720
  1.0950   -0.14440
  1.0970   -0.14170
  1.0990   -0.13900
  1.1010   -0.13630
  1.1030   -0.13350
  1.1050   -0.13080
  1.1070   -0.12810
  1.1090   -0.12530
  1.1110   -0.12260
  1.1130   -0.11980
  1.1150   -0.11700
  1.1170   -0.11430
  1.1190   -0.11170
  1.1210   -0.10910
  1.1230   -0.10650
  1.1250   -0.10390
  1.1270   -0.10140
  1.1290   -0.09870
  1.1310   -0.09600
  1.1330   -0.09330
  1.1350   -0.09060
  1.1370   -0.08800
  1.1390   -0.08550
  1.1410   -0.08300
  1.1430   -0.08040
  1.1450   -0.07780
  1.1470   -0.07540
  1.1490   -0.07300
  1.1510   -0.07070
  1.1530   -0.06820
  1.1550   -0.06570
  1.1570   -0.06330
  1.1590   -0.06090
  1.1610   -0.05870
  1.1630   -0.05650
  1.1650   -0.05430
  1.1670   -0.05220
  1.1690   -0.05020
  1.1710   -0.04810
  1.1730   -0.04600
  1.1750   -0.04400
  1.1770   -0.04200
  1.1790   -0.04000
  1.1810   -0.03820
  1.1830   -0.03640
  1.1850   -0.03470
  1.1870   -0.03290
  1.1890   -0.03120
  1.1910   -0.02960
  1.1930   -0.02780
  1.1950   -0.02620
  1.1970   -0.02460
  1.1990   -0.02300
  1.2010   -0.02140
  1.2030   -0.01990
  1.2050   -0.01830
  1.2070   -0.01680
  1.2090   -0.01550
  1.2110   -0.01410
  1.2130   -0.01280
  1.2150   -0.01150
  1.2170   -0.01020
  1.2190   -0.00900
  1.2210   -0.00780
  1.2230   -0.00670
  1.2250   -0.00560
  1.2270   -0.00450
  1.2290   -0.00360
  1.2310   -0.00270
  1.2330   -0.00180
  1.2350   -0.00100
  1.2370   -0.00020
  1.2390    0.00060
  1.2410    0.00130
  1.2430    0.00200
  1.2450    0.00260
  1.2470    0.00320
  1.2490    0.00370
  1.2510    0.00410
  1.2530    0.00440
  1.2550    0.00460
  1.2570    0.00470
  1.2590    0.00490
  1.2610    0.00490
  1.2630    0.00480
  1.2650    0.00470
  1.2670    0.00460
  1.2690    0.00430
  1.2710    0.00400
  1.2730    0.00360
  1.2750    0.00320
  1.2770    0.00280
  1.2790    0.00230
  1.2810    0.00180
  1.2830    0.00120
  1.2850    0.00060
  1.2870   -0.00010
  1.2890   -0.00080
  1.2910   -0.00170
  1.2930   -0.00250
  1.2950   -0.00330
  1.2970   -0.00410
  1.2990   -0.00500
  1.3010   -0.00580
  1.3030   -0.00680
  1.3050   -0.00770
  1.3070   -0.00860
  1.3090   -0.00950
  1.3110   -0.01040
  1.3130   -0.01120
  1.3150   -0.01190
  1.3170   -0.01260
  1.3190   -0.01330
  1.3210   -0.01380
  1.3230   -0.01440
  1.3250   -0.01470
  1.3270   -0.01490
  1.3290   -0.01500
  1.3310   -0.01510
  1.3330   -0.01510
  1.3350   -0.01490
  1.3370   -0.01470
  1.3390   -0.01430
  1.3410   -0.01380
  1.3430   -0.01310
  1.3450   -0.01220
  1.3470   -0.01110
  1.3490   -0.01000
  1.3510   -0.00870
  1.3530   -0.00710
  1.3550   -0.00550
  1.3570   -0.00380
  1.3590   -0.00190
  1.3610    0.00020
  1.3630    0.00230
  1.3650    0.00450
  1.3670    0.00680
  1.3690    0.00940
  1.3710    0.01190
  1.3730    0.01450
  1.3750    0.01720
  1.3770    0.02000
  1.3790    0.02280
  1.3810    0.02590
  1.3830    0.02900
  1.3850    0.03190
  1.3870    0.03480
  1.3890    0.03730
  1.3910    0.03980
  1.3930    0.04220
  1.3950    0.04450
  1.3970    0.04630
  1.3990    0.04800
