# z (nm)   (kJ/mol)
  0.255000, -3.100900
  0.257000, -4.081900
  0.259000, -5.063700
  0.261000, -6.054800
  0.263000, -7.043400
  0.265000, -8.032500
  0.267000, -9.025600
  0.269000,-10.019400
  0.271000,-11.011200
  0.273000,-11.995100
  0.275000,-12.968000
  0.277000,-13.926300
  0.279000,-14.871000
  0.281000,-15.796900
  0.283000,-16.699400
  0.285000,-17.578400
  0.287000,-18.429700
  0.289000,-19.246800
  0.291000,-20.029100
  0.293000,-20.779900
  0.295000,-21.499200
  0.297000,-22.187700
  0.299000,-22.846500
  0.301000,-23.475600
  0.303000,-24.074800
  0.305000,-24.644800
  0.307000,-25.186900
  0.309000,-25.702100
  0.311000,-26.189700
  0.313000,-26.647500
  0.315000,-27.075500
  0.317000,-27.476500
  0.319000,-27.849500
  0.321000,-28.193400
  0.323000,-28.508400
  0.325000,-28.793300
  0.327000,-29.049800
  0.329000,-29.279500
  0.331000,-29.480500
  0.333000,-29.652900
  0.335000,-29.796700
  0.337000,-29.913800
  0.339000,-30.005500
  0.341000,-30.069200
  0.343000,-30.107500
  0.345000,-30.122600
  0.347000,-30.112400
  0.349000,-30.077000
  0.351000,-30.018800
  0.353000,-29.938500
  0.355000,-29.836200
  0.357000,-29.711800
  0.359000,-29.566200
  0.361000,-29.404900
  0.363000,-29.229900
  0.365000,-29.038100
  0.367000,-28.831100
  0.369000,-28.610200
  0.371000,-28.377700
  0.373000,-28.136700
  0.375000,-27.884800
  0.377000,-27.622400
  0.379000,-27.357100
  0.381000,-27.089200
  0.383000,-26.813800
  0.385000,-26.531300
  0.387000,-26.244000
  0.389000,-25.952900
  0.391000,-25.661600
  0.393000,-25.371300
  0.395000,-25.080500
  0.397000,-24.788100
  0.399000,-24.494900
  0.401000,-24.204500
  0.403000,-23.915500
  0.405000,-23.627500
  0.407000,-23.342500
  0.409000,-23.060100
  0.411000,-22.780500
  0.413000,-22.504300
  0.415000,-22.231300
  0.417000,-21.961900
  0.419000,-21.696000
  0.421000,-21.434000
  0.423000,-21.175500
  0.425000,-20.921000
  0.427000,-20.670600
  0.429000,-20.423300
  0.431000,-20.180000
  0.433000,-19.941200
  0.435000,-19.706600
  0.437000,-19.476200
  0.439000,-19.249800
  0.441000,-19.026900
  0.443000,-18.808700
  0.445000,-18.595400
  0.447000,-18.384700
  0.449000,-18.176900
  0.451000,-17.973600
  0.453000,-17.774000
  0.455000,-17.577700
  0.457000,-17.385700
  0.459000,-17.197100
  0.461000,-17.011300
  0.463000,-16.829200
  0.465000,-16.650500
  0.467000,-16.475300
  0.469000,-16.302000
  0.471000,-16.130300
  0.473000,-15.962300
  0.475000,-15.798000
  0.477000,-15.636300
  0.479000,-15.476800
  0.481000,-15.319200
  0.483000,-15.164600
  0.485000,-15.012700
  0.487000,-14.862100
  0.489000,-14.713600
  0.491000,-14.566600
  0.493000,-14.420800
  0.495000,-14.277300
  0.497000,-14.135100
  0.499000,-13.993900
  0.501000,-13.854500
  0.503000,-13.716300
  0.505000,-13.578100
  0.507000,-13.440700
  0.509000,-13.304500
  0.511000,-13.169000
  0.513000,-13.034200
  0.515000,-12.899900
  0.517000,-12.765700
  0.519000,-12.632000
  0.521000,-12.498800
  0.523000,-12.365600
  0.525000,-12.232900
  0.527000,-12.100800
  0.529000,-11.968700
  0.531000,-11.836800
  0.533000,-11.704700
  0.535000,-11.572700
  0.537000,-11.440800
  0.539000,-11.309200
  0.541000,-11.177700
  0.543000,-11.046200
  0.545000,-10.914700
  0.547000,-10.783300
  0.549000,-10.652300
  0.551000,-10.521600
  0.553000,-10.391100
  0.555000,-10.260900
  0.557000,-10.130900
  0.559000,-10.001200
  0.561000, -9.872000
  0.563000, -9.743100
  0.565000, -9.614700
  0.567000, -9.486900
  0.569000, -9.359500
  0.571000, -9.232800
  0.573000, -9.106400
  0.575000, -8.980200
  0.577000, -8.854800
  0.579000, -8.730100
  0.581000, -8.605600
  0.583000, -8.481800
  0.585000, -8.358600
  0.587000, -8.235700
  0.589000, -8.113700
  0.591000, -7.992200
  0.593000, -7.871100
  0.595000, -7.750300
  0.597000, -7.629700
  0.599000, -7.509600
  0.601000, -7.389900
  0.603000, -7.270500
  0.605000, -7.151500
  0.607000, -7.032900
  0.609000, -6.914400
  0.611000, -6.796100
  0.613000, -6.677800
  0.615000, -6.559700
  0.617000, -6.441900
  0.619000, -6.324100
  0.621000, -6.206400
  0.623000, -6.088400
  0.625000, -5.969900
  0.627000, -5.852100
  0.629000, -5.734800
  0.631000, -5.617300
  0.633000, -5.500100
  0.635000, -5.382900
  0.637000, -5.265600
  0.639000, -5.149200
  0.641000, -5.033200
  0.643000, -4.916700
  0.645000, -4.800400
  0.647000, -4.684800
  0.649000, -4.568700
  0.651000, -4.453400
  0.653000, -4.339100
  0.655000, -4.224700
  0.657000, -4.111600
  0.659000, -4.000000
  0.661000, -3.888700
  0.663000, -3.778000
  0.665000, -3.669100
  0.667000, -3.561100
  0.669000, -3.454000
  0.671000, -3.349400
  0.673000, -3.246900
  0.675000, -3.145700
  0.677000, -3.046200
  0.679000, -2.947400
  0.681000, -2.850200
  0.683000, -2.756000
  0.685000, -2.664200
  0.687000, -2.574000
  0.689000, -2.486000
  0.691000, -2.400500
  0.693000, -2.316700
  0.695000, -2.235400
  0.697000, -2.156600
  0.699000, -2.080200
  0.701000, -2.006500
  0.703000, -1.935600
  0.705000, -1.867300
  0.707000, -1.801300
  0.709000, -1.738600
  0.711000, -1.678700
  0.713000, -1.621200
  0.715000, -1.566400
  0.717000, -1.514300
  0.719000, -1.464800
  0.721000, -1.417900
  0.723000, -1.373600
  0.725000, -1.332000
  0.727000, -1.292700
  0.729000, -1.255700
  0.731000, -1.221200
  0.733000, -1.189100
  0.735000, -1.159300
  0.737000, -1.131500
  0.739000, -1.105600
  0.741000, -1.081300
  0.743000, -1.059300
  0.745000, -1.039300
  0.747000, -1.020900
  0.749000, -1.004000
  0.751000, -0.988500
  0.753000, -0.974400
  0.755000, -0.961700
  0.757000, -0.950300
  0.759000, -0.940100
  0.761000, -0.931200
  0.763000, -0.923400
  0.765000, -0.916300
  0.767000, -0.909800
  0.769000, -0.904000
  0.771000, -0.899000
  0.773000, -0.894600
  0.775000, -0.890600
  0.777000, -0.887000
  0.779000, -0.883800
  0.781000, -0.880800
  0.783000, -0.878100
  0.785000, -0.875400
  0.787000, -0.872900
  0.789000, -0.870400
  0.791000, -0.867900
  0.793000, -0.865400
  0.795000, -0.863000
  0.797000, -0.860400
  0.799000, -0.857700
  0.801000, -0.854900
  0.803000, -0.851900
  0.805000, -0.848800
  0.807000, -0.845500
  0.809000, -0.841800
  0.811000, -0.837900
  0.813000, -0.833800
  0.815000, -0.829500
  0.817000, -0.824900
  0.819000, -0.820100
  0.821000, -0.815100
  0.823000, -0.810000
  0.825000, -0.804500
  0.827000, -0.798700
  0.829000, -0.792600
  0.831000, -0.786400
  0.833000, -0.779900
  0.835000, -0.773200
  0.837000, -0.766200
  0.839000, -0.759000
  0.841000, -0.751500
  0.843000, -0.744000
  0.845000, -0.736300
  0.847000, -0.728500
  0.849000, -0.720700
  0.851000, -0.712500
  0.853000, -0.704100
  0.855000, -0.695600
  0.857000, -0.686900
  0.859000, -0.678000
  0.861000, -0.669400
  0.863000, -0.660900
  0.865000, -0.652200
  0.867000, -0.643500
  0.869000, -0.634800
  0.871000, -0.626200
  0.873000, -0.617600
  0.875000, -0.608800
  0.877000, -0.600200
  0.879000, -0.591700
  0.881000, -0.583300
  0.883000, -0.574700
  0.885000, -0.566000
  0.887000, -0.557500
  0.889000, -0.549000
  0.891000, -0.540700
  0.893000, -0.532300
  0.895000, -0.523900
  0.897000, -0.515300
  0.899000, -0.506800
  0.901000, -0.498500
  0.903000, -0.490300
  0.905000, -0.482100
  0.907000, -0.474000
  0.909000, -0.465800
  0.911000, -0.457600
  0.913000, -0.449600
  0.915000, -0.441500
  0.917000, -0.433400
  0.919000, -0.425300
  0.921000, -0.417300
  0.923000, -0.409200
  0.925000, -0.401200
  0.927000, -0.393200
  0.929000, -0.385100
  0.931000, -0.377000
  0.933000, -0.368800
  0.935000, -0.360800
  0.937000, -0.353100
  0.939000, -0.345400
  0.941000, -0.337500
  0.943000, -0.329800
  0.945000, -0.322100
  0.947000, -0.314200
  0.949000, -0.306300
  0.951000, -0.298400
  0.953000, -0.290500
  0.955000, -0.282600
  0.957000, -0.274500
  0.959000, -0.266500
  0.961000, -0.258800
  0.963000, -0.251100
  0.965000, -0.243600
  0.967000, -0.236200
  0.969000, -0.228900
  0.971000, -0.222000
  0.973000, -0.215100
  0.975000, -0.208300
  0.977000, -0.201400
  0.979000, -0.194700
  0.981000, -0.188300
  0.983000, -0.181900
  0.985000, -0.175800
  0.987000, -0.169900
  0.989000, -0.164000
  0.991000, -0.158300
  0.993000, -0.152900
  0.995000, -0.147800
  0.997000, -0.142900
  0.999000, -0.138100
  1.001000, -0.133600
  1.003000, -0.129400
  1.005000, -0.125300
  1.007000, -0.121600
  1.009000, -0.118200
  1.011000, -0.114800
  1.013000, -0.111700
  1.015000, -0.108900
  1.017000, -0.106400
  1.019000, -0.104100
  1.021000, -0.102000
  1.023000, -0.100100
  1.025000, -0.098500
  1.027000, -0.097200
  1.029000, -0.096100
  1.031000, -0.095000
  1.033000, -0.094300
  1.035000, -0.093900
  1.037000, -0.093600
  1.039000, -0.093500
  1.041000, -0.093500
  1.043000, -0.093800
  1.045000, -0.094200
  1.047000, -0.094700
  1.049000, -0.095400
  1.051000, -0.096200
  1.053000, -0.097100
  1.055000, -0.098200
  1.057000, -0.099300
  1.059000, -0.100600
  1.061000, -0.102000
  1.063000, -0.103400
  1.065000, -0.104700
  1.067000, -0.106000
  1.069000, -0.107400
  1.071000, -0.108900
  1.073000, -0.110400
  1.075000, -0.112000
  1.077000, -0.113600
  1.079000, -0.114800
  1.081000, -0.116100
  1.083000, -0.117400
  1.085000, -0.118700
  1.087000, -0.120000
  1.089000, -0.121200
  1.091000, -0.122400
  1.093000, -0.123400
  1.095000, -0.124400
  1.097000, -0.125200
  1.099000, -0.126000
  1.101000, -0.126700
  1.103000, -0.127200
  1.105000, -0.127600
  1.107000, -0.127900
  1.109000, -0.128100
  1.111000, -0.128000
  1.113000, -0.127900
  1.115000, -0.127700
  1.117000, -0.127300
  1.119000, -0.126800
  1.121000, -0.126300
  1.123000, -0.125700
  1.125000, -0.124900
  1.127000, -0.123900
  1.129000, -0.122800
  1.131000, -0.121600
  1.133000, -0.120300
  1.135000, -0.118900
  1.137000, -0.117400
  1.139000, -0.115800
  1.141000, -0.114100
  1.143000, -0.112400
  1.145000, -0.110500
  1.147000, -0.108500
  1.149000, -0.106500
  1.151000, -0.104400
  1.153000, -0.102200
  1.155000, -0.099900
  1.157000, -0.097600
  1.159000, -0.095200
  1.161000, -0.092900
  1.163000, -0.090400
  1.165000, -0.087900
  1.167000, -0.085300
  1.169000, -0.082800
  1.171000, -0.080300
  1.173000, -0.077700
  1.175000, -0.075200
  1.177000, -0.072700
  1.179000, -0.070100
  1.181000, -0.067500
  1.183000, -0.064900
  1.185000, -0.062300
  1.187000, -0.059700
  1.189000, -0.057300
  1.191000, -0.054900
  1.193000, -0.052400
  1.195000, -0.050000
  1.197000, -0.047600
  1.199000, -0.045300
  1.201000, -0.043000
  1.203000, -0.040800
  1.205000, -0.038600
  1.207000, -0.036500
  1.209000, -0.034400
  1.211000, -0.032600
  1.213000, -0.030800
  1.215000, -0.028900
  1.217000, -0.027100
  1.219000, -0.025400
  1.221000, -0.023800
  1.223000, -0.022200
  1.225000, -0.020800
  1.227000, -0.019400
  1.229000, -0.018100
  1.231000, -0.016800
  1.233000, -0.015600
  1.235000, -0.014400
  1.237000, -0.013300
  1.239000, -0.012300
  1.241000, -0.011400
  1.243000, -0.010500
  1.245000, -0.009700
  1.247000, -0.009000
  1.249000, -0.008300
  1.251000, -0.007700
  1.253000, -0.007100
  1.255000, -0.006500
  1.257000, -0.005900
  1.259000, -0.005400
  1.261000, -0.004900
  1.263000, -0.004500
  1.265000, -0.004200
  1.267000, -0.003900
  1.269000, -0.003700
  1.271000, -0.003400
  1.273000, -0.003200
  1.275000, -0.003000
  1.277000, -0.002900
  1.279000, -0.002600
  1.281000, -0.002500
  1.283000, -0.002500
  1.285000, -0.002400
  1.287000, -0.002400
  1.289000, -0.002400
  1.291000, -0.002300
  1.293000, -0.002300
  1.295000, -0.002400
  1.297000, -0.002400
  1.299000, -0.002300
  1.301000, -0.002300
  1.303000, -0.002400
  1.305000, -0.002500
  1.307000, -0.002600
  1.309000, -0.002600
  1.311000, -0.002800
  1.313000, -0.002800
  1.315000, -0.002800
  1.317000, -0.002900
  1.319000, -0.002900
  1.321000, -0.002700
  1.323000, -0.002500
  1.325000, -0.002200
  1.327000, -0.001900
  1.329000, -0.001700
  1.331000, -0.001300
  1.333000, -0.000900
  1.335000, -0.000300
  1.337000,  0.000300
  1.339000,  0.001000
  1.341000,  0.001900
  1.343000,  0.002900
  1.345000,  0.004000
  1.347000,  0.005100
  1.349000,  0.006400
  1.351000,  0.007700
  1.353000,  0.009100
  1.355000,  0.010600
  1.357000,  0.012100
  1.359000,  0.013700
  1.361000,  0.015500
  1.363000,  0.017400
  1.365000,  0.019400
  1.367000,  0.021300
  1.369000,  0.023300
  1.371000,  0.025400
  1.373000,  0.027500
  1.375000,  0.029700
  1.377000,  0.031800
  1.379000,  0.033600
  1.381000,  0.035500
  1.383000,  0.037500
  1.385000,  0.039400
  1.387000,  0.041100
  1.389000,  0.042600
  1.391000,  0.043800
  1.393000,  0.044700
  1.395000,  0.045300
  1.397000,  0.045700
  1.399000,  0.045700
