# z (nm)   (kJ/mol)
  0.1280  254.56732
  0.1300  251.21052
  0.1320  248.62585
  0.1340  246.32975
  0.1360  244.07857
  0.1380  241.80450
  0.1400  239.65273
  0.1420  237.41910
  0.1440  235.18280
  0.1460  232.83586
  0.1480  230.42895
  0.1500  227.89714
  0.1520  225.20963
  0.1540  222.33523
  0.1560  219.25369
  0.1580  215.94317
  0.1600  212.39022
  0.1620  208.58640
  0.1640  204.54742
  0.1660  200.29655
  0.1680  195.86731
  0.1700  191.30689
  0.1720  186.66870
  0.1740  182.00747
  0.1760  177.37113
  0.1780  172.80268
  0.1800  168.33362
  0.1820  163.98825
  0.1840  159.78217
  0.1860  155.72497
  0.1880  151.83229
  0.1900  148.10652
  0.1920  144.54213
  0.1940  141.10494
  0.1960  137.74992
  0.1980  134.41308
  0.2000  131.05234
  0.2020  127.64277
  0.2040  124.19762
  0.2060  120.76318
  0.2080  117.40035
  0.2100  114.15164
  0.2120  111.02968
  0.2140  108.00225
  0.2160  105.01431
  0.2180  102.01404
  0.2200   98.99850
  0.2220   96.00057
  0.2240   93.04505
  0.2260   90.12948
  0.2280   87.23633
  0.2300   84.32667
  0.2320   81.39436
  0.2340   78.46082
  0.2360   75.56669
  0.2380   72.75577
  0.2400   70.04886
  0.2420   67.45675
  0.2440   64.96267
  0.2460   62.53722
  0.2480   60.14278
  0.2500   57.76317
  0.2520   55.38008
  0.2540   52.99125
  0.2560   50.62356
  0.2580   48.29805
  0.2600   46.05283
  0.2620   43.88680
  0.2640   41.79116
  0.2660   39.76238
  0.2680   37.79808
  0.2700   35.87185
  0.2720   33.98667
  0.2740   32.13984
  0.2760   30.33115
  0.2780   28.57048
  0.2800   26.87271
  0.2820   25.22108
  0.2840   23.61499
  0.2860   22.04304
  0.2880   20.48818
  0.2900   18.95779
  0.2920   17.45032
  0.2940   15.97020
  0.2960   14.54012
  0.2980   13.15091
  0.3000   11.82489
  0.3020   10.56339
  0.3040    9.37999
  0.3060    8.27755
  0.3080    7.24011
  0.3100    6.26036
  0.3120    5.29795
  0.3140    4.34001
  0.3160    3.38623
  0.3180    2.42269
  0.3200    1.46986
  0.3220    0.54385
  0.3240   -0.33341
  0.3260   -1.14238
  0.3280   -1.86758
  0.3300   -2.51641
  0.3320   -3.09550
  0.3340   -3.64550
  0.3360   -4.17746
  0.3380   -4.71830
  0.3400   -5.28168
  0.3420   -5.84754
  0.3440   -6.39931
  0.3460   -6.91701
  0.3480   -7.38817
  0.3500   -7.82183
  0.3520   -8.21414
  0.3540   -8.56852
  0.3560   -8.89900
  0.3580   -9.22081
  0.3600   -9.53607
  0.3620   -9.82980
  0.3640  -10.09535
  0.3660  -10.32553
  0.3680  -10.50501
  0.3700  -10.65735
  0.3720  -10.78947
  0.3740  -10.92358
  0.3760  -11.05107
  0.3780  -11.17277
  0.3800  -11.28866
  0.3820  -11.38604
  0.3840  -11.46734
  0.3860  -11.52875
  0.3880  -11.58137
  0.3900  -11.62283
  0.3920  -11.63407
  0.3940  -11.63850
  0.3960  -11.60376
  0.3980  -11.56212
  0.4000  -11.52071
  0.4020  -11.50323
  0.4040  -11.52370
  0.4060  -11.59390
  0.4080  -11.68637
  0.4100  -11.80015
  0.4120  -11.89989
  0.4140  -11.97493
  0.4160  -12.03279
  0.4180  -12.08070
  0.4200  -12.13554
  0.4220  -12.20796
  0.4240  -12.29917
  0.4260  -12.40341
  0.4280  -12.50863
  0.4300  -12.61077
  0.4320  -12.70254
  0.4340  -12.79258
  0.4360  -12.87083
  0.4380  -12.93089
  0.4400  -12.97689
  0.4420  -13.00327
  0.4440  -13.01241
  0.4460  -13.01426
  0.4480  -13.02761
  0.4500  -13.03954
  0.4520  -13.07160
  0.4540  -13.11175
  0.4560  -13.12804
  0.4580  -13.13132
  0.4600  -13.09181
  0.4620  -13.02070
  0.4640  -12.93256
  0.4660  -12.84821
  0.4680  -12.77765
  0.4700  -12.72911
  0.4720  -12.67736
  0.4740  -12.62461
  0.4760  -12.53939
  0.4780  -12.42239
  0.4800  -12.29716
  0.4820  -12.16934
  0.4840  -12.04120
  0.4860  -11.92074
  0.4880  -11.78523
  0.4900  -11.63253
  0.4920  -11.44017
  0.4940  -11.22770
  0.4960  -10.99494
  0.4980  -10.75178
  0.5000  -10.52008
  0.5020  -10.31283
  0.5040  -10.14000
  0.5060  -10.00870
  0.5080   -9.90656
  0.5100   -9.81129
  0.5120   -9.69443
  0.5140   -9.52519
  0.5160   -9.30254
  0.5180   -9.01162
  0.5200   -8.69869
  0.5220   -8.39169
  0.5240   -8.12582
  0.5260   -7.92900
  0.5280   -7.78702
  0.5300   -7.68437
  0.5320   -7.58917
  0.5340   -7.47766
  0.5360   -7.33113
  0.5380   -7.14679
  0.5400   -6.93829
  0.5420   -6.72500
  0.5440   -6.51402
  0.5460   -6.31328
  0.5480   -6.12329
  0.5500   -5.94505
  0.5520   -5.78434
  0.5540   -5.64650
  0.5560   -5.54168
  0.5580   -5.47003
  0.5600   -5.43272
  0.5620   -5.40934
  0.5640   -5.36634
  0.5660   -5.29647
  0.5680   -5.18634
  0.5700   -5.06000
  0.5720   -4.92373
  0.5740   -4.81273
  0.5760   -4.72660
  0.5780   -4.67558
  0.5800   -4.65246
  0.5820   -4.64456
  0.5840   -4.62027
  0.5860   -4.56898
  0.5880   -4.47154
  0.5900   -4.34380
  0.5920   -4.19900
  0.5940   -4.07263
  0.5960   -3.96766
  0.5980   -3.87872
  0.6000   -3.78434
  0.6020   -3.66901
  0.6040   -3.52358
  0.6060   -3.36007
  0.6080   -3.18462
  0.6100   -3.02376
  0.6120   -2.87123
  0.6140   -2.73658
  0.6160   -2.60603
  0.6180   -2.47691
  0.6200   -2.34367
  0.6220   -2.20171
  0.6240   -2.06667
  0.6260   -1.93217
  0.6280   -1.79633
  0.6300   -1.67111
  0.6320   -1.55059
  0.6340   -1.44435
  0.6360   -1.35009
  0.6380   -1.26153
  0.6400   -1.16820
  0.6420   -1.09426
  0.6440   -1.02133
  0.6460   -0.93670
  0.6480   -0.84673
  0.6500   -0.75088
  0.6520   -0.65929
  0.6540   -0.57329
  0.6560   -0.49846
  0.6580   -0.44506
  0.6600   -0.40992
  0.6620   -0.40442
  0.6640   -0.40948
  0.6660   -0.41754
  0.6680   -0.43751
  0.6700   -0.44852
  0.6720   -0.45572
  0.6740   -0.46551
  0.6760   -0.47582
  0.6780   -0.49826
  0.6800   -0.53320
  0.6820   -0.56816
  0.6840   -0.59022
  0.6860   -0.61635
  0.6880   -0.63686
  0.6900   -0.65301
  0.6920   -0.68420
  0.6940   -0.71959
  0.6960   -0.77248
  0.6980   -0.83183
  0.7000   -0.89780
  0.7020   -0.96320
  0.7040   -1.02242
  0.7060   -1.07090
  0.7080   -1.09776
  0.7100   -1.10880
  0.7120   -1.11199
  0.7140   -1.10687
  0.7160   -1.10645
  0.7180   -1.11825
  0.7200   -1.13965
  0.7220   -1.17339
  0.7240   -1.21438
  0.7260   -1.26532
  0.7280   -1.31452
  0.7300   -1.35821
  0.7320   -1.40042
  0.7340   -1.43390
  0.7360   -1.46044
  0.7380   -1.49644
  0.7400   -1.52917
  0.7420   -1.55968
  0.7440   -1.60252
  0.7460   -1.63827
  0.7480   -1.66304
  0.7500   -1.67915
  0.7520   -1.68350
  0.7540   -1.68008
  0.7560   -1.66369
  0.7580   -1.64825
  0.7600   -1.64350
  0.7620   -1.64966
  0.7640   -1.67133
  0.7660   -1.69959
  0.7680   -1.73637
  0.7700   -1.77504
  0.7720   -1.82462
  0.7740   -1.86722
  0.7760   -1.89783
  0.7780   -1.89731
  0.7800   -1.86470
  0.7820   -1.80168
  0.7840   -1.71668
  0.7860   -1.63189
  0.7880   -1.55963
  0.7900   -1.50667
  0.7920   -1.47890
  0.7940   -1.47875
  0.7960   -1.50325
  0.7980   -1.54230
  0.8000   -1.57742
  0.8020   -1.60024
  0.8040   -1.60358
  0.8060   -1.57595
  0.8080   -1.51650
  0.8100   -1.43177
  0.8120   -1.33234
  0.8140   -1.23242
  0.8160   -1.15004
  0.8180   -1.09947
  0.8200   -1.08078
  0.8220   -1.09686
  0.8240   -1.12784
  0.8260   -1.16357
  0.8280   -1.18951
  0.8300   -1.18717
  0.8320   -1.15367
  0.8340   -1.08273
  0.8360   -0.98907
  0.8380   -0.87742
  0.8400   -0.76513
  0.8420   -0.67409
  0.8440   -0.60898
  0.8460   -0.58040
  0.8480   -0.57525
  0.8500   -0.59678
  0.8520   -0.61428
  0.8540   -0.62276
  0.8560   -0.62075
  0.8580   -0.59806
  0.8600   -0.56903
  0.8620   -0.52840
  0.8640   -0.49524
  0.8660   -0.46312
  0.8680   -0.43787
  0.8700   -0.40846
  0.8720   -0.38293
  0.8740   -0.34764
  0.8760   -0.32011
  0.8780   -0.28954
  0.8800   -0.26221
  0.8820   -0.23031
  0.8840   -0.21193
  0.8860   -0.20066
  0.8880   -0.19595
  0.8900   -0.19837
  0.8920   -0.20280
  0.8940   -0.21921
  0.8960   -0.23280
  0.8980   -0.24273
  0.9000   -0.24222
  0.9020   -0.22993
  0.9040   -0.21555
  0.9060   -0.20042
  0.9080   -0.17326
  0.9100   -0.13994
  0.9120   -0.11072
  0.9140   -0.08881
  0.9160   -0.08474
  0.9180   -0.10126
  0.9200   -0.13183
  0.9220   -0.15819
  0.9240   -0.17338
  0.9260   -0.16337
  0.9280   -0.14387
  0.9300   -0.10323
  0.9320   -0.07011
  0.9340   -0.03838
  0.9360   -0.01756
  0.9380   -0.01095
  0.9400   -0.01831
  0.9420   -0.02970
  0.9440   -0.03530
  0.9460   -0.03403
  0.9480   -0.02669
  0.9500   -0.02626
  0.9520   -0.03270
  0.9540   -0.03780
  0.9560   -0.04305
  0.9580   -0.04084
  0.9600   -0.02808
  0.9620   -0.01383
  0.9640    0.00378
  0.9660    0.01874
  0.9680    0.02813
  0.9700    0.04988
  0.9720    0.07801
  0.9740    0.12356
  0.9760    0.18247
  0.9780    0.23471
  0.9800    0.27292
  0.9820    0.28259
  0.9840    0.25498
  0.9860    0.21120
  0.9880    0.15275
  0.9900    0.09849
  0.9920    0.08135
  0.9940    0.08548
  0.9960    0.13104
  0.9980    0.18678
  1.0000    0.24522
