# z (nm)   (kJ/mol)
  0.0980  256.02325
  0.1000  253.67403
  0.1020  251.00316
  0.1040  248.18762
  0.1060  245.71983
  0.1080  243.35313
  0.1100  240.95100
  0.1120  238.53144
  0.1140  236.09131
  0.1160  233.60637
  0.1180  231.05863
  0.1200  228.41977
  0.1220  225.66643
  0.1240  222.76333
  0.1260  219.70411
  0.1280  216.48206
  0.1300  213.09776
  0.1320  209.56459
  0.1340  205.91287
  0.1360  202.16209
  0.1380  198.33042
  0.1400  194.42093
  0.1420  190.43416
  0.1440  186.35944
  0.1460  182.17752
  0.1480  177.89072
  0.1500  173.49265
  0.1520  168.99025
  0.1540  164.41489
  0.1560  159.82881
  0.1580  155.33887
  0.1600  151.05887
  0.1620  147.04905
  0.1640  143.27885
  0.1660  139.63775
  0.1680  136.00460
  0.1700  132.34065
  0.1720  128.67651
  0.1740  125.09126
  0.1760  121.65468
  0.1780  118.36996
  0.1800  115.20417
  0.1820  112.09854
  0.1840  109.00385
  0.1860  105.88946
  0.1880  102.75132
  0.1900   99.59113
  0.1920   96.40986
  0.1940   93.22844
  0.1960   90.06292
  0.1980   86.94246
  0.2000   83.88029
  0.2020   80.89524
  0.2040   77.99306
  0.2060   75.17293
  0.2080   72.42505
  0.2100   69.73021
  0.2120   67.07289
  0.2140   64.43102
  0.2160   61.80423
  0.2180   59.19415
  0.2200   56.61469
  0.2220   54.08458
  0.2240   51.61893
  0.2260   49.22167
  0.2280   46.90948
  0.2300   44.68155
  0.2320   42.54063
  0.2340   40.48483
  0.2360   38.49657
  0.2380   36.56553
  0.2400   34.65919
  0.2420   32.76098
  0.2440   30.86283
  0.2460   28.96802
  0.2480   27.09831
  0.2500   25.27243
  0.2520   23.50840
  0.2540   21.82512
  0.2560   20.22857
  0.2580   18.70793
  0.2600   17.26145
  0.2620   15.86474
  0.2640   14.53259
  0.2660   13.23813
  0.2680   11.97521
  0.2700   10.74446
  0.2720    9.52047
  0.2740    8.30780
  0.2760    7.11086
  0.2780    5.94071
  0.2800    4.80652
  0.2820    3.72108
  0.2840    2.70016
  0.2860    1.75020
  0.2880    0.86621
  0.2900    0.04476
  0.2920   -0.71395
  0.2940   -1.42011
  0.2960   -2.09028
  0.2980   -2.73843
  0.3000   -3.38043
  0.3020   -4.01197
  0.3040   -4.63275
  0.3060   -5.24453
  0.3080   -5.84252
  0.3100   -6.40074
  0.3120   -6.92096
  0.3140   -7.38376
  0.3160   -7.79149
  0.3180   -8.15626
  0.3200   -8.47612
  0.3220   -8.77046
  0.3240   -9.04871
  0.3260   -9.30708
  0.3280   -9.55526
  0.3300   -9.79272
  0.3320  -10.03443
  0.3340  -10.26793
  0.3360  -10.50449
  0.3380  -10.74223
  0.3400  -10.97644
  0.3420  -11.20728
  0.3440  -11.42313
  0.3460  -11.64343
  0.3480  -11.85809
  0.3500  -12.08192
  0.3520  -12.31498
  0.3540  -12.55821
  0.3560  -12.80332
  0.3580  -13.04556
  0.3600  -13.27369
  0.3620  -13.47296
  0.3640  -13.63771
  0.3660  -13.76194
  0.3680  -13.86874
  0.3700  -13.96273
  0.3720  -14.06320
  0.3740  -14.16106
  0.3760  -14.25305
  0.3780  -14.32927
  0.3800  -14.38226
  0.3820  -14.41055
  0.3840  -14.41716
  0.3860  -14.40899
  0.3880  -14.38832
  0.3900  -14.35913
  0.3920  -14.32704
  0.3940  -14.29480
  0.3960  -14.25176
  0.3980  -14.18714
  0.4000  -14.09624
  0.4020  -13.99611
  0.4040  -13.87772
  0.4060  -13.73571
  0.4080  -13.58931
  0.4100  -13.44534
  0.4120  -13.29935
  0.4140  -13.15906
  0.4160  -13.02974
  0.4180  -12.90156
  0.4200  -12.76603
  0.4220  -12.62869
  0.4240  -12.47754
  0.4260  -12.32436
  0.4280  -12.15466
  0.4300  -11.96765
  0.4320  -11.78581
  0.4340  -11.60306
  0.4360  -11.42503
  0.4380  -11.26208
  0.4400  -11.12825
  0.4420  -11.00707
  0.4440  -10.89947
  0.4460  -10.79619
  0.4480  -10.68404
  0.4500  -10.56326
  0.4520  -10.42601
  0.4540  -10.27126
  0.4560  -10.12230
  0.4580   -9.97684
  0.4600   -9.84767
  0.4620   -9.73519
  0.4640   -9.63269
  0.4660   -9.55504
  0.4680   -9.48740
  0.4700   -9.41439
  0.4720   -9.33325
  0.4740   -9.25438
  0.4760   -9.17225
  0.4780   -9.08126
  0.4800   -8.97921
  0.4820   -8.87443
  0.4840   -8.77348
  0.4860   -8.67657
  0.4880   -8.59451
  0.4900   -8.52604
  0.4920   -8.46312
  0.4940   -8.40792
  0.4960   -8.35769
  0.4980   -8.28935
  0.5000   -8.20825
  0.5020   -8.11196
  0.5040   -8.01285
  0.5060   -7.90013
  0.5080   -7.79841
  0.5100   -7.70502
  0.5120   -7.62217
  0.5140   -7.56068
  0.5160   -7.51918
  0.5180   -7.49399
  0.5200   -7.48422
  0.5220   -7.48445
  0.5240   -7.49307
  0.5260   -7.49691
  0.5280   -7.49960
  0.5300   -7.48581
  0.5320   -7.45469
  0.5340   -7.41320
  0.5360   -7.35370
  0.5380   -7.28238
  0.5400   -7.20178
  0.5420   -7.12992
  0.5440   -7.05238
  0.5460   -6.96695
  0.5480   -6.88236
  0.5500   -6.80086
  0.5520   -6.70433
  0.5540   -6.60599
  0.5560   -6.50375
  0.5580   -6.40448
  0.5600   -6.29606
  0.5620   -6.18442
  0.5640   -6.05768
  0.5660   -5.92094
  0.5680   -5.75672
  0.5700   -5.57502
  0.5720   -5.36528
  0.5740   -5.14873
  0.5760   -4.92883
  0.5780   -4.71156
  0.5800   -4.50568
  0.5820   -4.32156
  0.5840   -4.14868
  0.5860   -3.98999
  0.5880   -3.82971
  0.5900   -3.65914
  0.5920   -3.47307
  0.5940   -3.26039
  0.5960   -3.02815
  0.5980   -2.77422
  0.6000   -2.51440
  0.6020   -2.25661
  0.6040   -2.01196
  0.6060   -1.78438
  0.6080   -1.59035
  0.6100   -1.42301
  0.6120   -1.28389
  0.6140   -1.16484
  0.6160   -1.05337
  0.6180   -0.94293
  0.6200   -0.82258
  0.6220   -0.70166
  0.6240   -0.58057
  0.6260   -0.45168
  0.6280   -0.33841
  0.6300   -0.24750
  0.6320   -0.18499
  0.6340   -0.15754
  0.6360   -0.16566
  0.6380   -0.20359
  0.6400   -0.25289
  0.6420   -0.30260
  0.6440   -0.35326
  0.6460   -0.39154
  0.6480   -0.42165
  0.6500   -0.43813
  0.6520   -0.45815
  0.6540   -0.47324
  0.6560   -0.49537
  0.6580   -0.51862
  0.6600   -0.54557
  0.6620   -0.57365
  0.6640   -0.60750
  0.6660   -0.64335
  0.6680   -0.67963
  0.6700   -0.71343
  0.6720   -0.75140
  0.6740   -0.78425
  0.6760   -0.81238
  0.6780   -0.84782
  0.6800   -0.86260
  0.6820   -0.87665
  0.6840   -0.88996
  0.6860   -0.89698
  0.6880   -0.90524
  0.6900   -0.90665
  0.6920   -0.91623
  0.6940   -0.91768
  0.6960   -0.92087
  0.6980   -0.91762
  0.7000   -0.91243
  0.7020   -0.90465
  0.7040   -0.89115
  0.7060   -0.87729
  0.7080   -0.86382
  0.7100   -0.84523
  0.7120   -0.84080
  0.7140   -0.83887
  0.7160   -0.83933
  0.7180   -0.85245
  0.7200   -0.86111
  0.7220   -0.86666
  0.7240   -0.87262
  0.7260   -0.87477
  0.7280   -0.87426
  0.7300   -0.87280
  0.7320   -0.86116
  0.7340   -0.85337
  0.7360   -0.84710
  0.7380   -0.83829
  0.7400   -0.83690
  0.7420   -0.83738
  0.7440   -0.83385
  0.7460   -0.83748
  0.7480   -0.84405
  0.7500   -0.85904
  0.7520   -0.87064
  0.7540   -0.88471
  0.7560   -0.90097
  0.7580   -0.91517
  0.7600   -0.92316
  0.7620   -0.92420
  0.7640   -0.91325
  0.7660   -0.90743
  0.7680   -0.88623
  0.7700   -0.86528
  0.7720   -0.84650
  0.7740   -0.82694
  0.7760   -0.81575
  0.7780   -0.80621
  0.7800   -0.81198
  0.7820   -0.82776
  0.7840   -0.83880
  0.7860   -0.85159
  0.7880   -0.85903
  0.7900   -0.85850
  0.7920   -0.84638
  0.7940   -0.83578
  0.7960   -0.80712
  0.7980   -0.77168
  0.8000   -0.72840
  0.8020   -0.67544
  0.8040   -0.62403
  0.8060   -0.57510
  0.8080   -0.53592
  0.8100   -0.51127
  0.8120   -0.50693
  0.8140   -0.52103
  0.8160   -0.54858
  0.8180   -0.59266
  0.8200   -0.64496
  0.8220   -0.68539
  0.8240   -0.71608
  0.8260   -0.72763
  0.8280   -0.71825
  0.8300   -0.68607
  0.8320   -0.64291
  0.8340   -0.58452
  0.8360   -0.52851
  0.8380   -0.47426
  0.8400   -0.44030
  0.8420   -0.42595
  0.8440   -0.42543
  0.8460   -0.44455
  0.8480   -0.47311
  0.8500   -0.50666
  0.8520   -0.53946
  0.8540   -0.56056
  0.8560   -0.57292
  0.8580   -0.57633
  0.8600   -0.56109
  0.8620   -0.52510
  0.8640   -0.48130
  0.8660   -0.42078
  0.8680   -0.35286
  0.8700   -0.28507
  0.8720   -0.22430
  0.8740   -0.16471
  0.8760   -0.12471
  0.8780   -0.09242
  0.8800   -0.07043
  0.8820   -0.06168
  0.8840   -0.05367
  0.8860   -0.05489
  0.8880   -0.05898
  0.8900   -0.05544
  0.8920   -0.05258
  0.8940   -0.04875
  0.8960   -0.04420
  0.8980   -0.04247
  0.9000   -0.04169
  0.9020   -0.03245
  0.9040   -0.02516
  0.9060   -0.00553
  0.9080    0.02591
  0.9100    0.05595
  0.9120    0.08814
  0.9140    0.10609
  0.9160    0.10708
  0.9180    0.09637
  0.9200    0.07043
  0.9220    0.03428
  0.9240   -0.00624
  0.9260   -0.03626
  0.9280   -0.05577
  0.9300   -0.06366
  0.9320   -0.05263
  0.9340   -0.03654
  0.9360   -0.01208
  0.9380    0.01278
  0.9400    0.03160
  0.9420    0.04003
  0.9440    0.03997
  0.9460    0.02793
  0.9480    0.00562
  0.9500   -0.01802
  0.9520   -0.04751
  0.9540   -0.06343
  0.9560   -0.07578
  0.9580   -0.07535
  0.9600   -0.06112
  0.9620   -0.04552
  0.9640   -0.02179
  0.9660    0.00613
  0.9680    0.02488
  0.9700    0.03818
  0.9720    0.04037
  0.9740    0.04211
  0.9760    0.03693
  0.9780    0.03257
  0.9800    0.03002
  0.9820    0.02786
  0.9840    0.02015
  0.9860    0.00911
  0.9880    0.00351
  0.9900   -0.01429
  0.9920   -0.03160
  0.9940   -0.05063
  0.9960   -0.06505
  0.9980   -0.07586
  1.0000   -0.08171
