# z (nm)   (kJ/mol)
  0.074000,268.715420
  0.076000,265.586420
  0.078000,262.854700
  0.080000,260.000010
  0.082000,257.473960
  0.084000,254.949550
  0.086000,252.412860
  0.088000,249.901360
  0.090000,247.326940
  0.092000,244.717660
  0.094000,242.056140
  0.096000,239.313110
  0.098000,236.480080
  0.100000,233.528570
  0.102000,230.454310
  0.104000,227.243860
  0.106000,223.891680
  0.108000,220.395680
  0.110000,216.764200
  0.112000,213.026840
  0.114000,209.194020
  0.116000,205.280260
  0.118000,201.308850
  0.120000,197.290630
  0.122000,193.233170
  0.124000,189.138000
  0.126000,185.017140
  0.128000,180.872920
  0.130000,176.722980
  0.132000,172.580940
  0.134000,168.465620
  0.136000,164.395050
  0.138000,160.381890
  0.140000,156.440180
  0.142000,152.574350
  0.144000,148.791290
  0.146000,145.087030
  0.148000,141.464190
  0.150000,137.911390
  0.152000,134.424680
  0.154000,130.991710
  0.156000,127.596400
  0.158000,124.234980
  0.160000,120.894470
  0.162000,117.569030
  0.164000,114.261840
  0.166000,110.973480
  0.168000,107.718340
  0.170000,104.503930
  0.172000,101.330750
  0.174000, 98.192050
  0.176000, 95.069230
  0.178000, 91.964250
  0.180000, 88.866940
  0.182000, 85.773770
  0.184000, 82.698220
  0.186000, 79.636640
  0.188000, 76.615700
  0.190000, 73.649280
  0.192000, 70.738560
  0.194000, 67.888070
  0.196000, 65.103230
  0.198000, 62.369820
  0.200000, 59.675210
  0.202000, 57.009250
  0.204000, 54.359910
  0.206000, 51.715740
  0.208000, 49.082280
  0.210000, 46.462620
  0.212000, 43.852540
  0.214000, 41.272460
  0.216000, 38.727530
  0.218000, 36.235500
  0.220000, 33.809320
  0.222000, 31.450580
  0.224000, 29.171620
  0.226000, 26.974510
  0.228000, 24.855450
  0.230000, 22.800070
  0.232000, 20.796960
  0.234000, 18.833870
  0.236000, 16.900610
  0.238000, 14.996730
  0.240000, 13.127570
  0.242000, 11.285860
  0.244000,  9.500610
  0.246000,  7.769590
  0.248000,  6.092250
  0.250000,  4.467050
  0.252000,  2.897210
  0.254000,  1.371100
  0.256000, -0.107840
  0.258000, -1.539180
  0.260000, -2.917210
  0.262000, -4.232600
  0.264000, -5.485080
  0.266000, -6.678120
  0.268000, -7.814200
  0.270000, -8.887600
  0.272000, -9.909300
  0.274000,-10.879560
  0.276000,-11.804770
  0.278000,-12.690840
  0.280000,-13.536760
  0.282000,-14.341310
  0.284000,-15.106660
  0.286000,-15.816450
  0.288000,-16.479270
  0.290000,-17.080520
  0.292000,-17.624200
  0.294000,-18.102100
  0.296000,-18.518670
  0.298000,-18.865210
  0.300000,-19.148190
  0.302000,-19.373780
  0.304000,-19.549310
  0.306000,-19.675540
  0.308000,-19.765380
  0.310000,-19.816730
  0.312000,-19.831340
  0.314000,-19.819090
  0.316000,-19.776120
  0.318000,-19.698800
  0.320000,-19.597250
  0.322000,-19.467200
  0.324000,-19.310260
  0.326000,-19.136090
  0.328000,-18.948640
  0.330000,-18.757490
  0.332000,-18.568580
  0.334000,-18.386770
  0.336000,-18.224610
  0.338000,-18.082090
  0.340000,-17.966040
  0.342000,-17.861990
  0.344000,-17.777540
  0.346000,-17.701220
  0.348000,-17.608360
  0.350000,-17.501440
  0.352000,-17.366420
  0.354000,-17.200340
  0.356000,-16.984130
  0.358000,-16.725300
  0.360000,-16.415630
  0.362000,-16.064180
  0.364000,-15.660690
  0.366000,-15.218130
  0.368000,-14.731160
  0.370000,-14.188770
  0.372000,-13.609490
  0.374000,-12.982620
  0.376000,-12.310310
  0.378000,-11.608310
  0.380000,-10.888230
  0.382000,-10.154830
  0.384000, -9.416790
  0.386000, -8.691780
  0.388000, -7.993150
  0.390000, -7.320880
  0.392000, -6.694600
  0.394000, -6.112210
  0.396000, -5.576460
  0.398000, -5.087630
  0.400000, -4.651290
  0.402000, -4.257720
  0.404000, -3.922450
  0.406000, -3.625090
  0.408000, -3.365850
  0.410000, -3.145530
  0.412000, -2.964000
  0.414000, -2.817570
  0.416000, -2.694060
  0.418000, -2.603010
  0.420000, -2.531770
  0.422000, -2.475970
  0.424000, -2.424740
  0.426000, -2.387080
  0.428000, -2.354220
  0.430000, -2.313270
  0.432000, -2.274700
  0.434000, -2.228580
  0.436000, -2.184400
  0.438000, -2.143130
  0.440000, -2.099240
  0.442000, -2.057110
  0.444000, -2.014020
  0.446000, -1.968140
  0.448000, -1.911890
  0.450000, -1.855130
  0.452000, -1.788920
  0.454000, -1.708860
  0.456000, -1.617850
  0.458000, -1.506680
  0.460000, -1.383920
  0.462000, -1.247400
  0.464000, -1.103330
  0.466000, -0.959790
  0.468000, -0.818360
  0.470000, -0.676000
  0.472000, -0.549130
  0.474000, -0.432590
  0.476000, -0.324960
  0.478000, -0.232170
  0.480000, -0.149000
  0.482000, -0.078210
  0.484000, -0.009860
  0.486000,  0.051710
  0.488000,  0.107500
  0.490000,  0.174050
  0.492000,  0.241130
  0.494000,  0.310890
  0.496000,  0.385800
  0.498000,  0.454160
  0.500000,  0.519230
  0.502000,  0.577170
  0.504000,  0.624170
  0.506000,  0.658400
  0.508000,  0.678370
  0.510000,  0.686550
  0.512000,  0.687630
  0.514000,  0.673970
  0.516000,  0.653790
  0.518000,  0.631930
  0.520000,  0.609680
  0.522000,  0.590000
  0.524000,  0.555300
  0.526000,  0.527190
  0.528000,  0.497930
  0.530000,  0.472180
  0.532000,  0.439380
  0.534000,  0.405930
  0.536000,  0.367730
  0.538000,  0.332750
  0.540000,  0.286800
  0.542000,  0.246440
  0.544000,  0.199710
  0.546000,  0.144040
  0.548000,  0.089920
  0.550000,  0.033120
  0.552000, -0.019680
  0.554000, -0.069970
  0.556000, -0.112370
  0.558000, -0.157030
  0.560000, -0.199150
  0.562000, -0.228990
  0.564000, -0.262620
  0.566000, -0.294520
  0.568000, -0.320150
  0.570000, -0.351490
  0.572000, -0.382560
  0.574000, -0.420000
  0.576000, -0.451140
  0.578000, -0.482010
  0.580000, -0.502760
  0.582000, -0.513970
  0.584000, -0.514920
  0.586000, -0.504250
  0.588000, -0.475610
  0.590000, -0.440410
  0.592000, -0.392140
  0.594000, -0.337750
  0.596000, -0.282000
  0.598000, -0.233830
  0.600000, -0.193600
  0.602000, -0.164760
  0.604000, -0.152160
  0.606000, -0.151220
  0.608000, -0.156240
  0.610000, -0.161890
  0.612000, -0.170200
  0.614000, -0.170240
  0.616000, -0.165440
  0.618000, -0.144020
  0.620000, -0.111600
  0.622000, -0.072030
  0.624000, -0.022800
  0.626000,  0.024900
  0.628000,  0.069050
  0.630000,  0.100360
  0.632000,  0.123670
  0.634000,  0.129250
  0.636000,  0.130280
  0.638000,  0.119520
  0.640000,  0.112910
  0.642000,  0.106430
  0.644000,  0.109630
  0.646000,  0.120690
  0.648000,  0.136890
  0.650000,  0.171480
  0.652000,  0.205940
  0.654000,  0.246840
  0.656000,  0.288970
  0.658000,  0.326720
  0.660000,  0.368250
  0.662000,  0.396840
  0.664000,  0.414760
  0.666000,  0.424990
  0.668000,  0.425480
  0.670000,  0.426160
  0.672000,  0.414990
  0.674000,  0.399060
  0.676000,  0.390560
  0.678000,  0.387770
  0.680000,  0.394280
  0.682000,  0.407200
  0.684000,  0.426070
  0.686000,  0.447290
  0.688000,  0.472220
  0.690000,  0.497580
  0.692000,  0.520190
  0.694000,  0.540640
  0.696000,  0.540020
  0.698000,  0.536080
  0.700000,  0.525180
  0.702000,  0.507660
  0.704000,  0.490480
  0.706000,  0.469740
  0.708000,  0.449890
  0.710000,  0.431930
  0.712000,  0.412250
  0.714000,  0.397230
  0.716000,  0.373760
  0.718000,  0.347450
  0.720000,  0.323680
  0.722000,  0.298450
  0.724000,  0.275580
  0.726000,  0.252680
  0.728000,  0.233490
  0.730000,  0.223410
  0.732000,  0.220710
  0.734000,  0.214870
  0.736000,  0.210170
  0.738000,  0.216680
  0.740000,  0.221740
  0.742000,  0.232630
  0.744000,  0.245310
  0.746000,  0.253790
  0.748000,  0.263520
  0.750000,  0.266790
  0.752000,  0.262410
  0.754000,  0.248040
  0.756000,  0.228170
  0.758000,  0.197080
  0.760000,  0.160900
  0.762000,  0.121370
  0.764000,  0.085100
  0.766000,  0.052850
  0.768000,  0.034510
  0.770000,  0.017640
  0.772000,  0.015950
  0.774000,  0.028120
  0.776000,  0.052130
  0.778000,  0.084840
  0.780000,  0.131670
  0.782000,  0.179130
  0.784000,  0.215050
  0.786000,  0.252410
  0.788000,  0.272870
  0.790000,  0.290600
  0.792000,  0.291680
  0.794000,  0.289300
  0.796000,  0.272290
  0.798000,  0.250530
  0.800000,  0.224030
  0.802000,  0.200340
  0.804000,  0.179850
  0.806000,  0.166790
  0.808000,  0.161330
  0.810000,  0.169000
  0.812000,  0.190310
  0.814000,  0.213960
  0.816000,  0.236430
  0.818000,  0.257990
  0.820000,  0.277820
  0.822000,  0.291610
  0.824000,  0.294420
  0.826000,  0.297120
  0.828000,  0.291590
  0.830000,  0.283610
  0.832000,  0.273430
  0.834000,  0.262630
  0.836000,  0.257120
  0.838000,  0.251400
  0.840000,  0.253200
  0.842000,  0.249470
  0.844000,  0.256470
  0.846000,  0.271460
  0.848000,  0.279410
  0.850000,  0.290810
  0.852000,  0.306830
  0.854000,  0.321650
  0.856000,  0.331590
  0.858000,  0.339930
  0.860000,  0.348450
  0.862000,  0.354280
  0.864000,  0.358890
  0.866000,  0.364500
  0.868000,  0.368480
  0.870000,  0.369650
  0.872000,  0.376330
  0.874000,  0.380290
  0.876000,  0.388200
  0.878000,  0.392050
  0.880000,  0.398870
  0.882000,  0.404650
  0.884000,  0.410240
  0.886000,  0.413160
  0.888000,  0.415470
  0.890000,  0.412080
  0.892000,  0.400220
  0.894000,  0.389870
  0.896000,  0.376120
  0.898000,  0.363510
  0.900000,  0.346240
  0.902000,  0.329270
  0.904000,  0.312920
  0.906000,  0.297850
  0.908000,  0.285610
  0.910000,  0.280160
  0.912000,  0.282050
  0.914000,  0.285620
  0.916000,  0.296690
  0.918000,  0.310920
  0.920000,  0.329560
  0.922000,  0.348610
  0.924000,  0.356210
  0.926000,  0.362150
  0.928000,  0.357340
  0.930000,  0.350390
  0.932000,  0.337870
  0.934000,  0.314970
  0.936000,  0.286770
  0.938000,  0.246260
  0.940000,  0.204360
  0.942000,  0.161840
  0.944000,  0.119000
  0.946000,  0.076760
  0.948000,  0.046950
  0.950000,  0.012980
  0.952000, -0.011550
  0.954000, -0.037700
  0.956000, -0.060520
  0.958000, -0.077430
  0.960000, -0.089570
  0.962000, -0.114960
  0.964000, -0.138320
  0.966000, -0.160640
  0.968000, -0.185230
  0.970000, -0.210970
  0.972000, -0.235920
  0.974000, -0.259080
  0.976000, -0.283430
  0.978000, -0.308810
  0.980000, -0.336380
  0.982000, -0.348180
  0.984000, -0.367630
  0.986000, -0.389800
  0.988000, -0.401000
  0.990000, -0.416240
  0.992000, -0.427830
  0.994000, -0.434620
  0.996000, -0.437550
  0.998000, -0.432260
  1.000000, -0.427480
