# z (nm)   (kJ/mol)
  0.068000,272.548580
  0.070000,269.987030
  0.072000,266.011500
  0.074000,263.016330
  0.076000,260.147190
  0.078000,257.459100
  0.080000,254.657130
  0.082000,251.895310
  0.084000,249.064230
  0.086000,246.188140
  0.088000,243.253410
  0.090000,240.231900
  0.092000,237.116990
  0.094000,233.906100
  0.096000,230.589780
  0.098000,227.164350
  0.100000,223.630550
  0.102000,219.999020
  0.104000,216.277800
  0.106000,212.480780
  0.108000,208.618580
  0.110000,204.716270
  0.112000,200.788410
  0.114000,196.849500
  0.116000,192.906870
  0.118000,188.968940
  0.120000,185.035310
  0.122000,181.102950
  0.124000,177.166660
  0.126000,173.217670
  0.128000,169.248850
  0.130000,165.257370
  0.132000,161.253630
  0.134000,157.242620
  0.136000,153.248120
  0.138000,149.292130
  0.140000,145.403020
  0.142000,141.610850
  0.144000,137.936980
  0.146000,134.390990
  0.148000,130.976740
  0.150000,127.690670
  0.152000,124.521030
  0.154000,121.428050
  0.156000,118.383560
  0.158000,115.350000
  0.160000,112.309390
  0.162000,109.251690
  0.164000,106.183530
  0.166000,103.121220
  0.168000,100.084530
  0.170000, 97.092920
  0.172000, 94.149760
  0.174000, 91.256330
  0.176000, 88.394170
  0.178000, 85.562270
  0.180000, 82.760750
  0.182000, 79.991430
  0.184000, 77.272230
  0.186000, 74.614060
  0.188000, 72.019090
  0.190000, 69.483210
  0.192000, 66.993330
  0.194000, 64.533950
  0.196000, 62.100110
  0.198000, 59.681910
  0.200000, 57.290980
  0.202000, 54.940730
  0.204000, 52.647280
  0.206000, 50.421890
  0.208000, 48.267450
  0.210000, 46.187480
  0.212000, 44.188840
  0.214000, 42.263360
  0.216000, 40.397970
  0.218000, 38.595150
  0.220000, 36.824600
  0.222000, 35.078450
  0.224000, 33.346740
  0.226000, 31.615660
  0.228000, 29.888030
  0.230000, 28.170940
  0.232000, 26.479750
  0.234000, 24.835470
  0.236000, 23.253350
  0.238000, 21.736890
  0.240000, 20.291860
  0.242000, 18.915350
  0.244000, 17.593770
  0.246000, 16.304860
  0.248000, 15.039320
  0.250000, 13.794690
  0.252000, 12.554010
  0.254000, 11.338220
  0.256000, 10.144090
  0.258000,  8.977400
  0.260000,  7.859290
  0.262000,  6.792500
  0.264000,  5.776390
  0.266000,  4.809890
  0.268000,  3.903230
  0.270000,  3.038360
  0.272000,  2.206140
  0.274000,  1.413560
  0.276000,  0.641970
  0.278000, -0.108810
  0.280000, -0.828310
  0.282000, -1.523810
  0.284000, -2.179510
  0.286000, -2.814510
  0.288000, -3.424250
  0.290000, -3.994660
  0.292000, -4.530180
  0.294000, -5.032340
  0.296000, -5.520920
  0.298000, -5.972430
  0.300000, -6.395200
  0.302000, -6.799120
  0.304000, -7.163580
  0.306000, -7.506390
  0.308000, -7.818580
  0.310000, -8.101950
  0.312000, -8.357970
  0.314000, -8.586670
  0.316000, -8.801300
  0.318000, -9.001510
  0.320000, -9.190680
  0.322000, -9.367800
  0.324000, -9.534530
  0.326000, -9.687430
  0.328000, -9.816170
  0.330000, -9.926510
  0.332000,-10.006350
  0.334000,-10.060390
  0.336000,-10.078590
  0.338000,-10.074400
  0.340000,-10.048870
  0.342000,-10.017860
  0.344000, -9.975380
  0.346000, -9.936940
  0.348000, -9.894010
  0.350000, -9.861750
  0.352000, -9.831860
  0.354000, -9.801890
  0.356000, -9.776560
  0.358000, -9.738820
  0.360000, -9.687720
  0.362000, -9.636010
  0.364000, -9.564080
  0.366000, -9.493410
  0.368000, -9.408560
  0.370000, -9.313790
  0.372000, -9.204520
  0.374000, -9.097980
  0.376000, -8.989150
  0.378000, -8.875700
  0.380000, -8.766130
  0.382000, -8.667240
  0.384000, -8.574360
  0.386000, -8.490670
  0.388000, -8.408880
  0.390000, -8.326680
  0.392000, -8.258660
  0.394000, -8.184780
  0.396000, -8.102990
  0.398000, -8.005480
  0.400000, -7.890030
  0.402000, -7.760960
  0.404000, -7.629030
  0.406000, -7.492960
  0.408000, -7.353400
  0.410000, -7.218430
  0.412000, -7.097810
  0.414000, -6.985170
  0.416000, -6.884520
  0.418000, -6.790470
  0.420000, -6.705910
  0.422000, -6.626860
  0.424000, -6.547100
  0.426000, -6.464320
  0.428000, -6.371170
  0.430000, -6.262340
  0.432000, -6.143520
  0.434000, -6.013480
  0.436000, -5.874680
  0.438000, -5.721400
  0.440000, -5.563600
  0.442000, -5.404350
  0.444000, -5.236440
  0.446000, -5.080430
  0.448000, -4.928680
  0.450000, -4.782730
  0.452000, -4.640280
  0.454000, -4.502620
  0.456000, -4.365200
  0.458000, -4.235130
  0.460000, -4.110050
  0.462000, -3.981230
  0.464000, -3.852440
  0.466000, -3.727800
  0.468000, -3.603110
  0.470000, -3.479990
  0.472000, -3.359390
  0.474000, -3.232560
  0.476000, -3.102720
  0.478000, -2.972880
  0.480000, -2.844450
  0.482000, -2.714320
  0.484000, -2.584890
  0.486000, -2.461590
  0.488000, -2.342010
  0.490000, -2.235830
  0.492000, -2.134900
  0.494000, -2.039580
  0.496000, -1.957570
  0.498000, -1.872830
  0.500000, -1.791700
  0.502000, -1.705180
  0.504000, -1.608890
  0.506000, -1.510070
  0.508000, -1.399920
  0.510000, -1.278240
  0.512000, -1.157330
  0.514000, -1.031460
  0.516000, -0.909870
  0.518000, -0.791420
  0.520000, -0.680680
  0.522000, -0.580820
  0.524000, -0.478000
  0.526000, -0.383140
  0.528000, -0.296440
  0.530000, -0.219760
  0.532000, -0.137580
  0.534000, -0.060980
  0.536000,  0.017530
  0.538000,  0.094830
  0.540000,  0.169170
  0.542000,  0.240620
  0.544000,  0.307800
  0.546000,  0.371860
  0.548000,  0.429490
  0.550000,  0.474860
  0.552000,  0.515640
  0.554000,  0.543820
  0.556000,  0.553440
  0.558000,  0.561520
  0.560000,  0.568070
  0.562000,  0.562870
  0.564000,  0.556320
  0.566000,  0.558290
  0.568000,  0.555660
  0.570000,  0.550640
  0.572000,  0.550710
  0.574000,  0.551970
  0.576000,  0.560130
  0.578000,  0.568110
  0.580000,  0.570260
  0.582000,  0.570580
  0.584000,  0.562450
  0.586000,  0.547350
  0.588000,  0.525550
  0.590000,  0.501820
  0.592000,  0.469350
  0.594000,  0.443690
  0.596000,  0.419260
  0.598000,  0.392480
  0.600000,  0.367840
  0.602000,  0.343520
  0.604000,  0.307380
  0.606000,  0.257620
  0.608000,  0.205980
  0.610000,  0.157200
  0.612000,  0.099730
  0.614000,  0.042290
  0.616000, -0.004830
  0.618000, -0.044530
  0.620000, -0.076200
  0.622000, -0.098010
  0.624000, -0.121280
  0.626000, -0.142160
  0.628000, -0.171270
  0.630000, -0.210020
  0.632000, -0.260920
  0.634000, -0.313620
  0.636000, -0.380060
  0.638000, -0.445810
  0.640000, -0.502540
  0.642000, -0.556580
  0.644000, -0.602520
  0.646000, -0.640980
  0.648000, -0.668740
  0.650000, -0.682090
  0.652000, -0.683990
  0.654000, -0.684270
  0.656000, -0.689760
  0.658000, -0.710750
  0.660000, -0.749180
  0.662000, -0.802010
  0.664000, -0.871750
  0.666000, -0.938410
  0.668000, -1.007160
  0.670000, -1.076480
  0.672000, -1.127090
  0.674000, -1.158240
  0.676000, -1.177730
  0.678000, -1.172030
  0.680000, -1.147190
  0.682000, -1.114680
  0.684000, -1.082970
  0.686000, -1.041740
  0.688000, -1.011210
  0.690000, -0.985030
  0.692000, -0.971610
  0.694000, -0.971400
  0.696000, -0.988210
  0.698000, -1.016210
  0.700000, -1.044720
  0.702000, -1.072030
  0.704000, -1.088800
  0.706000, -1.091860
  0.708000, -1.071490
  0.710000, -1.039080
  0.712000, -0.988590
  0.714000, -0.932560
  0.716000, -0.873350
  0.718000, -0.827040
  0.720000, -0.789120
  0.722000, -0.775810
  0.724000, -0.772700
  0.726000, -0.791390
  0.728000, -0.815110
  0.730000, -0.836460
  0.732000, -0.852140
  0.734000, -0.854150
  0.736000, -0.841100
  0.738000, -0.813220
  0.740000, -0.768830
  0.742000, -0.723520
  0.744000, -0.671660
  0.746000, -0.617820
  0.748000, -0.566810
  0.750000, -0.515200
  0.752000, -0.477640
  0.754000, -0.448190
  0.756000, -0.429060
  0.758000, -0.415190
  0.760000, -0.402180
  0.762000, -0.384680
  0.764000, -0.357740
  0.766000, -0.337320
  0.768000, -0.307560
  0.770000, -0.272190
  0.772000, -0.230850
  0.774000, -0.187550
  0.776000, -0.146260
  0.778000, -0.106620
  0.780000, -0.069880
  0.782000, -0.035230
  0.784000,  0.003150
  0.786000,  0.036020
  0.788000,  0.069550
  0.790000,  0.103520
  0.792000,  0.138360
  0.794000,  0.176140
  0.796000,  0.218830
  0.798000,  0.259410
  0.800000,  0.296550
  0.802000,  0.338860
  0.804000,  0.379830
  0.806000,  0.418590
  0.808000,  0.458890
  0.810000,  0.480820
  0.812000,  0.496770
  0.814000,  0.506810
  0.816000,  0.508480
  0.818000,  0.505510
  0.820000,  0.501030
  0.822000,  0.496300
  0.824000,  0.496730
  0.826000,  0.504260
  0.828000,  0.518050
  0.830000,  0.536780
  0.832000,  0.559620
  0.834000,  0.583240
  0.836000,  0.598640
  0.838000,  0.614830
  0.840000,  0.615330
  0.842000,  0.604450
  0.844000,  0.592080
  0.846000,  0.578490
  0.848000,  0.559950
  0.850000,  0.546070
  0.852000,  0.537190
  0.854000,  0.533030
  0.856000,  0.539620
  0.858000,  0.553220
  0.860000,  0.573370
  0.862000,  0.593900
  0.864000,  0.606820
  0.866000,  0.620700
  0.868000,  0.612200
  0.870000,  0.610250
  0.872000,  0.597990
  0.874000,  0.567820
  0.876000,  0.532580
  0.878000,  0.498830
  0.880000,  0.464130
  0.882000,  0.433810
  0.884000,  0.412310
  0.886000,  0.397810
  0.888000,  0.396190
  0.890000,  0.410950
  0.892000,  0.430740
  0.894000,  0.461070
  0.896000,  0.486190
  0.898000,  0.500300
  0.900000,  0.506680
  0.902000,  0.499690
  0.904000,  0.477520
  0.906000,  0.438600
  0.908000,  0.387660
  0.910000,  0.332830
  0.912000,  0.277970
  0.914000,  0.224180
  0.916000,  0.180180
  0.918000,  0.141760
  0.920000,  0.114570
  0.922000,  0.092460
  0.924000,  0.079650
  0.926000,  0.069940
  0.928000,  0.071740
  0.930000,  0.076230
  0.932000,  0.073330
  0.934000,  0.070820
  0.936000,  0.081700
  0.938000,  0.082440
  0.940000,  0.088070
  0.942000,  0.086910
  0.944000,  0.086210
  0.946000,  0.078330
  0.948000,  0.065440
  0.950000,  0.054190
  0.952000,  0.036430
  0.954000,  0.014140
  0.956000, -0.009120
  0.958000, -0.031210
  0.960000, -0.050080
  0.962000, -0.068210
  0.964000, -0.085860
  0.966000, -0.100120
  0.968000, -0.112990
  0.970000, -0.128430
  0.972000, -0.139250
  0.974000, -0.153380
  0.976000, -0.171930
  0.978000, -0.192660
  0.980000, -0.208870
  0.982000, -0.233690
  0.984000, -0.256320
  0.986000, -0.280720
  0.988000, -0.292870
  0.990000, -0.303590
  0.992000, -0.307490
  0.994000, -0.307600
  0.996000, -0.297370
  0.998000, -0.281010
  1.000000, -0.270270
