# z (nm)   (kJ/mol)
  0.104000,277.206980
  0.106000,274.748110
  0.108000,272.334180
  0.110000,269.957360
  0.112000,267.620210
  0.114000,265.247370
  0.116000,262.954710
  0.118000,260.606720
  0.120000,258.265370
  0.122000,255.893130
  0.124000,253.500430
  0.126000,251.076370
  0.128000,248.591620
  0.130000,246.034970
  0.132000,243.389460
  0.134000,240.636860
  0.136000,237.774150
  0.138000,234.789410
  0.140000,231.674180
  0.142000,228.436240
  0.144000,225.068140
  0.146000,221.575960
  0.148000,217.967490
  0.150000,214.254050
  0.152000,210.448890
  0.154000,206.564340
  0.156000,202.628180
  0.158000,198.660370
  0.160000,194.683270
  0.162000,190.712890
  0.164000,186.762850
  0.166000,182.838330
  0.168000,178.950840
  0.170000,175.101140
  0.172000,171.286650
  0.174000,167.515620
  0.176000,163.790450
  0.178000,160.119190
  0.180000,156.506180
  0.182000,152.954460
  0.184000,149.470080
  0.186000,146.042730
  0.188000,142.667940
  0.190000,139.330080
  0.192000,136.018970
  0.194000,132.724460
  0.196000,129.442810
  0.198000,126.178310
  0.200000,122.942160
  0.202000,119.754120
  0.204000,116.634350
  0.206000,113.593150
  0.208000,110.635580
  0.210000,107.746460
  0.212000,104.910420
  0.214000,102.101010
  0.216000, 99.299260
  0.218000, 96.488990
  0.220000, 93.664350
  0.222000, 90.826630
  0.224000, 87.992330
  0.226000, 85.182850
  0.228000, 82.421150
  0.230000, 79.732520
  0.232000, 77.135300
  0.234000, 74.640650
  0.236000, 72.232550
  0.238000, 69.886490
  0.240000, 67.571320
  0.242000, 65.275930
  0.244000, 62.972630
  0.246000, 60.669680
  0.248000, 58.372830
  0.250000, 56.096980
  0.252000, 53.861010
  0.254000, 51.682190
  0.256000, 49.569340
  0.258000, 47.528410
  0.260000, 45.560660
  0.262000, 43.663590
  0.264000, 41.823920
  0.266000, 40.023160
  0.268000, 38.261250
  0.270000, 36.525170
  0.272000, 34.809340
  0.274000, 33.107630
  0.276000, 31.441270
  0.278000, 29.803980
  0.280000, 28.201130
  0.282000, 26.645020
  0.284000, 25.137570
  0.286000, 23.672620
  0.288000, 22.236730
  0.290000, 20.828450
  0.292000, 19.436800
  0.294000, 18.068870
  0.296000, 16.728730
  0.298000, 15.423290
  0.300000, 14.167530
  0.302000, 12.963300
  0.304000, 11.821270
  0.306000, 10.727920
  0.308000,  9.676450
  0.310000,  8.649930
  0.312000,  7.637390
  0.314000,  6.634180
  0.316000,  5.642200
  0.318000,  4.672460
  0.320000,  3.727050
  0.322000,  2.814510
  0.324000,  1.938630
  0.326000,  1.106940
  0.328000,  0.325950
  0.330000, -0.403020
  0.332000, -1.096850
  0.334000, -1.751440
  0.336000, -2.379310
  0.338000, -2.981070
  0.340000, -3.561650
  0.342000, -4.129820
  0.344000, -4.686660
  0.346000, -5.225910
  0.348000, -5.737620
  0.350000, -6.228370
  0.352000, -6.683960
  0.354000, -7.098520
  0.356000, -7.475470
  0.358000, -7.819400
  0.360000, -8.128010
  0.362000, -8.401550
  0.364000, -8.661060
  0.366000, -8.888660
  0.368000, -9.098560
  0.370000, -9.292920
  0.372000, -9.465220
  0.374000, -9.615070
  0.376000, -9.754610
  0.378000, -9.878510
  0.380000, -9.982490
  0.382000,-10.085510
  0.384000,-10.179440
  0.386000,-10.272440
  0.388000,-10.357630
  0.390000,-10.432150
  0.392000,-10.488670
  0.394000,-10.516540
  0.396000,-10.527890
  0.398000,-10.510540
  0.400000,-10.462340
  0.402000,-10.384040
  0.404000,-10.291030
  0.406000,-10.189860
  0.408000,-10.083790
  0.410000, -9.977450
  0.412000, -9.877210
  0.414000, -9.781390
  0.416000, -9.701040
  0.418000, -9.625780
  0.420000, -9.557910
  0.422000, -9.497420
  0.424000, -9.434080
  0.426000, -9.367250
  0.428000, -9.298150
  0.430000, -9.220180
  0.432000, -9.126310
  0.434000, -9.008970
  0.436000, -8.872870
  0.438000, -8.715840
  0.440000, -8.541610
  0.442000, -8.358090
  0.444000, -8.168760
  0.446000, -7.986800
  0.448000, -7.814370
  0.450000, -7.666040
  0.452000, -7.545020
  0.454000, -7.447890
  0.456000, -7.366770
  0.458000, -7.304290
  0.460000, -7.249380
  0.462000, -7.198940
  0.464000, -7.129080
  0.466000, -7.042380
  0.468000, -6.930500
  0.470000, -6.791670
  0.472000, -6.629430
  0.474000, -6.443980
  0.476000, -6.252210
  0.478000, -6.048580
  0.480000, -5.845660
  0.482000, -5.649820
  0.484000, -5.458960
  0.486000, -5.275900
  0.488000, -5.100220
  0.490000, -4.938570
  0.492000, -4.779240
  0.494000, -4.623100
  0.496000, -4.470480
  0.498000, -4.305530
  0.500000, -4.144750
  0.502000, -3.971690
  0.504000, -3.792100
  0.506000, -3.600700
  0.508000, -3.413450
  0.510000, -3.220400
  0.512000, -3.026560
  0.514000, -2.833950
  0.516000, -2.644040
  0.518000, -2.458430
  0.520000, -2.273770
  0.522000, -2.092490
  0.524000, -1.918000
  0.526000, -1.740780
  0.528000, -1.565400
  0.530000, -1.389990
  0.532000, -1.218850
  0.534000, -1.043290
  0.536000, -0.878400
  0.538000, -0.721230
  0.540000, -0.570530
  0.542000, -0.424570
  0.544000, -0.282840
  0.546000, -0.147810
  0.548000, -0.016920
  0.550000,  0.113130
  0.552000,  0.236520
  0.554000,  0.353390
  0.556000,  0.473950
  0.558000,  0.590450
  0.560000,  0.706980
  0.562000,  0.817970
  0.564000,  0.928640
  0.566000,  1.036100
  0.568000,  1.136170
  0.570000,  1.228810
  0.572000,  1.317690
  0.574000,  1.405900
  0.576000,  1.483160
  0.578000,  1.553820
  0.580000,  1.626350
  0.582000,  1.693070
  0.584000,  1.748760
  0.586000,  1.807210
  0.588000,  1.851360
  0.590000,  1.892740
  0.592000,  1.926110
  0.594000,  1.956080
  0.596000,  1.975970
  0.598000,  1.998370
  0.600000,  2.021140
  0.602000,  2.037730
  0.604000,  2.045560
  0.606000,  2.050860
  0.608000,  2.055040
  0.610000,  2.061980
  0.612000,  2.063540
  0.614000,  2.060710
  0.616000,  2.061860
  0.618000,  2.057650
  0.620000,  2.060830
  0.622000,  2.058880
  0.624000,  2.054340
  0.626000,  2.054530
  0.628000,  2.055260
  0.630000,  2.048870
  0.632000,  2.033230
  0.634000,  2.014140
  0.636000,  1.980620
  0.638000,  1.943640
  0.640000,  1.895810
  0.642000,  1.836530
  0.644000,  1.779070
  0.646000,  1.722430
  0.648000,  1.672520
  0.650000,  1.620990
  0.652000,  1.571050
  0.654000,  1.522680
  0.656000,  1.472900
  0.658000,  1.423200
  0.660000,  1.367730
  0.662000,  1.307370
  0.664000,  1.242950
  0.666000,  1.173550
  0.668000,  1.100730
  0.670000,  1.015380
  0.672000,  0.938230
  0.674000,  0.862900
  0.676000,  0.785520
  0.678000,  0.712380
  0.680000,  0.648530
  0.682000,  0.589970
  0.684000,  0.537500
  0.686000,  0.498980
  0.688000,  0.465860
  0.690000,  0.435450
  0.692000,  0.409160
  0.694000,  0.380830
  0.696000,  0.351230
  0.698000,  0.312830
  0.700000,  0.265660
  0.702000,  0.212330
  0.704000,  0.150950
  0.706000,  0.084460
  0.708000,  0.012950
  0.710000, -0.058040
  0.712000, -0.128640
  0.714000, -0.186400
  0.716000, -0.237680
  0.718000, -0.275230
  0.720000, -0.305630
  0.722000, -0.325410
  0.724000, -0.329780
  0.726000, -0.326420
  0.728000, -0.321570
  0.730000, -0.310580
  0.732000, -0.300970
  0.734000, -0.298540
  0.736000, -0.293510
  0.738000, -0.293060
  0.740000, -0.283980
  0.742000, -0.282770
  0.744000, -0.276710
  0.746000, -0.279960
  0.748000, -0.281950
  0.750000, -0.288730
  0.752000, -0.298740
  0.754000, -0.301520
  0.756000, -0.313170
  0.758000, -0.320750
  0.760000, -0.331800
  0.762000, -0.337160
  0.764000, -0.339250
  0.766000, -0.340120
  0.768000, -0.334480
  0.770000, -0.330610
  0.772000, -0.323710
  0.774000, -0.316800
  0.776000, -0.309710
  0.778000, -0.304470
  0.780000, -0.297110
  0.782000, -0.285000
  0.784000, -0.273910
  0.786000, -0.261760
  0.788000, -0.243600
  0.790000, -0.220840
  0.792000, -0.196260
  0.794000, -0.164030
  0.796000, -0.132030
  0.798000, -0.097420
  0.800000, -0.059810
  0.802000, -0.017800
  0.804000,  0.023190
  0.806000,  0.061010
  0.808000,  0.093450
  0.810000,  0.126800
  0.812000,  0.152160
  0.814000,  0.173290
  0.816000,  0.186130
  0.818000,  0.201380
  0.820000,  0.215480
  0.822000,  0.227760
  0.824000,  0.238980
  0.826000,  0.248420
  0.828000,  0.267070
  0.830000,  0.277680
  0.832000,  0.293300
  0.834000,  0.312900
  0.836000,  0.332160
  0.838000,  0.353790
  0.840000,  0.372800
  0.842000,  0.401620
  0.844000,  0.427300
  0.846000,  0.460560
  0.848000,  0.485500
  0.850000,  0.510360
  0.852000,  0.533290
  0.854000,  0.554180
  0.856000,  0.572220
  0.858000,  0.587420
  0.860000,  0.597670
  0.862000,  0.604250
  0.864000,  0.604380
  0.866000,  0.601210
  0.868000,  0.600630
  0.870000,  0.593700
  0.872000,  0.590070
  0.874000,  0.594000
  0.876000,  0.601560
  0.878000,  0.610590
  0.880000,  0.622850
  0.882000,  0.637210
  0.884000,  0.656730
  0.886000,  0.671550
  0.888000,  0.694760
  0.890000,  0.713330
  0.892000,  0.733580
  0.894000,  0.746400
  0.896000,  0.756260
  0.898000,  0.753150
  0.900000,  0.746940
  0.902000,  0.732060
  0.904000,  0.710820
  0.906000,  0.679390
  0.908000,  0.635270
  0.910000,  0.585110
  0.912000,  0.526510
  0.914000,  0.470700
  0.916000,  0.414220
  0.918000,  0.361260
  0.920000,  0.320690
  0.922000,  0.280530
  0.924000,  0.243800
  0.926000,  0.217730
  0.928000,  0.197670
  0.930000,  0.187140
  0.932000,  0.182540
  0.934000,  0.181380
  0.936000,  0.177920
  0.938000,  0.176520
  0.940000,  0.173200
  0.942000,  0.168820
  0.944000,  0.159460
  0.946000,  0.146970
  0.948000,  0.125850
  0.950000,  0.100170
  0.952000,  0.062580
  0.954000,  0.025240
  0.956000, -0.019440
  0.958000, -0.057840
  0.960000, -0.100530
  0.962000, -0.139300
  0.964000, -0.178990
  0.966000, -0.218060
  0.968000, -0.254740
  0.970000, -0.287320
  0.972000, -0.327070
  0.974000, -0.353870
  0.976000, -0.380610
  0.978000, -0.394550
  0.980000, -0.412490
  0.982000, -0.429020
  0.984000, -0.447060
  0.986000, -0.460440
  0.988000, -0.481350
  0.990000, -0.498520
  0.992000, -0.515600
  0.994000, -0.539970
  0.996000, -0.562800
  0.998000, -0.583010
  1.000000, -0.601010
