# z (nm)   (kJ/mol)
  0.090000,271.795400
  0.092000,268.661760
  0.094000,271.132910
  0.096000,268.729440
  0.098000,266.364980
  0.100000,264.033480
  0.102000,261.717690
  0.104000,259.346780
  0.106000,256.844210
  0.108000,254.363880
  0.110000,251.821150
  0.112000,249.284760
  0.114000,246.648660
  0.116000,243.940060
  0.118000,241.152500
  0.120000,238.249050
  0.122000,235.215420
  0.124000,232.045330
  0.126000,228.721450
  0.128000,225.223320
  0.130000,221.548250
  0.132000,217.682770
  0.134000,213.636310
  0.136000,209.434680
  0.138000,205.115170
  0.140000,200.733720
  0.142000,196.335450
  0.144000,191.971660
  0.146000,187.660940
  0.148000,183.405100
  0.150000,179.202780
  0.152000,175.057230
  0.154000,170.982550
  0.156000,166.991840
  0.158000,163.100210
  0.160000,159.306850
  0.162000,155.600860
  0.164000,151.973150
  0.166000,148.413400
  0.168000,144.917300
  0.170000,141.488450
  0.172000,138.150920
  0.174000,134.915330
  0.176000,131.782960
  0.178000,128.738960
  0.180000,125.755940
  0.182000,122.796800
  0.184000,119.837370
  0.186000,116.848480
  0.188000,113.832070
  0.190000,110.792310
  0.192000,107.740080
  0.194000,104.694810
  0.196000,101.679570
  0.198000, 98.706240
  0.200000, 95.788310
  0.202000, 92.942110
  0.204000, 90.182050
  0.206000, 87.508580
  0.208000, 84.926600
  0.210000, 82.425800
  0.212000, 79.986390
  0.214000, 77.597460
  0.216000, 75.246360
  0.218000, 72.903000
  0.220000, 70.568980
  0.222000, 68.239110
  0.224000, 65.922130
  0.226000, 63.626920
  0.228000, 61.365490
  0.230000, 59.152770
  0.232000, 56.986680
  0.234000, 54.865490
  0.236000, 52.788100
  0.238000, 50.740410
  0.240000, 48.721150
  0.242000, 46.731890
  0.244000, 44.774170
  0.246000, 42.874000
  0.248000, 41.017310
  0.250000, 39.234070
  0.252000, 37.516460
  0.254000, 35.839230
  0.256000, 34.183630
  0.258000, 32.541800
  0.260000, 30.916470
  0.262000, 29.331680
  0.264000, 27.799400
  0.266000, 26.345460
  0.268000, 24.972430
  0.270000, 23.673990
  0.272000, 22.417610
  0.274000, 21.185030
  0.276000, 19.956610
  0.278000, 18.703930
  0.280000, 17.449180
  0.282000, 16.209900
  0.284000, 15.008930
  0.286000, 13.882580
  0.288000, 12.833250
  0.290000, 11.841900
  0.292000, 10.897850
  0.294000,  9.970670
  0.296000,  9.042130
  0.298000,  8.112840
  0.300000,  7.179530
  0.302000,  6.255700
  0.304000,  5.352640
  0.306000,  4.496440
  0.308000,  3.680980
  0.310000,  2.922740
  0.312000,  2.214380
  0.314000,  1.550660
  0.316000,  0.922820
  0.318000,  0.318190
  0.320000, -0.272630
  0.322000, -0.862020
  0.324000, -1.449460
  0.326000, -2.026390
  0.328000, -2.597720
  0.330000, -3.139240
  0.332000, -3.646500
  0.334000, -4.122150
  0.336000, -4.549360
  0.338000, -4.933160
  0.340000, -5.277220
  0.342000, -5.589350
  0.344000, -5.874550
  0.346000, -6.152920
  0.348000, -6.422590
  0.350000, -6.685900
  0.352000, -6.949730
  0.354000, -7.208600
  0.356000, -7.452660
  0.358000, -7.671470
  0.360000, -7.871440
  0.362000, -8.039900
  0.364000, -8.174090
  0.366000, -8.278060
  0.368000, -8.357940
  0.370000, -8.419210
  0.372000, -8.465530
  0.374000, -8.497670
  0.376000, -8.517480
  0.378000, -8.529570
  0.380000, -8.531030
  0.382000, -8.523990
  0.384000, -8.511740
  0.386000, -8.489540
  0.388000, -8.476550
  0.390000, -8.472950
  0.392000, -8.474020
  0.394000, -8.469340
  0.396000, -8.468100
  0.398000, -8.453420
  0.400000, -8.427940
  0.402000, -8.380890
  0.404000, -8.311120
  0.406000, -8.224050
  0.408000, -8.131070
  0.410000, -8.029340
  0.412000, -7.937700
  0.414000, -7.849630
  0.416000, -7.772270
  0.418000, -7.712960
  0.420000, -7.660360
  0.422000, -7.610250
  0.424000, -7.552040
  0.426000, -7.485850
  0.428000, -7.408370
  0.430000, -7.318500
  0.432000, -7.220890
  0.434000, -7.120750
  0.436000, -7.016580
  0.438000, -6.908590
  0.440000, -6.796480
  0.442000, -6.695240
  0.444000, -6.589880
  0.446000, -6.481220
  0.448000, -6.372160
  0.450000, -6.259230
  0.452000, -6.147090
  0.454000, -6.035740
  0.456000, -5.921440
  0.458000, -5.810270
  0.460000, -5.701380
  0.462000, -5.587040
  0.464000, -5.479320
  0.466000, -5.372360
  0.468000, -5.268920
  0.470000, -5.176600
  0.472000, -5.092510
  0.474000, -5.010370
  0.476000, -4.933760
  0.478000, -4.859180
  0.480000, -4.777960
  0.482000, -4.692050
  0.484000, -4.592700
  0.486000, -4.480460
  0.488000, -4.352920
  0.490000, -4.208920
  0.492000, -4.058560
  0.494000, -3.900720
  0.496000, -3.754880
  0.498000, -3.629860
  0.500000, -3.546670
  0.502000, -3.503780
  0.504000, -3.507730
  0.506000, -3.538020
  0.508000, -3.582560
  0.510000, -3.612420
  0.512000, -3.607290
  0.514000, -3.547770
  0.516000, -3.429030
  0.518000, -3.259900
  0.520000, -3.059930
  0.522000, -2.856440
  0.524000, -2.680810
  0.526000, -2.546030
  0.528000, -2.468350
  0.530000, -2.434160
  0.532000, -2.446990
  0.534000, -2.477250
  0.536000, -2.519450
  0.538000, -2.535890
  0.540000, -2.539030
  0.542000, -2.513210
  0.544000, -2.465020
  0.546000, -2.401340
  0.548000, -2.326610
  0.550000, -2.239130
  0.552000, -2.148980
  0.554000, -2.064340
  0.556000, -1.975330
  0.558000, -1.897860
  0.560000, -1.822660
  0.562000, -1.756210
  0.564000, -1.694770
  0.566000, -1.645780
  0.568000, -1.592920
  0.570000, -1.542510
  0.572000, -1.492080
  0.574000, -1.435210
  0.576000, -1.378740
  0.578000, -1.315150
  0.580000, -1.246280
  0.582000, -1.168790
  0.584000, -1.088270
  0.586000, -0.993910
  0.588000, -0.893710
  0.590000, -0.790430
  0.592000, -0.676200
  0.594000, -0.573260
  0.596000, -0.467270
  0.598000, -0.368050
  0.600000, -0.275790
  0.602000, -0.190020
  0.604000, -0.108000
  0.606000, -0.035470
  0.608000,  0.018720
  0.610000,  0.064820
  0.612000,  0.104100
  0.614000,  0.136510
  0.616000,  0.161960
  0.618000,  0.184990
  0.620000,  0.207820
  0.622000,  0.232380
  0.624000,  0.252980
  0.626000,  0.276580
  0.628000,  0.302010
  0.630000,  0.330550
  0.632000,  0.357950
  0.634000,  0.372540
  0.636000,  0.377650
  0.638000,  0.376990
  0.640000,  0.372380
  0.642000,  0.362640
  0.644000,  0.349340
  0.646000,  0.330810
  0.648000,  0.304020
  0.650000,  0.273780
  0.652000,  0.241090
  0.654000,  0.209190
  0.656000,  0.173910
  0.658000,  0.143270
  0.660000,  0.118580
  0.662000,  0.087750
  0.664000,  0.059020
  0.666000,  0.031900
  0.668000,  0.010190
  0.670000, -0.013250
  0.672000, -0.038550
  0.674000, -0.062580
  0.676000, -0.090870
  0.678000, -0.119890
  0.680000, -0.150840
  0.682000, -0.176180
  0.684000, -0.200260
  0.686000, -0.223660
  0.688000, -0.236680
  0.690000, -0.249730
  0.692000, -0.257330
  0.694000, -0.261970
  0.696000, -0.263650
  0.698000, -0.270930
  0.700000, -0.273290
  0.702000, -0.283520
  0.704000, -0.296760
  0.706000, -0.314410
  0.708000, -0.337980
  0.710000, -0.357540
  0.712000, -0.380200
  0.714000, -0.396660
  0.716000, -0.410240
  0.718000, -0.410680
  0.720000, -0.407840
  0.722000, -0.393200
  0.724000, -0.366100
  0.726000, -0.333840
  0.728000, -0.295840
  0.730000, -0.250860
  0.732000, -0.208530
  0.734000, -0.168120
  0.736000, -0.142920
  0.738000, -0.119970
  0.740000, -0.111980
  0.742000, -0.118490
  0.744000, -0.126630
  0.746000, -0.146630
  0.748000, -0.166850
  0.750000, -0.184050
  0.752000, -0.198710
  0.754000, -0.211530
  0.756000, -0.218450
  0.758000, -0.214050
  0.760000, -0.202430
  0.762000, -0.189630
  0.764000, -0.170260
  0.766000, -0.138710
  0.768000, -0.114220
  0.770000, -0.081550
  0.772000, -0.055230
  0.774000, -0.030470
  0.776000, -0.007140
  0.778000,  0.013160
  0.780000,  0.032390
  0.782000,  0.045980
  0.784000,  0.055710
  0.786000,  0.061910
  0.788000,  0.076540
  0.790000,  0.081810
  0.792000,  0.085670
  0.794000,  0.091790
  0.796000,  0.102550
  0.798000,  0.121010
  0.800000,  0.143170
  0.802000,  0.166550
  0.804000,  0.191860
  0.806000,  0.217060
  0.808000,  0.236720
  0.810000,  0.249630
  0.812000,  0.240860
  0.814000,  0.230520
  0.816000,  0.217640
  0.818000,  0.195990
  0.820000,  0.170590
  0.822000,  0.150070
  0.824000,  0.129360
  0.826000,  0.113180
  0.828000,  0.098370
  0.830000,  0.081770
  0.832000,  0.066010
  0.834000,  0.060850
  0.836000,  0.056910
  0.838000,  0.064810
  0.840000,  0.085570
  0.842000,  0.111730
  0.844000,  0.148320
  0.846000,  0.183280
  0.848000,  0.212020
  0.850000,  0.229410
  0.852000,  0.234050
  0.854000,  0.225780
  0.856000,  0.215080
  0.858000,  0.201350
  0.860000,  0.180370
  0.862000,  0.168150
  0.864000,  0.167820
  0.866000,  0.166250
  0.868000,  0.173470
  0.870000,  0.183280
  0.872000,  0.198440
  0.874000,  0.219100
  0.876000,  0.238000
  0.878000,  0.253750
  0.880000,  0.260370
  0.882000,  0.260200
  0.884000,  0.253690
  0.886000,  0.249170
  0.888000,  0.233400
  0.890000,  0.229760
  0.892000,  0.224390
  0.894000,  0.225520
  0.896000,  0.231630
  0.898000,  0.230010
  0.900000,  0.229360
  0.902000,  0.225240
  0.904000,  0.224020
  0.906000,  0.222930
  0.908000,  0.216650
  0.910000,  0.207630
  0.912000,  0.200320
  0.914000,  0.193150
  0.916000,  0.188350
  0.918000,  0.185230
  0.920000,  0.174520
  0.922000,  0.170120
  0.924000,  0.153700
  0.926000,  0.132630
  0.928000,  0.106200
  0.930000,  0.072860
  0.932000,  0.039590
  0.934000,  0.005130
  0.936000, -0.029740
  0.938000, -0.049970
  0.940000, -0.063880
  0.942000, -0.072620
  0.944000, -0.072380
  0.946000, -0.066430
  0.948000, -0.061830
  0.950000, -0.058690
  0.952000, -0.059510
  0.954000, -0.065170
  0.956000, -0.079610
  0.958000, -0.093850
  0.960000, -0.111730
  0.962000, -0.129700
  0.964000, -0.145180
  0.966000, -0.164080
  0.968000, -0.166610
  0.970000, -0.167250
  0.972000, -0.157560
  0.974000, -0.145610
  0.976000, -0.129350
  0.978000, -0.110930
  0.980000, -0.092810
  0.982000, -0.077150
  0.984000, -0.066460
  0.986000, -0.050700
  0.988000, -0.041230
  0.990000, -0.032390
  0.992000, -0.031100
  0.994000, -0.026590
  0.996000, -0.025290
  0.998000, -0.032090
  1.000000, -0.040790
