# z (nm)   (kJ/mol)
  0.0720  266.31230
  0.0740  262.55873
  0.0760  259.45960
  0.0780  256.63410
  0.0800  253.68013
  0.0820  250.83392
  0.0840  248.00885
  0.0860  245.18301
  0.0880  242.33507
  0.0900  239.43901
  0.0920  236.49000
  0.0940  233.47148
  0.0960  230.37162
  0.0980  227.18628
  0.1000  223.90735
  0.1020  220.52499
  0.1040  217.02864
  0.1060  213.42769
  0.1080  209.71209
  0.1100  205.88578
  0.1120  201.95225
  0.1140  197.91484
  0.1160  193.77821
  0.1180  189.54446
  0.1200  185.22426
  0.1220  180.82405
  0.1240  176.36084
  0.1260  171.84997
  0.1280  167.31975
  0.1300  162.80087
  0.1320  158.33728
  0.1340  153.97122
  0.1360  149.73439
  0.1380  145.64018
  0.1400  141.67090
  0.1420  137.81165
  0.1440  134.03453
  0.1460  130.31292
  0.1480  126.62973
  0.1500  122.97208
  0.1520  119.32941
  0.1540  115.71133
  0.1560  112.13379
  0.1580  108.61821
  0.1600  105.20165
  0.1620  101.87499
  0.1640   98.62818
  0.1660   95.42279
  0.1680   92.22341
  0.1700   89.01970
  0.1720   85.82893
  0.1740   82.68448
  0.1760   79.61242
  0.1780   76.63156
  0.1800   73.74224
  0.1820   70.92609
  0.1840   68.15671
  0.1860   65.40406
  0.1880   62.65658
  0.1900   59.90010
  0.1920   57.14686
  0.1940   54.40980
  0.1960   51.71470
  0.1980   49.08743
  0.2000   46.55074
  0.2020   44.11729
  0.2040   41.78686
  0.2060   39.54001
  0.2080   37.36934
  0.2100   35.24782
  0.2120   33.15616
  0.2140   31.07637
  0.2160   28.99803
  0.2180   26.92633
  0.2200   24.86932
  0.2220   22.85194
  0.2240   20.90090
  0.2260   19.04012
  0.2280   17.26805
  0.2300   15.56102
  0.2320   13.90281
  0.2340   12.27099
  0.2360   10.65740
  0.2380    9.06714
  0.2400    7.50867
  0.2420    5.98759
  0.2440    4.52948
  0.2460    3.14962
  0.2480    1.83764
  0.2500    0.59635
  0.2520   -0.59073
  0.2540   -1.73411
  0.2560   -2.84173
  0.2580   -3.92522
  0.2600   -4.97994
  0.2620   -5.99726
  0.2640   -6.96762
  0.2660   -7.90309
  0.2680   -8.79261
  0.2700   -9.64897
  0.2720  -10.47754
  0.2740  -11.28935
  0.2760  -12.06969
  0.2780  -12.82427
  0.2800  -13.54013
  0.2820  -14.20407
  0.2840  -14.80751
  0.2860  -15.34638
  0.2880  -15.83165
  0.2900  -16.27125
  0.2920  -16.68105
  0.2940  -17.06522
  0.2960  -17.42626
  0.2980  -17.78553
  0.3000  -18.11847
  0.3020  -18.44679
  0.3040  -18.76057
  0.3060  -19.05221
  0.3080  -19.31685
  0.3100  -19.53733
  0.3120  -19.72471
  0.3140  -19.86604
  0.3160  -19.96922
  0.3180  -20.04162
  0.3200  -20.06938
  0.3220  -20.05677
  0.3240  -20.01467
  0.3260  -19.94666
  0.3280  -19.85300
  0.3300  -19.74886
  0.3320  -19.64873
  0.3340  -19.56392
  0.3360  -19.50256
  0.3380  -19.46730
  0.3400  -19.43537
  0.3420  -19.36544
  0.3440  -19.23586
  0.3460  -19.02230
  0.3480  -18.71947
  0.3500  -18.36803
  0.3520  -17.98152
  0.3540  -17.60653
  0.3560  -17.25586
  0.3580  -16.93674
  0.3600  -16.65603
  0.3620  -16.40976
  0.3640  -16.18903
  0.3660  -15.97701
  0.3680  -15.76950
  0.3700  -15.54132
  0.3720  -15.28603
  0.3740  -14.99479
  0.3760  -14.69212
  0.3780  -14.38095
  0.3800  -14.07559
  0.3820  -13.78813
  0.3840  -13.51964
  0.3860  -13.27762
  0.3880  -13.05255
  0.3900  -12.84933
  0.3920  -12.65407
  0.3940  -12.46708
  0.3960  -12.29243
  0.3980  -12.12696
  0.4000  -11.98485
  0.4020  -11.84866
  0.4040  -11.71947
  0.4060  -11.61178
  0.4080  -11.50710
  0.4100  -11.41380
  0.4120  -11.31920
  0.4140  -11.22482
  0.4160  -11.12342
  0.4180  -11.03041
  0.4200  -10.93280
  0.4220  -10.84362
  0.4240  -10.76956
  0.4260  -10.71494
  0.4280  -10.67683
  0.4300  -10.65809
  0.4320  -10.65284
  0.4340  -10.65513
  0.4360  -10.65560
  0.4380  -10.64259
  0.4400  -10.60574
  0.4420  -10.55075
  0.4440  -10.47537
  0.4460  -10.38886
  0.4480  -10.30014
  0.4500  -10.21496
  0.4520  -10.13483
  0.4540  -10.06629
  0.4560  -10.01643
  0.4580   -9.97499
  0.4600   -9.93748
  0.4620   -9.90160
  0.4640   -9.85819
  0.4660   -9.80214
  0.4680   -9.74551
  0.4700   -9.66814
  0.4720   -9.58331
  0.4740   -9.49394
  0.4760   -9.39509
  0.4780   -9.29520
  0.4800   -9.20059
  0.4820   -9.09191
  0.4840   -8.98311
  0.4860   -8.88041
  0.4880   -8.78173
  0.4900   -8.67899
  0.4920   -8.58682
  0.4940   -8.50385
  0.4960   -8.42244
  0.4980   -8.34730
  0.5000   -8.27310
  0.5020   -8.19235
  0.5040   -8.09214
  0.5060   -7.97549
  0.5080   -7.84041
  0.5100   -7.69143
  0.5120   -7.53840
  0.5140   -7.37345
  0.5160   -7.21685
  0.5180   -7.07058
  0.5200   -6.94659
  0.5220   -6.82945
  0.5240   -6.73025
  0.5260   -6.63909
  0.5280   -6.55260
  0.5300   -6.46726
  0.5320   -6.38390
  0.5340   -6.28650
  0.5360   -6.17153
  0.5380   -6.03967
  0.5400   -5.89261
  0.5420   -5.72674
  0.5440   -5.56385
  0.5460   -5.39936
  0.5480   -5.23840
  0.5500   -5.08727
  0.5520   -4.94349
  0.5540   -4.82434
  0.5560   -4.71426
  0.5580   -4.61583
  0.5600   -4.52402
  0.5620   -4.43130
  0.5640   -4.33266
  0.5660   -4.23082
  0.5680   -4.12069
  0.5700   -4.01723
  0.5720   -3.91409
  0.5740   -3.82567
  0.5760   -3.74586
  0.5780   -3.68294
  0.5800   -3.62877
  0.5820   -3.58233
  0.5840   -3.53447
  0.5860   -3.48343
  0.5880   -3.42672
  0.5900   -3.36602
  0.5920   -3.29777
  0.5940   -3.22123
  0.5960   -3.15451
  0.5980   -3.08883
  0.6000   -3.02269
  0.6020   -2.97132
  0.6040   -2.93198
  0.6060   -2.88856
  0.6080   -2.85504
  0.6100   -2.81341
  0.6120   -2.75548
  0.6140   -2.68995
  0.6160   -2.60149
  0.6180   -2.49493
  0.6200   -2.38262
  0.6220   -2.25486
  0.6240   -2.11980
  0.6260   -1.98484
  0.6280   -1.85792
  0.6300   -1.72950
  0.6320   -1.62164
  0.6340   -1.51271
  0.6360   -1.41869
  0.6380   -1.32650
  0.6400   -1.24091
  0.6420   -1.15690
  0.6440   -1.07456
  0.6460   -1.00246
  0.6480   -0.92541
  0.6500   -0.84681
  0.6520   -0.76038
  0.6540   -0.66757
  0.6560   -0.57173
  0.6580   -0.46828
  0.6600   -0.37431
  0.6620   -0.28043
  0.6640   -0.19707
  0.6660   -0.11692
  0.6680   -0.05378
  0.6700   -0.00428
  0.6720    0.03188
  0.6740    0.06397
  0.6760    0.08898
  0.6780    0.11478
  0.6800    0.13626
  0.6820    0.16073
  0.6840    0.18782
  0.6860    0.21342
  0.6880    0.24022
  0.6900    0.26564
  0.6920    0.28721
  0.6940    0.30328
  0.6960    0.31487
  0.6980    0.31309
  0.7000    0.31390
  0.7020    0.31129
  0.7040    0.31484
  0.7060    0.31888
  0.7080    0.32390
  0.7100    0.33136
  0.7120    0.33525
  0.7140    0.33806
  0.7160    0.34280
  0.7180    0.34143
  0.7200    0.33538
  0.7220    0.32960
  0.7240    0.32641
  0.7260    0.32394
  0.7280    0.31511
  0.7300    0.31230
  0.7320    0.30540
  0.7340    0.29847
  0.7360    0.28571
  0.7380    0.27064
  0.7400    0.24550
  0.7420    0.21355
  0.7440    0.18401
  0.7460    0.15265
  0.7480    0.11963
  0.7500    0.07830
  0.7520    0.04548
  0.7540    0.02039
  0.7560    0.00683
  0.7580   -0.00759
  0.7600   -0.01018
  0.7620   -0.00734
  0.7640    0.00264
  0.7660    0.01207
  0.7680    0.02096
  0.7700    0.02271
  0.7720    0.02364
  0.7740    0.01723
  0.7760   -0.00081
  0.7780   -0.02275
  0.7800   -0.04504
  0.7820   -0.06439
  0.7840   -0.07996
  0.7860   -0.07747
  0.7880   -0.07007
  0.7900   -0.05771
  0.7920   -0.04214
  0.7940   -0.02390
  0.7960   -0.00567
  0.7980    0.01074
  0.8000    0.01625
  0.8020    0.02152
  0.8040    0.02416
  0.8060    0.02581
  0.8080    0.02114
  0.8100    0.01528
  0.8120    0.00975
  0.8140    0.00404
  0.8160   -0.00063
  0.8180    0.00164
  0.8200    0.00509
  0.8220    0.01048
  0.8240    0.01878
  0.8260    0.02349
  0.8280    0.01928
  0.8300    0.01380
  0.8320   -0.00753
  0.8340   -0.03284
  0.8360   -0.06388
  0.8380   -0.09530
  0.8400   -0.11600
  0.8420   -0.12957
  0.8440   -0.13835
  0.8460   -0.12275
  0.8480   -0.10098
  0.8500   -0.06681
  0.8520   -0.03320
  0.8540    0.01235
  0.8560    0.05249
  0.8580    0.07480
  0.8600    0.09352
  0.8620    0.10554
  0.8640    0.10033
  0.8660    0.08602
  0.8680    0.06820
  0.8700    0.05026
  0.8720    0.04246
  0.8740    0.03812
  0.8760    0.02977
  0.8780    0.03119
  0.8800    0.04574
  0.8820    0.06159
  0.8840    0.08543
  0.8860    0.10221
  0.8880    0.12161
  0.8900    0.14276
  0.8920    0.15756
  0.8940    0.16415
  0.8960    0.16676
  0.8980    0.16520
  0.9000    0.15863
  0.9020    0.14670
  0.9040    0.14011
  0.9060    0.13923
  0.9080    0.14369
  0.9100    0.15152
  0.9120    0.16110
  0.9140    0.15840
  0.9160    0.14794
  0.9180    0.13015
  0.9200    0.09377
  0.9220    0.04990
  0.9240    0.00736
  0.9260   -0.01792
  0.9280   -0.02602
  0.9300   -0.01336
  0.9320    0.01350
  0.9340    0.05657
  0.9360    0.08681
  0.9380    0.10732
  0.9400    0.11240
  0.9420    0.10676
  0.9440    0.08194
  0.9460    0.04546
  0.9480    0.00056
  0.9500   -0.03614
  0.9520   -0.06288
  0.9540   -0.08440
  0.9560   -0.08387
  0.9580   -0.07519
  0.9600   -0.05510
  0.9620   -0.04064
  0.9640   -0.03062
  0.9660   -0.02553
  0.9680   -0.02831
  0.9700   -0.04103
  0.9720   -0.05920
  0.9740   -0.07755
  0.9760   -0.09871
  0.9780   -0.11363
  0.9800   -0.12362
  0.9820   -0.13111
  0.9840   -0.13001
  0.9860   -0.12035
  0.9880   -0.10571
  0.9900   -0.08687
  0.9920   -0.07773
  0.9940   -0.06928
  0.9960   -0.07423
  0.9980   -0.08617
  1.0000   -0.10599
