# z (nm)   (kJ/mol)
  0.084000,280.770870
  0.086000,278.145000
  0.088000,276.206730
  0.090000,273.379680
  0.092000,270.492420
  0.094000,267.644850
  0.096000,264.807250
  0.098000,261.924200
  0.100000,259.055250
  0.102000,256.196780
  0.104000,253.302540
  0.106000,250.348400
  0.108000,247.323170
  0.110000,244.236570
  0.112000,241.076640
  0.114000,237.839700
  0.116000,234.517840
  0.118000,231.104460
  0.120000,227.603480
  0.122000,224.013720
  0.124000,220.335070
  0.126000,216.569650
  0.128000,212.717550
  0.130000,208.787700
  0.132000,204.782950
  0.134000,200.712990
  0.136000,196.586720
  0.138000,192.419000
  0.140000,188.217220
  0.142000,184.012710
  0.144000,179.828500
  0.146000,175.679060
  0.148000,171.583490
  0.150000,167.561440
  0.152000,163.624250
  0.154000,159.782780
  0.156000,156.042910
  0.158000,152.408180
  0.160000,148.873160
  0.162000,145.430660
  0.164000,142.067360
  0.166000,138.762500
  0.168000,135.508640
  0.170000,132.281450
  0.172000,129.067110
  0.174000,125.865320
  0.176000,122.688250
  0.178000,119.544500
  0.180000,116.458690
  0.182000,113.441570
  0.184000,110.498890
  0.186000,107.622070
  0.188000,104.793800
  0.190000,102.002130
  0.192000, 99.234790
  0.194000, 96.477510
  0.196000, 93.741300
  0.198000, 91.014360
  0.200000, 88.302410
  0.202000, 85.597670
  0.204000, 82.906020
  0.206000, 80.226030
  0.208000, 77.568630
  0.210000, 74.957930
  0.212000, 72.418140
  0.214000, 69.957720
  0.216000, 67.574080
  0.218000, 65.270350
  0.220000, 63.029580
  0.222000, 60.822690
  0.224000, 58.645840
  0.226000, 56.490250
  0.228000, 54.353640
  0.230000, 52.241420
  0.232000, 50.167900
  0.234000, 48.141700
  0.236000, 46.175490
  0.238000, 44.268890
  0.240000, 42.425270
  0.242000, 40.636180
  0.244000, 38.891500
  0.246000, 37.191890
  0.248000, 35.525830
  0.250000, 33.887780
  0.252000, 32.277360
  0.254000, 30.705400
  0.256000, 29.160640
  0.258000, 27.656040
  0.260000, 26.193490
  0.262000, 24.772190
  0.264000, 23.386940
  0.266000, 22.051590
  0.268000, 20.751950
  0.270000, 19.489430
  0.272000, 18.258450
  0.274000, 17.067340
  0.276000, 15.911740
  0.278000, 14.776080
  0.280000, 13.675980
  0.282000, 12.605390
  0.284000, 11.573000
  0.286000, 10.561990
  0.288000,  9.580730
  0.290000,  8.635350
  0.292000,  7.722540
  0.294000,  6.835700
  0.296000,  5.971590
  0.298000,  5.137000
  0.300000,  4.336150
  0.302000,  3.550490
  0.304000,  2.801490
  0.306000,  2.083320
  0.308000,  1.400000
  0.310000,  0.740850
  0.312000,  0.109830
  0.314000, -0.488940
  0.316000, -1.057110
  0.318000, -1.599180
  0.320000, -2.117420
  0.322000, -2.613290
  0.324000, -3.081670
  0.326000, -3.532530
  0.328000, -3.962230
  0.330000, -4.367870
  0.332000, -4.758010
  0.334000, -5.120430
  0.336000, -5.450440
  0.338000, -5.753380
  0.340000, -6.028610
  0.342000, -6.282420
  0.344000, -6.506490
  0.346000, -6.728540
  0.348000, -6.926330
  0.350000, -7.113900
  0.352000, -7.295250
  0.354000, -7.460130
  0.356000, -7.624310
  0.358000, -7.763880
  0.360000, -7.894060
  0.362000, -8.013430
  0.364000, -8.114350
  0.366000, -8.186160
  0.368000, -8.242890
  0.370000, -8.286410
  0.372000, -8.313360
  0.374000, -8.329440
  0.376000, -8.333960
  0.378000, -8.327180
  0.380000, -8.325290
  0.382000, -8.319790
  0.384000, -8.306040
  0.386000, -8.283510
  0.388000, -8.253130
  0.390000, -8.211080
  0.392000, -8.152990
  0.394000, -8.086260
  0.396000, -8.015140
  0.398000, -7.924510
  0.400000, -7.835220
  0.402000, -7.736490
  0.404000, -7.631830
  0.406000, -7.523200
  0.408000, -7.413020
  0.410000, -7.302340
  0.412000, -7.189450
  0.414000, -7.081530
  0.416000, -6.971040
  0.418000, -6.859740
  0.420000, -6.748950
  0.422000, -6.632920
  0.424000, -6.523540
  0.426000, -6.412530
  0.428000, -6.294820
  0.430000, -6.185390
  0.432000, -6.074920
  0.434000, -5.969710
  0.436000, -5.865760
  0.438000, -5.760050
  0.440000, -5.657510
  0.442000, -5.558480
  0.444000, -5.460580
  0.446000, -5.368710
  0.448000, -5.268710
  0.450000, -5.174930
  0.452000, -5.081750
  0.454000, -4.990990
  0.456000, -4.894760
  0.458000, -4.791040
  0.460000, -4.683390
  0.462000, -4.581360
  0.464000, -4.467700
  0.466000, -4.345420
  0.468000, -4.214210
  0.470000, -4.072850
  0.472000, -3.925230
  0.474000, -3.770470
  0.476000, -3.602930
  0.478000, -3.436290
  0.480000, -3.263340
  0.482000, -3.093640
  0.484000, -2.922520
  0.486000, -2.749040
  0.488000, -2.577520
  0.490000, -2.414590
  0.492000, -2.258370
  0.494000, -2.110680
  0.496000, -1.957130
  0.498000, -1.812680
  0.500000, -1.669900
  0.502000, -1.527000
  0.504000, -1.376100
  0.506000, -1.237010
  0.508000, -1.094980
  0.510000, -0.955480
  0.512000, -0.805700
  0.514000, -0.652470
  0.516000, -0.494730
  0.518000, -0.333380
  0.520000, -0.166570
  0.522000,  0.000210
  0.524000,  0.167840
  0.526000,  0.331420
  0.528000,  0.482550
  0.530000,  0.621650
  0.532000,  0.742020
  0.534000,  0.847140
  0.536000,  0.932860
  0.538000,  1.008380
  0.540000,  1.069730
  0.542000,  1.123880
  0.544000,  1.173140
  0.546000,  1.233790
  0.548000,  1.290010
  0.550000,  1.343700
  0.552000,  1.404190
  0.554000,  1.467980
  0.556000,  1.534580
  0.558000,  1.603770
  0.560000,  1.665270
  0.562000,  1.714810
  0.564000,  1.760180
  0.566000,  1.802270
  0.568000,  1.829410
  0.570000,  1.847120
  0.572000,  1.861260
  0.574000,  1.869300
  0.576000,  1.869360
  0.578000,  1.874190
  0.580000,  1.879820
  0.582000,  1.888260
  0.584000,  1.899040
  0.586000,  1.919230
  0.588000,  1.939510
  0.590000,  1.957110
  0.592000,  1.972480
  0.594000,  1.980370
  0.596000,  1.980180
  0.598000,  1.967250
  0.600000,  1.937770
  0.602000,  1.894940
  0.604000,  1.844290
  0.606000,  1.782510
  0.608000,  1.714980
  0.610000,  1.644440
  0.612000,  1.578320
  0.614000,  1.517970
  0.616000,  1.458870
  0.618000,  1.410300
  0.620000,  1.372220
  0.622000,  1.328880
  0.624000,  1.288420
  0.626000,  1.250660
  0.628000,  1.212080
  0.630000,  1.170350
  0.632000,  1.120580
  0.634000,  1.059250
  0.636000,  0.990940
  0.638000,  0.914720
  0.640000,  0.835620
  0.642000,  0.747370
  0.644000,  0.657040
  0.646000,  0.571020
  0.648000,  0.485790
  0.650000,  0.410370
  0.652000,  0.340650
  0.654000,  0.277530
  0.656000,  0.215820
  0.658000,  0.158820
  0.660000,  0.101650
  0.662000,  0.037250
  0.664000, -0.028510
  0.666000, -0.097600
  0.668000, -0.171670
  0.670000, -0.241840
  0.672000, -0.310010
  0.674000, -0.373770
  0.676000, -0.430490
  0.678000, -0.485090
  0.680000, -0.523760
  0.682000, -0.563370
  0.684000, -0.592620
  0.686000, -0.621520
  0.688000, -0.641550
  0.690000, -0.661330
  0.692000, -0.682460
  0.694000, -0.696170
  0.696000, -0.717720
  0.698000, -0.734200
  0.700000, -0.759090
  0.702000, -0.777370
  0.704000, -0.799790
  0.706000, -0.833000
  0.708000, -0.867660
  0.710000, -0.903620
  0.712000, -0.938830
  0.714000, -0.970740
  0.716000, -1.001500
  0.718000, -1.027930
  0.720000, -1.051580
  0.722000, -1.074980
  0.724000, -1.096390
  0.726000, -1.108070
  0.728000, -1.109830
  0.730000, -1.111440
  0.732000, -1.105850
  0.734000, -1.094720
  0.736000, -1.079930
  0.738000, -1.069010
  0.740000, -1.049140
  0.742000, -1.029700
  0.744000, -1.010060
  0.746000, -0.987310
  0.748000, -0.969960
  0.750000, -0.950070
  0.752000, -0.929510
  0.754000, -0.906250
  0.756000, -0.880830
  0.758000, -0.862040
  0.760000, -0.842070
  0.762000, -0.817380
  0.764000, -0.796840
  0.766000, -0.775560
  0.768000, -0.755820
  0.770000, -0.739980
  0.772000, -0.717990
  0.774000, -0.695620
  0.776000, -0.674610
  0.778000, -0.646260
  0.780000, -0.619700
  0.782000, -0.586810
  0.784000, -0.554350
  0.786000, -0.515620
  0.788000, -0.480220
  0.790000, -0.440000
  0.792000, -0.403080
  0.794000, -0.361140
  0.796000, -0.317940
  0.798000, -0.282100
  0.800000, -0.243780
  0.802000, -0.207510
  0.804000, -0.170540
  0.806000, -0.135580
  0.808000, -0.105490
  0.810000, -0.076010
  0.812000, -0.054470
  0.814000, -0.038650
  0.816000, -0.025330
  0.818000, -0.024030
  0.820000, -0.022310
  0.822000, -0.022920
  0.824000, -0.025360
  0.826000, -0.024650
  0.828000, -0.023100
  0.830000, -0.016910
  0.832000, -0.006090
  0.834000,  0.007860
  0.836000,  0.028040
  0.838000,  0.052860
  0.840000,  0.078680
  0.842000,  0.109460
  0.844000,  0.138340
  0.846000,  0.168550
  0.848000,  0.192980
  0.850000,  0.224230
  0.852000,  0.253230
  0.854000,  0.279700
  0.856000,  0.308760
  0.858000,  0.338370
  0.860000,  0.359430
  0.862000,  0.383460
  0.864000,  0.406280
  0.866000,  0.426950
  0.868000,  0.431840
  0.870000,  0.434700
  0.872000,  0.434620
  0.874000,  0.429400
  0.876000,  0.420960
  0.878000,  0.411990
  0.880000,  0.408250
  0.882000,  0.401480
  0.884000,  0.393830
  0.886000,  0.384550
  0.888000,  0.379500
  0.890000,  0.378290
  0.892000,  0.381430
  0.894000,  0.390300
  0.896000,  0.390020
  0.898000,  0.397250
  0.900000,  0.400190
  0.902000,  0.403830
  0.904000,  0.405160
  0.906000,  0.401660
  0.908000,  0.398960
  0.910000,  0.383370
  0.912000,  0.370490
  0.914000,  0.350490
  0.916000,  0.329730
  0.918000,  0.309690
  0.920000,  0.287000
  0.922000,  0.267240
  0.924000,  0.248470
  0.926000,  0.227540
  0.928000,  0.210510
  0.930000,  0.192350
  0.932000,  0.167580
  0.934000,  0.152270
  0.936000,  0.133220
  0.938000,  0.110080
  0.940000,  0.089770
  0.942000,  0.064750
  0.944000,  0.042270
  0.946000,  0.024520
  0.948000, -0.003250
  0.950000, -0.032820
  0.952000, -0.057880
  0.954000, -0.076670
  0.956000, -0.097800
  0.958000, -0.115980
  0.960000, -0.137160
  0.962000, -0.148960
  0.964000, -0.159460
  0.966000, -0.175440
  0.968000, -0.187340
  0.970000, -0.202810
  0.972000, -0.211350
  0.974000, -0.218010
  0.976000, -0.233300
  0.978000, -0.248790
  0.980000, -0.258000
  0.982000, -0.263990
  0.984000, -0.277150
  0.986000, -0.290730
  0.988000, -0.296490
  0.990000, -0.305620
  0.992000, -0.309340
  0.994000, -0.310350
  0.996000, -0.315500
  0.998000, -0.317150
  1.000000, -0.319590
