# z (nm)   (kJ/mol)
  0.100000,267.578040
  0.102000,264.424750
  0.104000,261.868490
  0.106000,259.386710
  0.108000,256.776870
  0.110000,254.224360
  0.112000,251.650420
  0.114000,249.050150
  0.116000,246.402870
  0.118000,243.749980
  0.120000,241.025260
  0.122000,238.232370
  0.124000,235.354920
  0.126000,232.380000
  0.128000,229.300100
  0.130000,226.108740
  0.132000,222.799570
  0.134000,219.354140
  0.136000,215.774330
  0.138000,212.064640
  0.140000,208.215830
  0.142000,204.234940
  0.144000,200.130770
  0.146000,195.939220
  0.148000,191.689850
  0.150000,187.412080
  0.152000,183.133710
  0.154000,178.868190
  0.156000,174.646550
  0.158000,170.476940
  0.160000,166.372890
  0.162000,162.353280
  0.164000,158.430640
  0.166000,154.614270
  0.168000,150.915150
  0.170000,147.327950
  0.172000,143.834220
  0.174000,140.422110
  0.176000,137.076370
  0.178000,133.780500
  0.180000,130.522380
  0.182000,127.294540
  0.184000,124.084300
  0.186000,120.881480
  0.188000,117.678550
  0.190000,114.472790
  0.192000,111.264610
  0.194000,108.061020
  0.196000,104.880990
  0.198000,101.742550
  0.200000, 98.668220
  0.202000, 95.677030
  0.204000, 92.779240
  0.206000, 89.967080
  0.208000, 87.230090
  0.210000, 84.549790
  0.212000, 81.905150
  0.214000, 79.282430
  0.216000, 76.668590
  0.218000, 74.071900
  0.220000, 71.496680
  0.222000, 68.949610
  0.224000, 66.438590
  0.226000, 63.970280
  0.228000, 61.542500
  0.230000, 59.151690
  0.232000, 56.803330
  0.234000, 54.503150
  0.236000, 52.252310
  0.238000, 50.062120
  0.240000, 47.930340
  0.242000, 45.864100
  0.244000, 43.858290
  0.246000, 41.909670
  0.248000, 40.004890
  0.250000, 38.139240
  0.252000, 36.299130
  0.254000, 34.482140
  0.256000, 32.675920
  0.258000, 30.888890
  0.260000, 29.124400
  0.262000, 27.383820
  0.264000, 25.680080
  0.266000, 24.010000
  0.268000, 22.395750
  0.270000, 20.839520
  0.272000, 19.354060
  0.274000, 17.937500
  0.276000, 16.587770
  0.278000, 15.297210
  0.280000, 14.053870
  0.282000, 12.831890
  0.284000, 11.628400
  0.286000, 10.435030
  0.288000,  9.249430
  0.290000,  8.088060
  0.292000,  6.960960
  0.294000,  5.887260
  0.296000,  4.878970
  0.298000,  3.940040
  0.300000,  3.072410
  0.302000,  2.256450
  0.304000,  1.500200
  0.306000,  0.785370
  0.308000,  0.091180
  0.310000, -0.586140
  0.312000, -1.247680
  0.314000, -1.895060
  0.316000, -2.532770
  0.318000, -3.145900
  0.320000, -3.727110
  0.322000, -4.281990
  0.324000, -4.789340
  0.326000, -5.264160
  0.328000, -5.702570
  0.330000, -6.097450
  0.332000, -6.461090
  0.334000, -6.793010
  0.336000, -7.093170
  0.338000, -7.367990
  0.340000, -7.616960
  0.342000, -7.850630
  0.344000, -8.061220
  0.346000, -8.267450
  0.348000, -8.455320
  0.350000, -8.637280
  0.352000, -8.801930
  0.354000, -8.958880
  0.356000, -9.094670
  0.358000, -9.215520
  0.360000, -9.321950
  0.362000, -9.402430
  0.364000, -9.457510
  0.366000, -9.495440
  0.368000, -9.515920
  0.370000, -9.516820
  0.372000, -9.513550
  0.374000, -9.493780
  0.376000, -9.462840
  0.378000, -9.430400
  0.380000, -9.389500
  0.382000, -9.334360
  0.384000, -9.263690
  0.386000, -9.195610
  0.388000, -9.113210
  0.390000, -9.022530
  0.392000, -8.923700
  0.394000, -8.819960
  0.396000, -8.708270
  0.398000, -8.588710
  0.400000, -8.466970
  0.402000, -8.338250
  0.404000, -8.203350
  0.406000, -8.061160
  0.408000, -7.917970
  0.410000, -7.761720
  0.412000, -7.601680
  0.414000, -7.436600
  0.416000, -7.264560
  0.418000, -7.099660
  0.420000, -6.941130
  0.422000, -6.790840
  0.424000, -6.644110
  0.426000, -6.505420
  0.428000, -6.364190
  0.430000, -6.239480
  0.432000, -6.115700
  0.434000, -6.000490
  0.436000, -5.880060
  0.438000, -5.762840
  0.440000, -5.639650
  0.442000, -5.508290
  0.444000, -5.375270
  0.446000, -5.236730
  0.448000, -5.095580
  0.450000, -4.955580
  0.452000, -4.820130
  0.454000, -4.683710
  0.456000, -4.557010
  0.458000, -4.445620
  0.460000, -4.337450
  0.462000, -4.239480
  0.464000, -4.151330
  0.466000, -4.064040
  0.468000, -3.973610
  0.470000, -3.877070
  0.472000, -3.784170
  0.474000, -3.694330
  0.476000, -3.607520
  0.478000, -3.523240
  0.480000, -3.445200
  0.482000, -3.372680
  0.484000, -3.304660
  0.486000, -3.244700
  0.488000, -3.187540
  0.490000, -3.129170
  0.492000, -3.075970
  0.494000, -3.017220
  0.496000, -2.954520
  0.498000, -2.885610
  0.500000, -2.813910
  0.502000, -2.740260
  0.504000, -2.658900
  0.506000, -2.587630
  0.508000, -2.515210
  0.510000, -2.444560
  0.512000, -2.370090
  0.514000, -2.290670
  0.516000, -2.207060
  0.518000, -2.115080
  0.520000, -2.025010
  0.522000, -1.923790
  0.524000, -1.816790
  0.526000, -1.703440
  0.528000, -1.582240
  0.530000, -1.462460
  0.532000, -1.324840
  0.534000, -1.192210
  0.536000, -1.056690
  0.538000, -0.920100
  0.540000, -0.778560
  0.542000, -0.634560
  0.544000, -0.488070
  0.546000, -0.338320
  0.548000, -0.181420
  0.550000, -0.022300
  0.552000,  0.135250
  0.554000,  0.298860
  0.556000,  0.467350
  0.558000,  0.642970
  0.560000,  0.816540
  0.562000,  0.992460
  0.564000,  1.171820
  0.566000,  1.334320
  0.568000,  1.504160
  0.570000,  1.665050
  0.572000,  1.825440
  0.574000,  1.977570
  0.576000,  2.112010
  0.578000,  2.249760
  0.580000,  2.376360
  0.582000,  2.500870
  0.584000,  2.620030
  0.586000,  2.725560
  0.588000,  2.832410
  0.590000,  2.933540
  0.592000,  3.033740
  0.594000,  3.124480
  0.596000,  3.207690
  0.598000,  3.286780
  0.600000,  3.357210
  0.602000,  3.418180
  0.604000,  3.469000
  0.606000,  3.502460
  0.608000,  3.523720
  0.610000,  3.538350
  0.612000,  3.533070
  0.614000,  3.516840
  0.616000,  3.494330
  0.618000,  3.457680
  0.620000,  3.414750
  0.622000,  3.362320
  0.624000,  3.301260
  0.626000,  3.233040
  0.628000,  3.155240
  0.630000,  3.073390
  0.632000,  2.983740
  0.634000,  2.892790
  0.636000,  2.794330
  0.638000,  2.695890
  0.640000,  2.595330
  0.642000,  2.486610
  0.644000,  2.379280
  0.646000,  2.272240
  0.648000,  2.159260
  0.650000,  2.048100
  0.652000,  1.938170
  0.654000,  1.817820
  0.656000,  1.701120
  0.658000,  1.580100
  0.660000,  1.465100
  0.662000,  1.342080
  0.664000,  1.228370
  0.666000,  1.121420
  0.668000,  1.028030
  0.670000,  0.941640
  0.672000,  0.868630
  0.674000,  0.800790
  0.676000,  0.742930
  0.678000,  0.683630
  0.680000,  0.626130
  0.682000,  0.569990
  0.684000,  0.514630
  0.686000,  0.461510
  0.688000,  0.409180
  0.690000,  0.360290
  0.692000,  0.315990
  0.694000,  0.275400
  0.696000,  0.234020
  0.698000,  0.197540
  0.700000,  0.166790
  0.702000,  0.135360
  0.704000,  0.109350
  0.706000,  0.086000
  0.708000,  0.068140
  0.710000,  0.050080
  0.712000,  0.033110
  0.714000,  0.021590
  0.716000,  0.014820
  0.718000,  0.004080
  0.720000, -0.001230
  0.722000, -0.008390
  0.724000, -0.012850
  0.726000, -0.020100
  0.728000, -0.030300
  0.730000, -0.035650
  0.732000, -0.042430
  0.734000, -0.047890
  0.736000, -0.051930
  0.738000, -0.057090
  0.740000, -0.062210
  0.742000, -0.065720
  0.744000, -0.063570
  0.746000, -0.062770
  0.748000, -0.058500
  0.750000, -0.052340
  0.752000, -0.046430
  0.754000, -0.040810
  0.756000, -0.035700
  0.758000, -0.031500
  0.760000, -0.024060
  0.762000, -0.023940
  0.764000, -0.020410
  0.766000, -0.019160
  0.768000, -0.016110
  0.770000, -0.015270
  0.772000, -0.014260
  0.774000, -0.010040
  0.776000, -0.001880
  0.778000,  0.006850
  0.780000,  0.020900
  0.782000,  0.036680
  0.784000,  0.056080
  0.786000,  0.077900
  0.788000,  0.100810
  0.790000,  0.123430
  0.792000,  0.149250
  0.794000,  0.168830
  0.796000,  0.186950
  0.798000,  0.211900
  0.800000,  0.226980
  0.802000,  0.238740
  0.804000,  0.242300
  0.806000,  0.245940
  0.808000,  0.246410
  0.810000,  0.252950
  0.812000,  0.263330
  0.814000,  0.280530
  0.816000,  0.302070
  0.818000,  0.328080
  0.820000,  0.363230
  0.822000,  0.403270
  0.824000,  0.446610
  0.826000,  0.488350
  0.828000,  0.525310
  0.830000,  0.563670
  0.832000,  0.602580
  0.834000,  0.627680
  0.836000,  0.648630
  0.838000,  0.662200
  0.840000,  0.660890
  0.842000,  0.660840
  0.844000,  0.657560
  0.846000,  0.655160
  0.848000,  0.656150
  0.850000,  0.662070
  0.852000,  0.678310
  0.854000,  0.705110
  0.856000,  0.740760
  0.858000,  0.783340
  0.860000,  0.823230
  0.862000,  0.861350
  0.864000,  0.893730
  0.866000,  0.918660
  0.868000,  0.928300
  0.870000,  0.925800
  0.872000,  0.915460
  0.874000,  0.889730
  0.876000,  0.852240
  0.878000,  0.815240
  0.880000,  0.781280
  0.882000,  0.757620
  0.884000,  0.738780
  0.886000,  0.738320
  0.888000,  0.747120
  0.890000,  0.764150
  0.892000,  0.780470
  0.894000,  0.801670
  0.896000,  0.817040
  0.898000,  0.826920
  0.900000,  0.830210
  0.902000,  0.815230
  0.904000,  0.791340
  0.906000,  0.761740
  0.908000,  0.727080
  0.910000,  0.682120
  0.912000,  0.639180
  0.914000,  0.595180
  0.916000,  0.551870
  0.918000,  0.507820
  0.920000,  0.469180
  0.922000,  0.429100
  0.924000,  0.393510
  0.926000,  0.360480
  0.928000,  0.325980
  0.930000,  0.302320
  0.932000,  0.279200
  0.934000,  0.257170
  0.936000,  0.239140
  0.938000,  0.220790
  0.940000,  0.203680
  0.942000,  0.183010
  0.944000,  0.163670
  0.946000,  0.133390
  0.948000,  0.105000
  0.950000,  0.070680
  0.952000,  0.033790
  0.954000, -0.003980
  0.956000, -0.051700
  0.958000, -0.100370
  0.960000, -0.152840
  0.962000, -0.211460
  0.964000, -0.268440
  0.966000, -0.330470
  0.968000, -0.390350
  0.970000, -0.448200
  0.972000, -0.496580
  0.974000, -0.531900
  0.976000, -0.551610
  0.978000, -0.557900
  0.980000, -0.549140
  0.982000, -0.530890
  0.984000, -0.510690
  0.986000, -0.497320
  0.988000, -0.492370
  0.990000, -0.502280
  0.992000, -0.526210
  0.994000, -0.563870
  0.996000, -0.608390
  0.998000, -0.658280
  1.000000, -0.706420
