# z (nm)   (kJ/mol)
  0.0420  290.39558
  0.0440  288.04978
  0.0460  285.58598
  0.0480  283.27049
  0.0500  280.98828
  0.0520  278.73769
  0.0540  276.41944
  0.0560  274.15874
  0.0580  271.92972
  0.0600  269.65854
  0.0620  267.38448
  0.0640  265.08001
  0.0660  262.74395
  0.0680  260.34855
  0.0700  257.90366
  0.0720  255.38243
  0.0740  252.76892
  0.0760  250.04951
  0.0780  247.21107
  0.0800  244.23871
  0.0820  241.11353
  0.0840  237.83123
  0.0860  234.38408
  0.0880  230.77330
  0.0900  227.00282
  0.0920  223.08870
  0.0940  219.04939
  0.0960  214.92126
  0.0980  210.74089
  0.1000  206.55539
  0.1020  202.40293
  0.1040  198.31154
  0.1060  194.31218
  0.1080  190.41212
  0.1100  186.61475
  0.1120  182.90173
  0.1140  179.26175
  0.1160  175.67182
  0.1180  172.13089
  0.1200  168.62510
  0.1220  165.15782
  0.1240  161.72705
  0.1260  158.34783
  0.1280  155.01741
  0.1300  151.73018
  0.1320  148.47453
  0.1340  145.24492
  0.1360  142.03285
  0.1380  138.83590
  0.1400  135.65786
  0.1420  132.51773
  0.1440  129.41787
  0.1460  126.37999
  0.1480  123.40508
  0.1500  120.49611
  0.1520  117.65274
  0.1540  114.86764
  0.1560  112.13554
  0.1580  109.44431
  0.1600  106.77967
  0.1620  104.13335
  0.1640  101.50604
  0.1660   98.88612
  0.1680   96.27821
  0.1700   93.69004
  0.1720   91.12004
  0.1740   88.56891
  0.1760   86.04339
  0.1780   83.54672
  0.1800   81.07340
  0.1820   78.63276
  0.1840   76.22496
  0.1860   73.85014
  0.1880   71.50916
  0.1900   69.21404
  0.1920   66.97003
  0.1940   64.77047
  0.1960   62.61715
  0.1980   60.52246
  0.2000   58.48022
  0.2020   56.48942
  0.2040   54.54394
  0.2060   52.64178
  0.2080   50.77740
  0.2100   48.94637
  0.2120   47.14848
  0.2140   45.38553
  0.2160   43.65542
  0.2180   41.95590
  0.2200   40.28841
  0.2220   38.65622
  0.2240   37.05983
  0.2260   35.49934
  0.2280   33.98495
  0.2300   32.50355
  0.2320   31.06413
  0.2340   29.66738
  0.2360   28.30370
  0.2380   26.98686
  0.2400   25.70947
  0.2420   24.47788
  0.2440   23.27726
  0.2460   22.11868
  0.2480   21.00533
  0.2500   19.92359
  0.2520   18.87534
  0.2540   17.86810
  0.2560   16.88647
  0.2580   15.93106
  0.2600   15.00986
  0.2620   14.12185
  0.2640   13.26332
  0.2660   12.43339
  0.2680   11.63840
  0.2700   10.87033
  0.2720   10.14139
  0.2740    9.44913
  0.2760    8.78785
  0.2780    8.16694
  0.2800    7.58014
  0.2820    7.02232
  0.2840    6.49097
  0.2860    5.98313
  0.2880    5.49876
  0.2900    5.03389
  0.2920    4.58472
  0.2940    4.14918
  0.2960    3.73157
  0.2980    3.33063
  0.3000    2.94492
  0.3020    2.58455
  0.3040    2.24303
  0.3060    1.92683
  0.3080    1.63339
  0.3100    1.36867
  0.3120    1.12562
  0.3140    0.90600
  0.3160    0.70302
  0.3180    0.52239
  0.3200    0.36014
  0.3220    0.20689
  0.3240    0.06725
  0.3260   -0.05836
  0.3280   -0.17088
  0.3300   -0.27280
  0.3320   -0.36754
  0.3340   -0.45270
  0.3360   -0.52928
  0.3380   -0.59966
  0.3400   -0.65956
  0.3420   -0.71086
  0.3440   -0.75046
  0.3460   -0.78044
  0.3480   -0.80384
  0.3500   -0.81177
  0.3520   -0.81313
  0.3540   -0.80175
  0.3560   -0.77492
  0.3580   -0.74406
  0.3600   -0.71078
  0.3620   -0.66251
  0.3640   -0.61582
  0.3660   -0.55773
  0.3680   -0.49422
  0.3700   -0.42801
  0.3720   -0.35515
  0.3740   -0.27887
  0.3760   -0.19432
  0.3780   -0.11328
  0.3800   -0.03724
  0.3820    0.04478
  0.3840    0.12313
  0.3860    0.20392
  0.3880    0.28299
  0.3900    0.35514
  0.3920    0.43137
  0.3940    0.49660
  0.3960    0.56257
  0.3980    0.62582
  0.4000    0.68282
  0.4020    0.74162
  0.4040    0.80043
  0.4060    0.85370
  0.4080    0.90767
  0.4100    0.96562
  0.4120    1.01804
  0.4140    1.07820
  0.4160    1.13192
  0.4180    1.18675
  0.4200    1.24214
  0.4220    1.29943
  0.4240    1.34767
  0.4260    1.39926
  0.4280    1.44554
  0.4300    1.48179
  0.4320    1.51507
  0.4340    1.54329
  0.4360    1.57000
  0.4380    1.58668
  0.4400    1.60022
  0.4420    1.61064
  0.4440    1.62221
  0.4460    1.63036
  0.4480    1.64141
  0.4500    1.65322
  0.4520    1.66294
  0.4540    1.67290
  0.4560    1.68059
  0.4580    1.68866
  0.4600    1.69980
  0.4620    1.70995
  0.4640    1.71768
  0.4660    1.72233
  0.4680    1.72937
  0.4700    1.72972
  0.4720    1.72724
  0.4740    1.72333
  0.4760    1.71663
  0.4780    1.70841
  0.4800    1.69835
  0.4820    1.68794
  0.4840    1.68111
  0.4860    1.66937
  0.4880    1.64460
  0.4900    1.62016
  0.4920    1.59087
  0.4940    1.56072
  0.4960    1.52901
  0.4980    1.49141
  0.5000    1.45363
  0.5020    1.41534
  0.5040    1.37413
  0.5060    1.33588
  0.5080    1.30185
  0.5100    1.26618
  0.5120    1.23143
  0.5140    1.20138
  0.5160    1.17379
  0.5180    1.14644
  0.5200    1.11714
  0.5220    1.08965
  0.5240    1.06195
  0.5260    1.03808
  0.5280    1.01513
  0.5300    0.99517
  0.5320    0.97009
  0.5340    0.94737
  0.5360    0.92825
  0.5380    0.90413
  0.5400    0.87968
  0.5420    0.85430
  0.5440    0.83448
  0.5460    0.81209
  0.5480    0.78636
  0.5500    0.75943
  0.5520    0.72820
  0.5540    0.70128
  0.5560    0.67757
  0.5580    0.65103
  0.5600    0.62708
  0.5620    0.60593
  0.5640    0.58810
  0.5660    0.57601
  0.5680    0.56166
  0.5700    0.55212
  0.5720    0.54041
  0.5740    0.52682
  0.5760    0.51390
  0.5780    0.50082
  0.5800    0.49774
  0.5820    0.47529
  0.5840    0.45372
  0.5860    0.42582
  0.5880    0.40370
  0.5900    0.38157
  0.5920    0.35530
  0.5940    0.32770
  0.5960    0.30047
  0.5980    0.27402
  0.6000    0.24761
  0.6020    0.21948
  0.6040    0.20150
  0.6060    0.17837
  0.6080    0.15984
  0.6100    0.14488
  0.6120    0.12602
  0.6140    0.11062
  0.6160    0.09743
  0.6180    0.08156
  0.6200    0.07426
  0.6220    0.06816
  0.6240    0.06600
  0.6260    0.06134
  0.6280    0.05839
  0.6300    0.05805
  0.6320    0.06097
  0.6340    0.06124
  0.6360    0.06467
  0.6380    0.06715
  0.6400    0.07012
  0.6420    0.06784
  0.6440    0.06086
  0.6460    0.05388
  0.6480    0.05274
  0.6500    0.04641
  0.6520    0.04259
  0.6540    0.04029
  0.6560    0.03972
  0.6580    0.03947
  0.6600    0.04316
  0.6620    0.04900
  0.6640    0.05850
  0.6660    0.07018
  0.6680    0.08732
  0.6700    0.10877
  0.6720    0.13553
  0.6740    0.16526
  0.6760    0.20229
  0.6780    0.24170
  0.6800    0.28396
  0.6820    0.32989
  0.6840    0.37143
  0.6860    0.41556
  0.6880    0.45625
  0.6900    0.48823
  0.6920    0.52710
  0.6940    0.55999
  0.6960    0.58640
  0.6980    0.60836
  0.7000    0.62694
  0.7020    0.64457
  0.7040    0.66285
  0.7060    0.68073
  0.7080    0.70104
  0.7100    0.71518
  0.7120    0.73585
  0.7140    0.75600
  0.7160    0.77793
  0.7180    0.80419
  0.7200    0.83185
  0.7220    0.85914
  0.7240    0.88448
  0.7260    0.90789
  0.7280    0.93215
  0.7300    0.96092
  0.7320    0.98735
  0.7340    1.01295
  0.7360    1.04109
  0.7380    1.06630
  0.7400    1.09035
  0.7420    1.11965
  0.7440    1.14360
  0.7460    1.17367
  0.7480    1.19260
  0.7500    1.20114
  0.7520    1.21467
  0.7540    1.22247
  0.7560    1.22977
  0.7580    1.23234
  0.7600    1.22985
  0.7620    1.21788
  0.7640    1.20453
  0.7660    1.18962
  0.7680    1.17081
  0.7700    1.15284
  0.7720    1.13396
  0.7740    1.11611
  0.7760    1.09397
  0.7780    1.07023
  0.7800    1.05212
  0.7820    1.04291
  0.7840    1.02881
  0.7860    1.01828
  0.7880    1.00982
  0.7900    0.99919
  0.7920    0.99111
  0.7940    0.98173
  0.7960    0.97157
  0.7980    0.96013
  0.8000    0.95112
  0.8020    0.93993
  0.8040    0.92746
  0.8060    0.90967
  0.8080    0.89477
  0.8100    0.87078
  0.8120    0.84941
  0.8140    0.82270
  0.8160    0.79381
  0.8180    0.75872
  0.8200    0.72604
  0.8220    0.69149
  0.8240    0.66153
  0.8260    0.62460
  0.8280    0.59453
  0.8300    0.56180
  0.8320    0.53327
  0.8340    0.50385
  0.8360    0.47419
  0.8380    0.44066
  0.8400    0.41127
  0.8420    0.37726
  0.8440    0.34495
  0.8460    0.31741
  0.8480    0.28394
  0.8500    0.25516
  0.8520    0.22680
  0.8540    0.20022
  0.8560    0.17776
  0.8580    0.15664
  0.8600    0.13647
  0.8620    0.11408
  0.8640    0.09618
  0.8660    0.08672
  0.8680    0.07433
  0.8700    0.05759
  0.8720    0.03990
  0.8740    0.02746
  0.8760    0.01463
  0.8780    0.00789
  0.8800    0.00116
  0.8820    0.00043
  0.8840    0.00298
  0.8860    0.00072
  0.8880   -0.00292
  0.8900   -0.00187
  0.8920    0.00167
  0.8940    0.00540
  0.8960    0.00870
  0.8980    0.00918
  0.9000    0.00741
  0.9020    0.00043
  0.9040   -0.00673
  0.9060   -0.01682
  0.9080   -0.02638
  0.9100   -0.03220
  0.9120   -0.04398
  0.9140   -0.05940
  0.9160   -0.07181
  0.9180   -0.08395
  0.9200   -0.09674
  0.9220   -0.11146
  0.9240   -0.11944
  0.9260   -0.12163
  0.9280   -0.12262
  0.9300   -0.12298
  0.9320   -0.11927
  0.9340   -0.11197
  0.9360   -0.10244
  0.9380   -0.09382
  0.9400   -0.08192
  0.9420   -0.06393
  0.9440   -0.04102
  0.9460   -0.01728
  0.9480    0.00496
  0.9500    0.02446
  0.9520    0.04306
  0.9540    0.06049
  0.9560    0.07122
  0.9580    0.08743
  0.9600    0.09054
  0.9620    0.08692
  0.9640    0.08604
  0.9660    0.08170
  0.9680    0.07277
  0.9700    0.06952
  0.9720    0.06704
  0.9740    0.06319
  0.9760    0.06104
  0.9780    0.06119
  0.9800    0.06674
  0.9820    0.06651
  0.9840    0.06683
  0.9860    0.06693
  0.9880    0.06623
  0.9900    0.06450
  0.9920    0.05502
  0.9940    0.04997
  0.9960    0.04840
  0.9980    0.04445
  1.0000    0.04018
