# z (nm)   (kJ/mol)
  0.0980  269.87850
  0.1000  267.74117
  0.1020  265.65173
  0.1040  263.36864
  0.1060  261.13423
  0.1080  258.94402
  0.1100  256.73616
  0.1120  254.49767
  0.1140  252.22044
  0.1160  249.90793
  0.1180  247.48850
  0.1200  244.97820
  0.1220  242.31633
  0.1240  239.51030
  0.1260  236.53308
  0.1280  233.40018
  0.1300  230.09242
  0.1320  226.61697
  0.1340  222.97622
  0.1360  219.16599
  0.1380  215.18172
  0.1400  211.01980
  0.1420  206.68424
  0.1440  202.18112
  0.1460  197.51990
  0.1480  192.74223
  0.1500  187.87471
  0.1520  182.95511
  0.1540  178.02791
  0.1560  173.12871
  0.1580  168.29904
  0.1600  163.57818
  0.1620  159.01251
  0.1640  154.62453
  0.1660  150.42424
  0.1680  146.38525
  0.1700  142.47253
  0.1720  138.63053
  0.1740  134.82013
  0.1760  131.04241
  0.1780  127.32476
  0.1800  123.71845
  0.1820  120.27181
  0.1840  117.00453
  0.1860  113.89118
  0.1880  110.87701
  0.1900  107.88569
  0.1920  104.83826
  0.1940  101.68919
  0.1960   98.42959
  0.1980   95.10439
  0.2000   91.79232
  0.2020   88.57673
  0.2040   85.52783
  0.2060   82.67099
  0.2080   79.97043
  0.2100   77.37444
  0.2120   74.81360
  0.2140   72.24549
  0.2160   69.65152
  0.2180   67.05724
  0.2200   64.50127
  0.2220   62.02188
  0.2240   59.64537
  0.2260   57.37067
  0.2280   55.19284
  0.2300   53.05793
  0.2320   50.95353
  0.2340   48.86586
  0.2360   46.78876
  0.2380   44.71849
  0.2400   42.67289
  0.2420   40.66205
  0.2440   38.68285
  0.2460   36.75635
  0.2480   34.89401
  0.2500   33.09559
  0.2520   31.38052
  0.2540   29.72643
  0.2560   28.13368
  0.2580   26.59537
  0.2600   25.09740
  0.2620   23.64651
  0.2640   22.23821
  0.2660   20.88777
  0.2680   19.57560
  0.2700   18.31275
  0.2720   17.10348
  0.2740   15.93754
  0.2760   14.81044
  0.2780   13.73148
  0.2800   12.69912
  0.2820   11.72306
  0.2840   10.79174
  0.2860    9.89890
  0.2880    9.05434
  0.2900    8.24485
  0.2920    7.46117
  0.2940    6.71530
  0.2960    5.99888
  0.2980    5.31050
  0.3000    4.65542
  0.3020    4.04044
  0.3040    3.46644
  0.3060    2.92987
  0.3080    2.41199
  0.3100    1.91887
  0.3120    1.44508
  0.3140    0.99683
  0.3160    0.57746
  0.3180    0.17952
  0.3200   -0.17164
  0.3220   -0.47858
  0.3240   -0.74156
  0.3260   -0.97051
  0.3280   -1.16789
  0.3300   -1.33285
  0.3320   -1.51157
  0.3340   -1.69209
  0.3360   -1.87110
  0.3380   -2.04186
  0.3400   -2.20478
  0.3420   -2.33612
  0.3440   -2.43474
  0.3460   -2.49948
  0.3480   -2.54923
  0.3500   -2.59749
  0.3520   -2.66010
  0.3540   -2.74708
  0.3560   -2.84073
  0.3580   -2.94753
  0.3600   -3.04657
  0.3620   -3.13817
  0.3640   -3.20108
  0.3660   -3.24872
  0.3680   -3.29335
  0.3700   -3.32650
  0.3720   -3.35407
  0.3740   -3.37911
  0.3760   -3.41757
  0.3780   -3.47466
  0.3800   -3.54418
  0.3820   -3.63021
  0.3840   -3.72333
  0.3860   -3.83093
  0.3880   -3.93641
  0.3900   -4.02677
  0.3920   -4.11585
  0.3940   -4.19302
  0.3960   -4.27492
  0.3980   -4.34288
  0.4000   -4.43273
  0.4020   -4.53450
  0.4040   -4.64730
  0.4060   -4.77124
  0.4080   -4.88349
  0.4100   -4.98705
  0.4120   -5.08415
  0.4140   -5.17947
  0.4160   -5.27580
  0.4180   -5.37686
  0.4200   -5.48829
  0.4220   -5.60567
  0.4240   -5.72817
  0.4260   -5.83181
  0.4280   -5.90115
  0.4300   -5.91711
  0.4320   -5.87901
  0.4340   -5.84795
  0.4360   -5.92590
  0.4380   -6.23367
  0.4400   -6.73295
  0.4420   -7.20141
  0.4440   -7.31403
  0.4460   -7.01622
  0.4480   -6.54628
  0.4500   -6.22751
  0.4520   -6.18245
  0.4540   -6.31892
  0.4560   -6.51083
  0.4580   -6.65552
  0.4600   -6.72888
  0.4620   -6.73141
  0.4640   -6.68299
  0.4660   -6.61863
  0.4680   -6.54458
  0.4700   -6.46947
  0.4720   -6.41056
  0.4740   -6.35402
  0.4760   -6.30366
  0.4780   -6.25317
  0.4800   -6.19800
  0.4820   -6.14775
  0.4840   -6.08724
  0.4860   -6.02552
  0.4880   -5.97574
  0.4900   -5.92562
  0.4920   -5.87861
  0.4940   -5.83295
  0.4960   -5.78772
  0.4980   -5.73355
  0.5000   -5.66734
  0.5020   -5.59604
  0.5040   -5.51281
  0.5060   -5.41599
  0.5080   -5.31907
  0.5100   -5.21169
  0.5120   -5.10075
  0.5140   -4.99070
  0.5160   -4.88933
  0.5180   -4.80383
  0.5200   -4.72897
  0.5220   -4.66841
  0.5240   -4.60777
  0.5260   -4.54510
  0.5280   -4.47929
  0.5300   -4.40835
  0.5320   -4.33848
  0.5340   -4.26541
  0.5360   -4.19412
  0.5380   -4.11753
  0.5400   -4.04351
  0.5420   -3.96828
  0.5440   -3.88418
  0.5460   -3.79480
  0.5480   -3.71295
  0.5500   -3.65854
  0.5520   -3.62492
  0.5540   -3.61173
  0.5560   -3.60919
  0.5580   -3.59835
  0.5600   -3.56577
  0.5620   -3.51416
  0.5640   -3.43715
  0.5660   -3.34865
  0.5680   -3.25103
  0.5700   -3.15752
  0.5720   -3.08460
  0.5740   -3.03663
  0.5760   -3.01000
  0.5780   -3.01001
  0.5800   -3.02689
  0.5820   -3.05910
  0.5840   -3.09320
  0.5860   -3.11156
  0.5880   -3.11444
  0.5900   -3.08945
  0.5920   -3.04070
  0.5940   -2.96669
  0.5960   -2.87268
  0.5980   -2.77459
  0.6000   -2.68444
  0.6020   -2.61197
  0.6040   -2.57149
  0.6060   -2.54673
  0.6080   -2.53685
  0.6100   -2.54236
  0.6120   -2.54026
  0.6140   -2.52976
  0.6160   -2.50705
  0.6180   -2.46930
  0.6200   -2.41826
  0.6220   -2.35409
  0.6240   -2.28052
  0.6260   -2.19666
  0.6280   -2.10427
  0.6300   -2.01839
  0.6320   -1.93129
  0.6340   -1.85010
  0.6360   -1.75872
  0.6380   -1.66378
  0.6400   -1.57120
  0.6420   -1.48314
  0.6440   -1.40753
  0.6460   -1.33930
  0.6480   -1.28437
  0.6500   -1.24985
  0.6520   -1.22784
  0.6540   -1.21701
  0.6560   -1.20508
  0.6580   -1.19554
  0.6600   -1.17085
  0.6620   -1.13390
  0.6640   -1.08825
  0.6660   -1.02059
  0.6680   -0.94581
  0.6700   -0.87216
  0.6720   -0.80632
  0.6740   -0.75705
  0.6760   -0.72380
  0.6780   -0.70717
  0.6800   -0.70098
  0.6820   -0.70632
  0.6840   -0.71647
  0.6860   -0.73036
  0.6880   -0.73464
  0.6900   -0.73577
  0.6920   -0.73317
  0.6940   -0.72220
  0.6960   -0.70509
  0.6980   -0.68877
  0.7000   -0.66738
  0.7020   -0.65144
  0.7040   -0.63840
  0.7060   -0.63192
  0.7080   -0.62594
  0.7100   -0.62930
  0.7120   -0.62901
  0.7140   -0.62590
  0.7160   -0.62154
  0.7180   -0.61650
  0.7200   -0.60536
  0.7220   -0.59115
  0.7240   -0.58504
  0.7260   -0.58029
  0.7280   -0.57973
  0.7300   -0.58412
  0.7320   -0.59369
  0.7340   -0.60730
  0.7360   -0.61908
  0.7380   -0.62850
  0.7400   -0.62970
  0.7420   -0.63075
  0.7440   -0.62533
  0.7460   -0.61245
  0.7480   -0.59479
  0.7500   -0.57155
  0.7520   -0.54800
  0.7540   -0.52390
  0.7560   -0.49706
  0.7580   -0.47456
  0.7600   -0.45381
  0.7620   -0.44277
  0.7640   -0.43303
  0.7660   -0.43678
  0.7680   -0.43951
  0.7700   -0.44338
  0.7720   -0.44166
  0.7740   -0.44128
  0.7760   -0.43097
  0.7780   -0.40745
  0.7800   -0.37481
  0.7820   -0.33376
  0.7840   -0.27726
  0.7860   -0.22577
  0.7880   -0.17970
  0.7900   -0.14582
  0.7920   -0.12408
  0.7940   -0.11946
  0.7960   -0.12604
  0.7980   -0.14707
  0.8000   -0.17757
  0.8020   -0.20225
  0.8040   -0.22463
  0.8060   -0.23114
  0.8080   -0.22739
  0.8100   -0.21007
  0.8120   -0.18364
  0.8140   -0.14565
  0.8160   -0.11145
  0.8180   -0.07432
  0.8200   -0.03834
  0.8220   -0.01080
  0.8240    0.01453
  0.8260    0.03274
  0.8280    0.04823
  0.8300    0.05935
  0.8320    0.06995
  0.8340    0.08642
  0.8360    0.10468
  0.8380    0.12649
  0.8400    0.13727
  0.8420    0.14615
  0.8440    0.14849
  0.8460    0.14552
  0.8480    0.13752
  0.8500    0.12055
  0.8520    0.09822
  0.8540    0.06754
  0.8560    0.03798
  0.8580    0.00805
  0.8600   -0.01889
  0.8620   -0.04193
  0.8640   -0.04776
  0.8660   -0.04622
  0.8680   -0.03042
  0.8700   -0.00568
  0.8720    0.03195
  0.8740    0.07890
  0.8760    0.13018
  0.8780    0.17627
  0.8800    0.21184
  0.8820    0.23230
  0.8840    0.23513
  0.8860    0.22990
  0.8880    0.21662
  0.8900    0.19252
  0.8920    0.16899
  0.8940    0.14188
  0.8960    0.12681
  0.8980    0.11226
  0.9000    0.10896
  0.9020    0.10829
  0.9040    0.11569
  0.9060    0.12161
  0.9080    0.13188
  0.9100    0.13928
  0.9120    0.15261
  0.9140    0.15957
  0.9160    0.16151
  0.9180    0.16900
  0.9200    0.17590
  0.9220    0.17502
  0.9240    0.17184
  0.9260    0.16127
  0.9280    0.14632
  0.9300    0.12787
  0.9320    0.10943
  0.9340    0.08360
  0.9360    0.06486
  0.9380    0.05060
  0.9400    0.04010
  0.9420    0.02892
  0.9440    0.02041
  0.9460    0.00920
  0.9480   -0.00352
  0.9500   -0.01929
  0.9520   -0.03958
  0.9540   -0.06490
  0.9560   -0.08665
  0.9580   -0.10791
  0.9600   -0.12576
  0.9620   -0.14136
  0.9640   -0.14383
  0.9660   -0.14138
  0.9680   -0.12998
  0.9700   -0.11194
  0.9720   -0.09532
  0.9740   -0.07947
  0.9760   -0.07260
  0.9780   -0.07225
  0.9800   -0.09333
  0.9820   -0.12096
  0.9840   -0.15033
  0.9860   -0.17461
  0.9880   -0.18227
  0.9900   -0.17252
  0.9920   -0.14307
  0.9940   -0.09870
  0.9960   -0.05374
  0.9980   -0.01765
  1.0000    0.01810
