# z (nm)   (kJ/mol)
  0.0480  272.13855
  0.0500  269.91041
  0.0520  267.73493
  0.0540  265.59946
  0.0560  263.31838
  0.0580  261.21606
  0.0600  259.12965
  0.0620  257.02490
  0.0640  254.91184
  0.0660  252.78831
  0.0680  250.60702
  0.0700  248.39504
  0.0720  246.12272
  0.0740  243.77101
  0.0760  241.32444
  0.0780  238.76315
  0.0800  236.07667
  0.0820  233.24176
  0.0840  230.24404
  0.0860  227.09226
  0.0880  223.77557
  0.0900  220.30133
  0.0920  216.67461
  0.0940  212.91066
  0.0960  209.02506
  0.0980  205.03921
  0.1000  200.98167
  0.1020  196.88214
  0.1040  192.77245
  0.1060  188.68771
  0.1080  184.65515
  0.1100  180.69799
  0.1120  176.82535
  0.1140  173.04316
  0.1160  169.34836
  0.1180  165.72799
  0.1200  162.17939
  0.1220  158.69516
  0.1240  155.26831
  0.1260  151.89014
  0.1280  148.56587
  0.1300  145.27726
  0.1320  142.01771
  0.1340  138.76522
  0.1360  135.52214
  0.1380  132.27943
  0.1400  129.04201
  0.1420  125.82300
  0.1440  122.63731
  0.1460  119.51597
  0.1480  116.47064
  0.1500  113.50859
  0.1520  110.64585
  0.1540  107.85742
  0.1560  105.12534
  0.1580  102.41472
  0.1600   99.68697
  0.1620   96.91813
  0.1640   94.09109
  0.1660   91.21418
  0.1680   88.30772
  0.1700   85.41268
  0.1720   82.58053
  0.1740   79.86664
  0.1760   77.29103
  0.1780   74.86918
  0.1800   72.59783
  0.1820   70.44537
  0.1840   68.37195
  0.1860   66.31270
  0.1880   64.21241
  0.1900   62.02223
  0.1920   59.72849
  0.1940   57.33233
  0.1960   54.90356
  0.1980   52.52380
  0.2000   50.28251
  0.2020   48.21753
  0.2040   46.32396
  0.2060   44.54955
  0.2080   42.84351
  0.2100   41.13912
  0.2120   39.41721
  0.2140   37.67763
  0.2160   35.94376
  0.2180   34.23824
  0.2200   32.56781
  0.2220   30.96423
  0.2240   29.41890
  0.2260   27.93678
  0.2280   26.51038
  0.2300   25.13635
  0.2320   23.79662
  0.2340   22.49472
  0.2360   21.23346
  0.2380   19.99444
  0.2400   18.78616
  0.2420   17.61223
  0.2440   16.47252
  0.2460   15.38238
  0.2480   14.33401
  0.2500   13.32660
  0.2520   12.37036
  0.2540   11.45486
  0.2560   10.59217
  0.2580    9.76912
  0.2600    8.99460
  0.2620    8.26413
  0.2640    7.56766
  0.2660    6.90339
  0.2680    6.26391
  0.2700    5.64816
  0.2720    5.05745
  0.2740    4.48173
  0.2760    3.92453
  0.2780    3.39288
  0.2800    2.88127
  0.2820    2.39986
  0.2840    1.94886
  0.2860    1.53026
  0.2880    1.12836
  0.2900    0.75246
  0.2920    0.39355
  0.2940    0.05524
  0.2960   -0.27389
  0.2980   -0.59048
  0.3000   -0.89554
  0.3020   -1.20426
  0.3040   -1.51067
  0.3060   -1.82152
  0.3080   -2.13988
  0.3100   -2.46602
  0.3120   -2.80204
  0.3140   -3.14985
  0.3160   -3.51761
  0.3180   -3.89870
  0.3200   -4.29464
  0.3220   -4.70600
  0.3240   -5.14320
  0.3260   -5.59903
  0.3280   -6.06101
  0.3300   -6.54729
  0.3320   -7.04248
  0.3340   -7.54890
  0.3360   -8.06663
  0.3380   -8.59062
  0.3400   -9.11464
  0.3420   -9.63202
  0.3440  -10.14613
  0.3460  -10.64590
  0.3480  -11.12346
  0.3500  -11.57686
  0.3520  -12.00914
  0.3540  -12.40390
  0.3560  -12.76526
  0.3580  -13.08559
  0.3600  -13.37878
  0.3620  -13.63163
  0.3640  -13.85050
  0.3660  -14.02135
  0.3680  -14.14969
  0.3700  -14.22537
  0.3720  -14.25372
  0.3740  -14.23086
  0.3760  -14.16393
  0.3780  -14.04847
  0.3800  -13.88448
  0.3820  -13.67928
  0.3840  -13.43944
  0.3860  -13.16650
  0.3880  -12.86428
  0.3900  -12.54037
  0.3920  -12.19992
  0.3940  -11.85347
  0.3960  -11.50524
  0.3980  -11.16182
  0.4000  -10.83229
  0.4020  -10.51988
  0.4040  -10.22926
  0.4060   -9.97557
  0.4080   -9.75404
  0.4100   -9.56803
  0.4120   -9.42191
  0.4140   -9.30417
  0.4160   -9.20978
  0.4180   -9.13990
  0.4200   -9.08395
  0.4220   -9.04341
  0.4240   -9.01374
  0.4260   -8.98220
  0.4280   -8.95393
  0.4300   -8.91626
  0.4320   -8.86650
  0.4340   -8.81363
  0.4360   -8.74632
  0.4380   -8.66750
  0.4400   -8.57589
  0.4420   -8.46483
  0.4440   -8.34843
  0.4460   -8.20598
  0.4480   -8.04281
  0.4500   -7.85630
  0.4520   -7.64478
  0.4540   -7.41601
  0.4560   -7.17212
  0.4580   -6.92021
  0.4600   -6.67668
  0.4620   -6.44262
  0.4640   -6.23210
  0.4660   -6.05501
  0.4680   -5.91637
  0.4700   -5.81952
  0.4720   -5.76120
  0.4740   -5.74924
  0.4760   -5.78514
  0.4780   -5.85730
  0.4800   -5.96038
  0.4820   -6.08698
  0.4840   -6.20708
  0.4860   -6.30589
  0.4880   -6.36342
  0.4900   -6.39244
  0.4920   -6.42083
  0.4940   -6.51323
  0.4960   -6.73817
  0.4980   -7.11245
  0.5000   -7.54468
  0.5020   -7.91604
  0.5040   -8.09935
  0.5060   -8.06817
  0.5080   -7.93331
  0.5100   -7.83341
  0.5120   -7.87444
  0.5140   -8.04322
  0.5160   -8.28560
  0.5180   -8.51769
  0.5200   -8.69247
  0.5220   -8.78821
  0.5240   -8.81970
  0.5260   -8.81492
  0.5280   -8.80112
  0.5300   -8.80399
  0.5320   -8.83543
  0.5340   -8.88730
  0.5360   -8.98009
  0.5380   -9.08763
  0.5400   -9.20714
  0.5420   -9.31859
  0.5440   -9.40679
  0.5460   -9.47134
  0.5480   -9.50728
  0.5500   -9.50321
  0.5520   -9.48636
  0.5540   -9.43633
  0.5560   -9.35855
  0.5580   -9.25990
  0.5600   -9.14408
  0.5620   -9.00406
  0.5640   -8.84668
  0.5660   -8.66588
  0.5680   -8.45642
  0.5700   -8.22228
  0.5720   -7.96352
  0.5740   -7.67715
  0.5760   -7.36495
  0.5780   -7.03257
  0.5800   -6.68029
  0.5820   -6.31102
  0.5840   -5.91649
  0.5860   -5.51973
  0.5880   -5.10902
  0.5900   -4.70618
  0.5920   -4.30518
  0.5940   -3.90653
  0.5960   -3.54085
  0.5980   -3.18099
  0.6000   -2.84814
  0.6020   -2.53471
  0.6040   -2.24046
  0.6060   -1.97245
  0.6080   -1.72485
  0.6100   -1.50724
  0.6120   -1.30864
  0.6140   -1.13713
  0.6160   -0.98888
  0.6180   -0.86662
  0.6200   -0.78286
  0.6220   -0.71507
  0.6240   -0.67778
  0.6260   -0.65366
  0.6280   -0.65679
  0.6300   -0.67096
  0.6320   -0.69565
  0.6340   -0.72461
  0.6360   -0.75888
  0.6380   -0.78124
  0.6400   -0.79340
  0.6420   -0.79158
  0.6440   -0.78025
  0.6460   -0.75525
  0.6480   -0.72214
  0.6500   -0.69278
  0.6520   -0.66412
  0.6540   -0.63640
  0.6560   -0.62384
  0.6580   -0.62196
  0.6600   -0.62407
  0.6620   -0.62873
  0.6640   -0.63861
  0.6660   -0.64369
  0.6680   -0.63545
  0.6700   -0.62791
  0.6720   -0.61045
  0.6740   -0.58462
  0.6760   -0.54446
  0.6780   -0.51605
  0.6800   -0.48834
  0.6820   -0.45775
  0.6840   -0.43060
  0.6860   -0.39928
  0.6880   -0.37410
  0.6900   -0.34096
  0.6920   -0.31666
  0.6940   -0.28509
  0.6960   -0.25310
  0.6980   -0.21443
  0.7000   -0.17917
  0.7020   -0.14043
  0.7040   -0.09042
  0.7060   -0.05153
  0.7080   -0.01832
  0.7100    0.01194
  0.7120    0.03376
  0.7140    0.05120
  0.7160    0.05793
  0.7180    0.05091
  0.7200    0.04097
  0.7220    0.02949
  0.7240    0.01983
  0.7260    0.00925
  0.7280    0.00779
  0.7300    0.01052
  0.7320    0.01824
  0.7340    0.04133
  0.7360    0.07610
  0.7380    0.11127
  0.7400    0.13863
  0.7420    0.17429
  0.7440    0.20011
  0.7460    0.21804
  0.7480    0.23171
  0.7500    0.23196
  0.7520    0.22666
  0.7540    0.21616
  0.7560    0.19737
  0.7580    0.17944
  0.7600    0.16302
  0.7620    0.14215
  0.7640    0.12610
  0.7660    0.11518
  0.7680    0.11149
  0.7700    0.10755
  0.7720    0.11420
  0.7740    0.12433
  0.7760    0.13809
  0.7780    0.15773
  0.7800    0.18116
  0.7820    0.21345
  0.7840    0.24426
  0.7860    0.27984
  0.7880    0.30383
  0.7900    0.32611
  0.7920    0.33703
  0.7940    0.34800
  0.7960    0.34813
  0.7980    0.34280
  0.8000    0.33074
  0.8020    0.31370
  0.8040    0.28525
  0.8060    0.25549
  0.8080    0.22816
  0.8100    0.19579
  0.8120    0.17455
  0.8140    0.15100
  0.8160    0.13752
  0.8180    0.12250
  0.8200    0.12012
  0.8220    0.11383
  0.8240    0.11303
  0.8260    0.11816
  0.8280    0.11942
  0.8300    0.12049
  0.8320    0.12143
  0.8340    0.12087
  0.8360    0.11840
  0.8380    0.11364
  0.8400    0.10530
  0.8420    0.09928
  0.8440    0.08565
  0.8460    0.07557
  0.8480    0.06567
  0.8500    0.04800
  0.8520    0.02885
  0.8540    0.01369
  0.8560    0.00047
  0.8580   -0.01437
  0.8600   -0.03161
  0.8620   -0.04217
  0.8640   -0.05165
  0.8660   -0.06181
  0.8680   -0.06742
  0.8700   -0.07113
  0.8720   -0.07547
  0.8740   -0.08274
  0.8760   -0.08094
  0.8780   -0.07898
  0.8800   -0.07981
  0.8820   -0.08291
  0.8840   -0.08437
  0.8860   -0.08232
  0.8880   -0.07701
  0.8900   -0.07983
  0.8920   -0.07946
  0.8940   -0.07226
  0.8960   -0.06605
  0.8980   -0.06901
  0.9000   -0.06851
  0.9020   -0.06969
  0.9040   -0.07038
  0.9060   -0.07376
  0.9080   -0.08285
  0.9100   -0.08681
  0.9120   -0.09525
  0.9140   -0.10322
  0.9160   -0.10827
  0.9180   -0.11592
  0.9200   -0.11987
  0.9220   -0.12291
  0.9240   -0.12486
  0.9260   -0.12106
  0.9280   -0.11720
  0.9300   -0.11067
  0.9320   -0.10229
  0.9340   -0.08771
  0.9360   -0.07639
  0.9380   -0.05899
  0.9400   -0.04864
  0.9420   -0.03295
  0.9440   -0.01741
  0.9460   -0.00723
  0.9480    0.00090
  0.9500    0.00453
  0.9520    0.00087
  0.9540    0.00642
  0.9560    0.01126
  0.9580    0.00889
  0.9600    0.00375
  0.9620    0.00302
  0.9640    0.00541
  0.9660    0.00977
  0.9680    0.01580
  0.9700    0.02843
  0.9720    0.04103
  0.9740    0.05346
  0.9760    0.07245
  0.9780    0.08899
  0.9800    0.11214
  0.9820    0.13161
  0.9840    0.14497
  0.9860    0.14751
  0.9880    0.15845
  0.9900    0.16240
  0.9920    0.16102
  0.9940    0.15345
  0.9960    0.14886
  0.9980    0.14383
  1.0000    0.13510
