# z (nm)   (kJ/mol)
  0.0960  269.07017
  0.0980  266.39935
  0.1000  264.17221
  0.1020  261.87883
  0.1040  259.51451
  0.1060  257.26260
  0.1080  254.97299
  0.1100  252.62801
  0.1120  250.21533
  0.1140  247.74071
  0.1160  245.15532
  0.1180  242.44603
  0.1200  239.56759
  0.1220  236.52292
  0.1240  233.29376
  0.1260  229.86884
  0.1280  226.25761
  0.1300  222.46573
  0.1320  218.50799
  0.1340  214.40375
  0.1360  210.16167
  0.1380  205.78709
  0.1400  201.28340
  0.1420  196.65085
  0.1440  191.89930
  0.1460  187.04271
  0.1480  182.12067
  0.1500  177.18414
  0.1520  172.29359
  0.1540  167.51494
  0.1560  162.88432
  0.1580  158.42806
  0.1600  154.14370
  0.1620  150.01270
  0.1640  146.01088
  0.1660  142.12658
  0.1680  138.33760
  0.1700  134.63731
  0.1720  130.99473
  0.1740  127.40010
  0.1760  123.81756
  0.1780  120.22751
  0.1800  116.61522
  0.1820  112.99699
  0.1840  109.41049
  0.1860  105.91081
  0.1880  102.53624
  0.1900   99.31520
  0.1920   96.23415
  0.1940   93.24727
  0.1960   90.29863
  0.1980   87.32680
  0.2000   84.30838
  0.2020   81.24819
  0.2040   78.19137
  0.2060   75.18278
  0.2080   72.25910
  0.2100   69.45208
  0.2120   66.75753
  0.2140   64.16075
  0.2160   61.61966
  0.2180   59.09432
  0.2200   56.58598
  0.2220   54.09313
  0.2240   51.66175
  0.2260   49.33085
  0.2280   47.10522
  0.2300   44.97303
  0.2320   42.90672
  0.2340   40.87519
  0.2360   38.86025
  0.2380   36.86454
  0.2400   34.90531
  0.2420   32.99877
  0.2440   31.15742
  0.2460   29.41185
  0.2480   27.75139
  0.2500   26.18055
  0.2520   24.66795
  0.2540   23.21356
  0.2560   21.79054
  0.2580   20.40559
  0.2600   19.05900
  0.2620   17.76995
  0.2640   16.54189
  0.2660   15.37805
  0.2680   14.27698
  0.2700   13.22997
  0.2720   12.23279
  0.2740   11.28643
  0.2760   10.37443
  0.2780    9.50997
  0.2800    8.69125
  0.2820    7.92583
  0.2840    7.23477
  0.2860    6.61764
  0.2880    6.07869
  0.2900    5.60307
  0.2920    5.17696
  0.2940    4.77856
  0.2960    4.39954
  0.2980    4.02517
  0.3000    3.67006
  0.3020    3.31578
  0.3040    3.00339
  0.3060    2.73501
  0.3080    2.52171
  0.3100    2.36253
  0.3120    2.26476
  0.3140    2.19389
  0.3160    2.14839
  0.3180    2.09951
  0.3200    2.04236
  0.3220    1.96509
  0.3240    1.86817
  0.3260    1.76565
  0.3280    1.66500
  0.3300    1.56584
  0.3320    1.47314
  0.3340    1.39974
  0.3360    1.33938
  0.3380    1.28663
  0.3400    1.23119
  0.3420    1.17038
  0.3440    1.09814
  0.3460    1.00631
  0.3480    0.89335
  0.3500    0.74273
  0.3520    0.56345
  0.3540    0.36910
  0.3560    0.16312
  0.3580   -0.04247
  0.3600   -0.24943
  0.3620   -0.46375
  0.3640   -0.68879
  0.3660   -0.91982
  0.3680   -1.15903
  0.3700   -1.40702
  0.3720   -1.65870
  0.3740   -1.91571
  0.3760   -2.17666
  0.3780   -2.42628
  0.3800   -2.67319
  0.3820   -2.91539
  0.3840   -3.15309
  0.3860   -3.38562
  0.3880   -3.63132
  0.3900   -3.86979
  0.3920   -4.11178
  0.3940   -4.35006
  0.3960   -4.57106
  0.3980   -4.77523
  0.4000   -4.95380
  0.4020   -5.11240
  0.4040   -5.24363
  0.4060   -5.34927
  0.4080   -5.43280
  0.4100   -5.50009
  0.4120   -5.55840
  0.4140   -5.60542
  0.4160   -5.63920
  0.4180   -5.68014
  0.4200   -5.70542
  0.4220   -5.71709
  0.4240   -5.72637
  0.4260   -5.72585
  0.4280   -5.71497
  0.4300   -5.68738
  0.4320   -5.64299
  0.4340   -5.58950
  0.4360   -5.52882
  0.4380   -5.46005
  0.4400   -5.39292
  0.4420   -5.32179
  0.4440   -5.25469
  0.4460   -5.18555
  0.4480   -5.11235
  0.4500   -5.03482
  0.4520   -4.95078
  0.4540   -4.85117
  0.4560   -4.76408
  0.4580   -4.66108
  0.4600   -4.55066
  0.4620   -4.43487
  0.4640   -4.30356
  0.4660   -4.16134
  0.4680   -3.99963
  0.4700   -3.83133
  0.4720   -3.64806
  0.4740   -3.46675
  0.4760   -3.29252
  0.4780   -3.13437
  0.4800   -2.99435
  0.4820   -2.87587
  0.4840   -2.77560
  0.4860   -2.69372
  0.4880   -2.62084
  0.4900   -2.54770
  0.4920   -2.47366
  0.4940   -2.39179
  0.4960   -2.29970
  0.4980   -2.19762
  0.5000   -2.09374
  0.5020   -1.99483
  0.5040   -1.91375
  0.5060   -1.86019
  0.5080   -1.83498
  0.5100   -1.83442
  0.5120   -1.86085
  0.5140   -1.92233
  0.5160   -1.99735
  0.5180   -2.08636
  0.5200   -2.17471
  0.5220   -2.26647
  0.5240   -2.34538
  0.5260   -2.40704
  0.5280   -2.46390
  0.5300   -2.51927
  0.5320   -2.56853
  0.5340   -2.60757
  0.5360   -2.65527
  0.5380   -2.70345
  0.5400   -2.75745
  0.5420   -2.80846
  0.5440   -2.85774
  0.5460   -2.91316
  0.5480   -2.96399
  0.5500   -3.00115
  0.5520   -3.02409
  0.5540   -3.04310
  0.5560   -3.05634
  0.5580   -3.08234
  0.5600   -3.11111
  0.5620   -3.15087
  0.5640   -3.20152
  0.5660   -3.24781
  0.5680   -3.28784
  0.5700   -3.32429
  0.5720   -3.34810
  0.5740   -3.36519
  0.5760   -3.38383
  0.5780   -3.39649
  0.5800   -3.41663
  0.5820   -3.44283
  0.5840   -3.47030
  0.5860   -3.49499
  0.5880   -3.50474
  0.5900   -3.51052
  0.5920   -3.49930
  0.5940   -3.47315
  0.5960   -3.43554
  0.5980   -3.39595
  0.6000   -3.37025
  0.6020   -3.35646
  0.6040   -3.35654
  0.6060   -3.36757
  0.6080   -3.38973
  0.6100   -3.40195
  0.6120   -3.40367
  0.6140   -3.38811
  0.6160   -3.35552
  0.6180   -3.29894
  0.6200   -3.23513
  0.6220   -3.16058
  0.6240   -3.08971
  0.6260   -3.02845
  0.6280   -2.97877
  0.6300   -2.94661
  0.6320   -2.91758
  0.6340   -2.88819
  0.6360   -2.85506
  0.6380   -2.82192
  0.6400   -2.77016
  0.6420   -2.72133
  0.6440   -2.66074
  0.6460   -2.59574
  0.6480   -2.52684
  0.6500   -2.46167
  0.6520   -2.41001
  0.6540   -2.37125
  0.6560   -2.34391
  0.6580   -2.33647
  0.6600   -2.33246
  0.6620   -2.32607
  0.6640   -2.31323
  0.6660   -2.28980
  0.6680   -2.24608
  0.6700   -2.18176
  0.6720   -2.11648
  0.6740   -2.04076
  0.6760   -1.97064
  0.6780   -1.89449
  0.6800   -1.82636
  0.6820   -1.76460
  0.6840   -1.71758
  0.6860   -1.68421
  0.6880   -1.65014
  0.6900   -1.62837
  0.6920   -1.60511
  0.6940   -1.57994
  0.6960   -1.53827
  0.6980   -1.50035
  0.7000   -1.45894
  0.7020   -1.41626
  0.7040   -1.36467
  0.7060   -1.31409
  0.7080   -1.27059
  0.7100   -1.22024
  0.7120   -1.16888
  0.7140   -1.11096
  0.7160   -1.05262
  0.7180   -0.99011
  0.7200   -0.92525
  0.7220   -0.88277
  0.7240   -0.84455
  0.7260   -0.81383
  0.7280   -0.78582
  0.7300   -0.76387
  0.7320   -0.74097
  0.7340   -0.71482
  0.7360   -0.68600
  0.7380   -0.65374
  0.7400   -0.61604
  0.7420   -0.58112
  0.7440   -0.54312
  0.7460   -0.51198
  0.7480   -0.46816
  0.7500   -0.42858
  0.7520   -0.38724
  0.7540   -0.34274
  0.7560   -0.29196
  0.7580   -0.24177
  0.7600   -0.19413
  0.7620   -0.14970
  0.7640   -0.10932
  0.7660   -0.07963
  0.7680   -0.05024
  0.7700   -0.02742
  0.7720   -0.00350
  0.7740    0.01667
  0.7760    0.04171
  0.7780    0.07778
  0.7800    0.11591
  0.7820    0.16397
  0.7840    0.21847
  0.7860    0.28456
  0.7880    0.34104
  0.7900    0.40967
  0.7920    0.46663
  0.7940    0.51840
  0.7960    0.56059
  0.7980    0.58977
  0.8000    0.61493
  0.8020    0.62539
  0.8040    0.62989
  0.8060    0.62701
  0.8080    0.62422
  0.8100    0.61694
  0.8120    0.61451
  0.8140    0.60775
  0.8160    0.60745
  0.8180    0.60928
  0.8200    0.60648
  0.8220    0.60084
  0.8240    0.59910
  0.8260    0.58953
  0.8280    0.57879
  0.8300    0.57429
  0.8320    0.55816
  0.8340    0.54793
  0.8360    0.53875
  0.8380    0.52000
  0.8400    0.50251
  0.8420    0.48632
  0.8440    0.47259
  0.8460    0.45899
  0.8480    0.45680
  0.8500    0.45788
  0.8520    0.46317
  0.8540    0.47386
  0.8560    0.48449
  0.8580    0.50203
  0.8600    0.51979
  0.8620    0.53375
  0.8640    0.53106
  0.8660    0.52323
  0.8680    0.51096
  0.8700    0.48796
  0.8720    0.46279
  0.8740    0.43574
  0.8760    0.41288
  0.8780    0.38502
  0.8800    0.36041
  0.8820    0.33251
  0.8840    0.30857
  0.8860    0.29071
  0.8880    0.27517
  0.8900    0.26350
  0.8920    0.25299
  0.8940    0.24602
  0.8960    0.23523
  0.8980    0.22272
  0.9000    0.20767
  0.9020    0.19213
  0.9040    0.16791
  0.9060    0.13825
  0.9080    0.10560
  0.9100    0.07389
  0.9120    0.04507
  0.9140    0.02699
  0.9160    0.01990
  0.9180    0.01478
  0.9200    0.02599
  0.9220    0.03596
  0.9240    0.05086
  0.9260    0.05896
  0.9280    0.07296
  0.9300    0.06767
  0.9320    0.05783
  0.9340    0.04536
  0.9360    0.02220
  0.9380   -0.00435
  0.9400   -0.03170
  0.9420   -0.04862
  0.9440   -0.06351
  0.9460   -0.08016
  0.9480   -0.08331
  0.9500   -0.08606
  0.9520   -0.08462
  0.9540   -0.07647
  0.9560   -0.06727
  0.9580   -0.05435
  0.9600   -0.04203
  0.9620   -0.03051
  0.9640   -0.02188
  0.9660   -0.01742
  0.9680   -0.01648
  0.9700   -0.01165
  0.9720   -0.01797
  0.9740   -0.02035
  0.9760   -0.03075
  0.9780   -0.03328
  0.9800   -0.04536
  0.9820   -0.05647
  0.9840   -0.06392
  0.9860   -0.07287
  0.9880   -0.07135
  0.9900   -0.06088
  0.9920   -0.03785
  0.9940   -0.01465
  0.9960    0.00865
  0.9980    0.04128
  1.0000    0.07383
