# z (nm)   (kJ/mol)
  0.141000, 12.949100
  0.145000, 12.560700
  0.151000, 12.372500
  0.153000, 12.168300
  0.155000, 11.967200
  0.157000, 11.761900
  0.159000, 11.544900
  0.161000, 11.322000
  0.163000, 11.090800
  0.165000, 10.836000
  0.167000, 10.558200
  0.169000, 10.283400
  0.171000, 10.019300
  0.173000,  9.749100
  0.175000,  9.465700
  0.177000,  9.181000
  0.179000,  8.891200
  0.181000,  8.595600
  0.183000,  8.292600
  0.185000,  7.983300
  0.187000,  7.674700
  0.189000,  7.364300
  0.191000,  7.053600
  0.193000,  6.743200
  0.195000,  6.433300
  0.197000,  6.124100
  0.199000,  5.807600
  0.201000,  5.493900
  0.203000,  5.184200
  0.205000,  4.870600
  0.207000,  4.559200
  0.209000,  4.251500
  0.211000,  3.944900
  0.213000,  3.639900
  0.215000,  3.339000
  0.217000,  3.040200
  0.219000,  2.745500
  0.221000,  2.455600
  0.223000,  2.168000
  0.225000,  1.890300
  0.227000,  1.618500
  0.229000,  1.346300
  0.231000,  1.080300
  0.233000,  0.822000
  0.235000,  0.571700
  0.237000,  0.329100
  0.239000,  0.092500
  0.241000, -0.137900
  0.243000, -0.360500
  0.245000, -0.574700
  0.247000, -0.782300
  0.249000, -0.982200
  0.251000, -1.174100
  0.253000, -1.357700
  0.255000, -1.531800
  0.257000, -1.698500
  0.259000, -1.858200
  0.261000, -2.008400
  0.263000, -2.149300
  0.265000, -2.281100
  0.267000, -2.405000
  0.269000, -2.520500
  0.271000, -2.626400
  0.273000, -2.722900
  0.275000, -2.810500
  0.277000, -2.890100
  0.279000, -2.961500
  0.281000, -3.024000
  0.283000, -3.077700
  0.285000, -3.123000
  0.287000, -3.160000
  0.289000, -3.189000
  0.291000, -3.209800
  0.293000, -3.223100
  0.295000, -3.228900
  0.297000, -3.227200
  0.299000, -3.217700
  0.301000, -3.200800
  0.303000, -3.177600
  0.305000, -3.148100
  0.307000, -3.112700
  0.309000, -3.071100
  0.311000, -3.023000
  0.313000, -2.970200
  0.315000, -2.913200
  0.317000, -2.850800
  0.319000, -2.784000
  0.321000, -2.713500
  0.323000, -2.639000
  0.325000, -2.560900
  0.327000, -2.480000
  0.329000, -2.396500
  0.331000, -2.310400
  0.333000, -2.223500
  0.335000, -2.135400
  0.337000, -2.045100
  0.339000, -1.955000
  0.341000, -1.864500
  0.343000, -1.773000
  0.345000, -1.682100
  0.347000, -1.591300
  0.349000, -1.500800
  0.351000, -1.410900
  0.353000, -1.322400
  0.355000, -1.234900
  0.357000, -1.148800
  0.359000, -1.065300
  0.361000, -0.983200
  0.363000, -0.902800
  0.365000, -0.824600
  0.367000, -0.748900
  0.369000, -0.675900
  0.371000, -0.605400
  0.373000, -0.537300
  0.375000, -0.472000
  0.377000, -0.409900
  0.379000, -0.350400
  0.381000, -0.293500
  0.383000, -0.239400
  0.385000, -0.188200
  0.387000, -0.139900
  0.389000, -0.094400
  0.391000, -0.052000
  0.393000, -0.012600
  0.395000,  0.023900
  0.397000,  0.057600
  0.399000,  0.089000
  0.401000,  0.118000
  0.403000,  0.144600
  0.405000,  0.168700
  0.407000,  0.190500
  0.409000,  0.210100
  0.411000,  0.227500
  0.413000,  0.242900
  0.415000,  0.256100
  0.417000,  0.267400
  0.419000,  0.277200
  0.421000,  0.285400
  0.423000,  0.291900
  0.425000,  0.296400
  0.427000,  0.299500
  0.429000,  0.301500
  0.431000,  0.302400
  0.433000,  0.302100
  0.435000,  0.301100
  0.437000,  0.298900
  0.439000,  0.295300
  0.441000,  0.291100
  0.443000,  0.286200
  0.445000,  0.280400
  0.447000,  0.274000
  0.449000,  0.267100
  0.451000,  0.260000
  0.453000,  0.252600
  0.455000,  0.244600
  0.457000,  0.236100
  0.459000,  0.227300
  0.461000,  0.218500
  0.463000,  0.209300
  0.465000,  0.199900
  0.467000,  0.190300
  0.469000,  0.180800
  0.471000,  0.171200
  0.473000,  0.161700
  0.475000,  0.152100
  0.477000,  0.142500
  0.479000,  0.132800
  0.481000,  0.123300
  0.483000,  0.114000
  0.485000,  0.104800
  0.487000,  0.095500
  0.489000,  0.086200
  0.491000,  0.077100
  0.493000,  0.068000
  0.495000,  0.059000
  0.497000,  0.050000
  0.499000,  0.041200
  0.501000,  0.032600
  0.503000,  0.024000
  0.505000,  0.015400
  0.507000,  0.007000
  0.509000, -0.001400
  0.511000, -0.009700
  0.513000, -0.018000
  0.515000, -0.026000
  0.517000, -0.034100
  0.519000, -0.042000
  0.521000, -0.050000
  0.523000, -0.057700
  0.525000, -0.065400
  0.527000, -0.073100
  0.529000, -0.080700
  0.531000, -0.088200
  0.533000, -0.095700
  0.535000, -0.103000
  0.537000, -0.110200
  0.539000, -0.117400
  0.541000, -0.124500
  0.543000, -0.131500
  0.545000, -0.138300
  0.547000, -0.145100
  0.549000, -0.151700
  0.551000, -0.158200
  0.553000, -0.164600
  0.555000, -0.170800
  0.557000, -0.176900
  0.559000, -0.182800
  0.561000, -0.188600
  0.563000, -0.194200
  0.565000, -0.199600
  0.567000, -0.204900
  0.569000, -0.210000
  0.571000, -0.214900
  0.573000, -0.219500
  0.575000, -0.224000
  0.577000, -0.228200
  0.579000, -0.232200
  0.581000, -0.236000
  0.583000, -0.239500
  0.585000, -0.242800
  0.587000, -0.245800
  0.589000, -0.248600
  0.591000, -0.251000
  0.593000, -0.253200
  0.595000, -0.255100
  0.597000, -0.256600
  0.599000, -0.257900
  0.601000, -0.259000
  0.603000, -0.259800
  0.605000, -0.260300
  0.607000, -0.260500
  0.609000, -0.260200
  0.611000, -0.259700
  0.613000, -0.259000
  0.615000, -0.258000
  0.617000, -0.256600
  0.619000, -0.255000
  0.621000, -0.253000
  0.623000, -0.250800
  0.625000, -0.248200
  0.627000, -0.245200
  0.629000, -0.242000
  0.631000, -0.238700
  0.633000, -0.235100
  0.635000, -0.231300
  0.637000, -0.227300
  0.639000, -0.222900
  0.641000, -0.218200
  0.643000, -0.213300
  0.645000, -0.208200
  0.647000, -0.203000
  0.649000, -0.197700
  0.651000, -0.192100
  0.653000, -0.186500
  0.655000, -0.180700
  0.657000, -0.174600
  0.659000, -0.168400
  0.661000, -0.162100
  0.663000, -0.155700
  0.665000, -0.149200
  0.667000, -0.142600
  0.669000, -0.136000
  0.671000, -0.129400
  0.673000, -0.122800
  0.675000, -0.116400
  0.677000, -0.110000
  0.679000, -0.103600
  0.681000, -0.097300
  0.683000, -0.090900
  0.685000, -0.084700
  0.687000, -0.078500
  0.689000, -0.072500
  0.691000, -0.066700
  0.693000, -0.061000
  0.695000, -0.055400
  0.697000, -0.050000
  0.699000, -0.044800
  0.701000, -0.039700
  0.703000, -0.034800
  0.705000, -0.030100
  0.707000, -0.025600
  0.709000, -0.021300
  0.711000, -0.017200
  0.713000, -0.013500
  0.715000, -0.010000
  0.717000, -0.006600
  0.719000, -0.003500
  0.721000, -0.000400
  0.723000,  0.002400
  0.725000,  0.004800
  0.727000,  0.007100
  0.729000,  0.009200
  0.731000,  0.011000
  0.733000,  0.012700
  0.735000,  0.014200
  0.737000,  0.015700
  0.739000,  0.016900
  0.741000,  0.018000
  0.743000,  0.018900
  0.745000,  0.019600
  0.747000,  0.020200
  0.749000,  0.020700
  0.751000,  0.020900
  0.753000,  0.021000
  0.755000,  0.021100
  0.757000,  0.021100
  0.759000,  0.021000
  0.761000,  0.020700
  0.763000,  0.020400
  0.765000,  0.020000
  0.767000,  0.019400
  0.769000,  0.018700
  0.771000,  0.017900
  0.773000,  0.017100
  0.775000,  0.016400
  0.777000,  0.015600
  0.779000,  0.014600
  0.781000,  0.013700
  0.783000,  0.012700
  0.785000,  0.011500
  0.787000,  0.010100
  0.789000,  0.008700
  0.791000,  0.007300
  0.793000,  0.006000
  0.795000,  0.004600
  0.797000,  0.002900
  0.799000,  0.001200
  0.801000, -0.000600
  0.803000, -0.002400
  0.805000, -0.004400
  0.807000, -0.006500
  0.809000, -0.008700
  0.811000, -0.011000
  0.813000, -0.013300
  0.815000, -0.015700
  0.817000, -0.018200
  0.819000, -0.020800
  0.821000, -0.023300
  0.823000, -0.026000
  0.825000, -0.028700
  0.827000, -0.031500
  0.829000, -0.034300
  0.831000, -0.037200
  0.833000, -0.040200
  0.835000, -0.043200
  0.837000, -0.046300
  0.839000, -0.049400
  0.841000, -0.052400
  0.843000, -0.055400
  0.845000, -0.058600
  0.847000, -0.061700
  0.849000, -0.064700
  0.851000, -0.067700
  0.853000, -0.070800
  0.855000, -0.073800
  0.857000, -0.076800
  0.859000, -0.079600
  0.861000, -0.082300
  0.863000, -0.085200
  0.865000, -0.087900
  0.867000, -0.090600
  0.869000, -0.093100
  0.871000, -0.095600
  0.873000, -0.097900
  0.875000, -0.100100
  0.877000, -0.102200
  0.879000, -0.104200
  0.881000, -0.106100
  0.883000, -0.107900
  0.885000, -0.109500
  0.887000, -0.111100
  0.889000, -0.112600
  0.891000, -0.114000
  0.893000, -0.115200
  0.895000, -0.116400
  0.897000, -0.117500
  0.899000, -0.118300
  0.901000, -0.119000
  0.903000, -0.119600
  0.905000, -0.120100
  0.907000, -0.120600
  0.909000, -0.121000
  0.911000, -0.121200
  0.913000, -0.121300
  0.915000, -0.121400
  0.917000, -0.121400
  0.919000, -0.121200
  0.921000, -0.120900
  0.923000, -0.120500
  0.925000, -0.120000
  0.927000, -0.119500
  0.929000, -0.118900
  0.931000, -0.118200
  0.933000, -0.117500
  0.935000, -0.116800
  0.937000, -0.116000
  0.939000, -0.115100
  0.941000, -0.114200
  0.943000, -0.113200
  0.945000, -0.112000
  0.947000, -0.110800
  0.949000, -0.109600
  0.951000, -0.108400
  0.953000, -0.107100
  0.955000, -0.105700
  0.957000, -0.104200
  0.959000, -0.102700
  0.961000, -0.101200
  0.963000, -0.099500
  0.965000, -0.097900
  0.967000, -0.096200
  0.969000, -0.094400
  0.971000, -0.092600
  0.973000, -0.090800
  0.975000, -0.088900
  0.977000, -0.087100
  0.979000, -0.085200
  0.981000, -0.083300
  0.983000, -0.081100
  0.985000, -0.079000
  0.987000, -0.076900
  0.989000, -0.074800
  0.991000, -0.072500
  0.993000, -0.070200
  0.995000, -0.068000
  0.997000, -0.065800
  0.999000, -0.063500
  1.001000, -0.061100
  1.003000, -0.058800
  1.005000, -0.056500
  1.007000, -0.054300
  1.009000, -0.052100
  1.011000, -0.049800
  1.013000, -0.047600
  1.015000, -0.045400
  1.017000, -0.043300
  1.019000, -0.041300
  1.021000, -0.039400
  1.023000, -0.037300
  1.025000, -0.035300
  1.027000, -0.033300
  1.029000, -0.031300
  1.031000, -0.029400
  1.033000, -0.027700
  1.035000, -0.026100
  1.037000, -0.024500
  1.039000, -0.023100
  1.041000, -0.021800
  1.043000, -0.020600
  1.045000, -0.019500
  1.047000, -0.018600
  1.049000, -0.017700
  1.051000, -0.016900
  1.053000, -0.016200
  1.055000, -0.015600
  1.057000, -0.015000
  1.059000, -0.014600
  1.061000, -0.014300
  1.063000, -0.014100
  1.065000, -0.014100
  1.067000, -0.014200
  1.069000, -0.014300
  1.071000, -0.014600
  1.073000, -0.015100
  1.075000, -0.015600
  1.077000, -0.016200
  1.079000, -0.016800
  1.081000, -0.017600
  1.083000, -0.018500
  1.085000, -0.019500
  1.087000, -0.020700
  1.089000, -0.021800
  1.091000, -0.022900
  1.093000, -0.024300
  1.095000, -0.025800
  1.097000, -0.027300
  1.099000, -0.028800
  1.101000, -0.030300
  1.103000, -0.031800
  1.105000, -0.033600
  1.107000, -0.035300
  1.109000, -0.037000
  1.111000, -0.038800
  1.113000, -0.040600
  1.115000, -0.042400
  1.117000, -0.044100
  1.119000, -0.045900
  1.121000, -0.047600
  1.123000, -0.049300
  1.125000, -0.051000
  1.127000, -0.052600
  1.129000, -0.054200
  1.131000, -0.055700
  1.133000, -0.057200
  1.135000, -0.058700
  1.137000, -0.060100
  1.139000, -0.061600
  1.141000, -0.062800
  1.143000, -0.064000
  1.145000, -0.065200
  1.147000, -0.066200
  1.149000, -0.067200
  1.151000, -0.068100
  1.153000, -0.069000
  1.155000, -0.069800
  1.157000, -0.070500
  1.159000, -0.071100
  1.161000, -0.071600
  1.163000, -0.072100
  1.165000, -0.072400
  1.167000, -0.072700
  1.169000, -0.072900
  1.171000, -0.073000
  1.173000, -0.073000
  1.175000, -0.072900
  1.177000, -0.072700
  1.179000, -0.072400
  1.181000, -0.072100
  1.183000, -0.071600
  1.185000, -0.071000
  1.187000, -0.070500
  1.189000, -0.069800
  1.191000, -0.069000
  1.193000, -0.068200
  1.195000, -0.067200
  1.197000, -0.066200
  1.199000, -0.065100
  1.201000, -0.064000
  1.203000, -0.062800
  1.205000, -0.061500
  1.207000, -0.060100
  1.209000, -0.058700
  1.211000, -0.057200
  1.213000, -0.055500
  1.215000, -0.053700
  1.217000, -0.052100
  1.219000, -0.050500
  1.221000, -0.048700
  1.223000, -0.046800
  1.225000, -0.044900
  1.227000, -0.043200
  1.229000, -0.041300
  1.231000, -0.039300
  1.233000, -0.037400
  1.235000, -0.035500
  1.237000, -0.033600
  1.239000, -0.031700
  1.241000, -0.029700
  1.243000, -0.027800
  1.245000, -0.025900
  1.247000, -0.024000
  1.249000, -0.022100
  1.251000, -0.020300
  1.253000, -0.018700
  1.255000, -0.017000
  1.257000, -0.015500
  1.259000, -0.014000
  1.261000, -0.012500
  1.263000, -0.011100
  1.265000, -0.009800
  1.267000, -0.008500
  1.269000, -0.007400
  1.271000, -0.006300
  1.273000, -0.005300
  1.275000, -0.004400
  1.277000, -0.003600
  1.279000, -0.002800
  1.281000, -0.002100
  1.283000, -0.001600
  1.285000, -0.001000
  1.287000, -0.000500
  1.289000, -0.000000
  1.291000,  0.000500
  1.293000,  0.000900
  1.295000,  0.001400
  1.297000,  0.001800
  1.299000,  0.002100
  1.301000,  0.002300
  1.303000,  0.002700
  1.305000,  0.003000
  1.307000,  0.003300
  1.309000,  0.003600
  1.311000,  0.003900
  1.313000,  0.004300
  1.315000,  0.004700
  1.317000,  0.005200
  1.319000,  0.005800
  1.321000,  0.006400
  1.323000,  0.007100
  1.325000,  0.007800
  1.327000,  0.008500
  1.329000,  0.009500
  1.331000,  0.010400
  1.333000,  0.011400
  1.335000,  0.012500
  1.337000,  0.013600
  1.339000,  0.014900
  1.341000,  0.016300
  1.343000,  0.017700
  1.345000,  0.019100
  1.347000,  0.020600
  1.349000,  0.022400
  1.351000,  0.024200
  1.353000,  0.025900
  1.355000,  0.027800
  1.357000,  0.029600
  1.359000,  0.031400
  1.361000,  0.033200
  1.363000,  0.035100
  1.365000,  0.036900
  1.367000,  0.038900
  1.369000,  0.040700
  1.371000,  0.042400
  1.373000,  0.044300
  1.375000,  0.046100
  1.377000,  0.047700
  1.379000,  0.049300
  1.381000,  0.050700
  1.383000,  0.051700
  1.385000,  0.052600
  1.387000,  0.053400
  1.389000,  0.054200
  1.391000,  0.054600
  1.393000,  0.054500
  1.395000,  0.054100
  1.397000,  0.053300
  1.399000,  0.052200
