# z (nm)   (kJ/mol)
  0.061000, 10.376400
  0.065000, 10.114400
  0.069000,  9.603100
  0.071000,  9.386400
  0.073000,  9.129300
  0.075000,  8.862100
  0.077000,  8.588000
  0.079000,  8.304400
  0.081000,  8.030500
  0.083000,  7.748500
  0.085000,  7.451100
  0.087000,  7.159400
  0.089000,  6.868200
  0.091000,  6.562800
  0.093000,  6.245400
  0.095000,  5.926700
  0.097000,  5.615900
  0.099000,  5.300700
  0.101000,  4.978600
  0.103000,  4.650000
  0.105000,  4.322800
  0.107000,  4.001800
  0.109000,  3.683000
  0.111000,  3.362800
  0.113000,  3.040600
  0.115000,  2.720900
  0.117000,  2.401700
  0.119000,  2.086300
  0.121000,  1.777100
  0.123000,  1.471300
  0.125000,  1.165300
  0.127000,  0.862600
  0.129000,  0.561800
  0.131000,  0.267200
  0.133000, -0.020200
  0.135000, -0.304600
  0.137000, -0.582800
  0.139000, -0.855300
  0.141000, -1.121300
  0.143000, -1.381100
  0.145000, -1.634100
  0.147000, -1.880500
  0.149000, -2.122400
  0.151000, -2.357200
  0.153000, -2.584200
  0.155000, -2.804300
  0.157000, -3.016700
  0.159000, -3.221200
  0.161000, -3.417900
  0.163000, -3.606300
  0.165000, -3.786900
  0.167000, -3.960100
  0.169000, -4.125300
  0.171000, -4.282300
  0.173000, -4.431300
  0.175000, -4.572700
  0.177000, -4.706400
  0.179000, -4.831700
  0.181000, -4.948400
  0.183000, -5.057400
  0.185000, -5.158500
  0.187000, -5.251600
  0.189000, -5.336500
  0.191000, -5.413600
  0.193000, -5.482700
  0.195000, -5.543700
  0.197000, -5.597300
  0.199000, -5.643400
  0.201000, -5.682500
  0.203000, -5.714600
  0.205000, -5.739400
  0.207000, -5.757500
  0.209000, -5.768600
  0.211000, -5.772900
  0.213000, -5.771400
  0.215000, -5.764100
  0.217000, -5.750800
  0.219000, -5.731400
  0.221000, -5.706500
  0.223000, -5.676300
  0.225000, -5.641100
  0.227000, -5.601100
  0.229000, -5.556200
  0.231000, -5.507200
  0.233000, -5.453900
  0.235000, -5.396400
  0.237000, -5.335500
  0.239000, -5.271000
  0.241000, -5.202700
  0.243000, -5.131500
  0.245000, -5.057100
  0.247000, -4.979500
  0.249000, -4.898900
  0.251000, -4.815600
  0.253000, -4.730100
  0.255000, -4.642300
  0.257000, -4.552800
  0.259000, -4.461700
  0.261000, -4.368800
  0.263000, -4.274300
  0.265000, -4.178200
  0.267000, -4.080700
  0.269000, -3.982100
  0.271000, -3.882100
  0.273000, -3.780800
  0.275000, -3.679100
  0.277000, -3.576500
  0.279000, -3.472800
  0.281000, -3.369100
  0.283000, -3.265300
  0.285000, -3.161100
  0.287000, -3.056400
  0.289000, -2.951700
  0.291000, -2.846800
  0.293000, -2.741800
  0.295000, -2.637300
  0.297000, -2.533400
  0.299000, -2.429700
  0.301000, -2.326300
  0.303000, -2.223900
  0.305000, -2.122100
  0.307000, -2.020800
  0.309000, -1.920200
  0.311000, -1.820200
  0.313000, -1.721200
  0.315000, -1.623600
  0.317000, -1.527300
  0.319000, -1.432000
  0.321000, -1.337900
  0.323000, -1.245100
  0.325000, -1.153600
  0.327000, -1.063900
  0.329000, -0.975800
  0.331000, -0.889100
  0.333000, -0.804000
  0.335000, -0.720600
  0.337000, -0.639000
  0.339000, -0.559300
  0.341000, -0.481800
  0.343000, -0.406300
  0.345000, -0.332500
  0.347000, -0.261000
  0.349000, -0.191800
  0.351000, -0.124700
  0.353000, -0.059500
  0.355000,  0.003300
  0.357000,  0.063800
  0.359000,  0.122000
  0.361000,  0.177900
  0.363000,  0.231500
  0.365000,  0.282600
  0.367000,  0.331400
  0.369000,  0.378000
  0.371000,  0.422100
  0.373000,  0.463600
  0.375000,  0.502700
  0.377000,  0.539300
  0.379000,  0.573400
  0.381000,  0.605000
  0.383000,  0.634100
  0.385000,  0.660800
  0.387000,  0.685100
  0.389000,  0.706900
  0.391000,  0.726300
  0.393000,  0.743200
  0.395000,  0.757700
  0.397000,  0.769800
  0.399000,  0.779500
  0.401000,  0.786900
  0.403000,  0.792100
  0.405000,  0.795100
  0.407000,  0.795900
  0.409000,  0.794500
  0.411000,  0.791000
  0.413000,  0.785400
  0.415000,  0.777700
  0.417000,  0.768200
  0.419000,  0.756900
  0.421000,  0.743700
  0.423000,  0.729100
  0.425000,  0.712800
  0.427000,  0.694800
  0.429000,  0.675400
  0.431000,  0.654400
  0.433000,  0.632000
  0.435000,  0.608400
  0.437000,  0.583500
  0.439000,  0.557500
  0.441000,  0.530400
  0.443000,  0.502500
  0.445000,  0.473600
  0.447000,  0.443900
  0.449000,  0.413700
  0.451000,  0.383100
  0.453000,  0.351900
  0.455000,  0.319900
  0.457000,  0.287700
  0.459000,  0.255400
  0.461000,  0.223000
  0.463000,  0.190600
  0.465000,  0.158200
  0.467000,  0.125500
  0.469000,  0.093000
  0.471000,  0.060700
  0.473000,  0.028700
  0.475000, -0.002900
  0.477000, -0.034000
  0.479000, -0.064600
  0.481000, -0.094900
  0.483000, -0.124800
  0.485000, -0.154100
  0.487000, -0.183000
  0.489000, -0.210900
  0.491000, -0.238000
  0.493000, -0.264300
  0.495000, -0.289900
  0.497000, -0.314800
  0.499000, -0.338800
  0.501000, -0.361900
  0.503000, -0.384300
  0.505000, -0.405800
  0.507000, -0.426300
  0.509000, -0.445800
  0.511000, -0.464500
  0.513000, -0.482200
  0.515000, -0.498900
  0.517000, -0.514500
  0.519000, -0.529200
  0.521000, -0.542800
  0.523000, -0.555500
  0.525000, -0.567200
  0.527000, -0.578000
  0.529000, -0.587700
  0.531000, -0.596500
  0.533000, -0.604200
  0.535000, -0.611000
  0.537000, -0.616800
  0.539000, -0.621800
  0.541000, -0.625800
  0.543000, -0.629000
  0.545000, -0.631400
  0.547000, -0.632800
  0.549000, -0.633400
  0.551000, -0.633100
  0.553000, -0.631900
  0.555000, -0.629900
  0.557000, -0.627200
  0.559000, -0.623700
  0.561000, -0.619400
  0.563000, -0.614300
  0.565000, -0.608500
  0.567000, -0.602200
  0.569000, -0.595000
  0.571000, -0.587000
  0.573000, -0.578400
  0.575000, -0.569400
  0.577000, -0.559900
  0.579000, -0.549700
  0.581000, -0.538800
  0.583000, -0.527500
  0.585000, -0.515500
  0.587000, -0.503200
  0.589000, -0.490400
  0.591000, -0.477200
  0.593000, -0.463600
  0.595000, -0.449400
  0.597000, -0.434900
  0.599000, -0.420300
  0.601000, -0.405200
  0.603000, -0.389900
  0.605000, -0.374500
  0.607000, -0.358700
  0.609000, -0.342500
  0.611000, -0.326200
  0.613000, -0.309700
  0.615000, -0.293100
  0.617000, -0.276500
  0.619000, -0.259800
  0.621000, -0.243100
  0.623000, -0.226400
  0.625000, -0.209700
  0.627000, -0.193000
  0.629000, -0.176300
  0.631000, -0.159700
  0.633000, -0.143300
  0.635000, -0.126900
  0.637000, -0.110600
  0.639000, -0.094400
  0.641000, -0.078400
  0.643000, -0.062800
  0.645000, -0.047400
  0.647000, -0.032300
  0.649000, -0.017300
  0.651000, -0.002600
  0.653000,  0.011800
  0.655000,  0.025800
  0.657000,  0.039500
  0.659000,  0.052700
  0.661000,  0.065600
  0.663000,  0.078100
  0.665000,  0.090300
  0.667000,  0.102100
  0.669000,  0.113500
  0.671000,  0.124400
  0.673000,  0.135000
  0.675000,  0.145100
  0.677000,  0.154800
  0.679000,  0.164200
  0.681000,  0.173100
  0.683000,  0.181500
  0.685000,  0.189400
  0.687000,  0.196900
  0.689000,  0.203900
  0.691000,  0.210700
  0.693000,  0.216900
  0.695000,  0.222600
  0.697000,  0.227700
  0.699000,  0.232500
  0.701000,  0.237000
  0.703000,  0.241000
  0.705000,  0.244500
  0.707000,  0.247400
  0.709000,  0.249900
  0.711000,  0.252000
  0.713000,  0.253600
  0.715000,  0.254800
  0.717000,  0.255600
  0.719000,  0.256000
  0.721000,  0.256000
  0.723000,  0.255500
  0.725000,  0.254700
  0.727000,  0.253400
  0.729000,  0.251700
  0.731000,  0.249700
  0.733000,  0.247300
  0.735000,  0.244600
  0.737000,  0.241500
  0.739000,  0.238100
  0.741000,  0.234300
  0.743000,  0.230200
  0.745000,  0.225700
  0.747000,  0.220900
  0.749000,  0.215900
  0.751000,  0.210700
  0.753000,  0.205300
  0.755000,  0.199700
  0.757000,  0.193900
  0.759000,  0.187700
  0.761000,  0.181400
  0.763000,  0.175000
  0.765000,  0.168500
  0.767000,  0.161800
  0.769000,  0.155100
  0.771000,  0.148200
  0.773000,  0.141200
  0.775000,  0.134100
  0.777000,  0.127000
  0.779000,  0.119800
  0.781000,  0.112600
  0.783000,  0.105300
  0.785000,  0.098100
  0.787000,  0.090900
  0.789000,  0.083800
  0.791000,  0.076800
  0.793000,  0.069800
  0.795000,  0.062800
  0.797000,  0.055900
  0.799000,  0.049100
  0.801000,  0.042400
  0.803000,  0.035800
  0.805000,  0.029300
  0.807000,  0.023100
  0.809000,  0.016900
  0.811000,  0.010900
  0.813000,  0.005000
  0.815000, -0.000800
  0.817000, -0.006300
  0.819000, -0.011600
  0.821000, -0.016800
  0.823000, -0.021800
  0.825000, -0.026500
  0.827000, -0.031100
  0.829000, -0.035500
  0.831000, -0.039800
  0.833000, -0.043700
  0.835000, -0.047300
  0.837000, -0.050800
  0.839000, -0.054200
  0.841000, -0.057400
  0.843000, -0.060300
  0.845000, -0.063000
  0.847000, -0.065500
  0.849000, -0.067700
  0.851000, -0.069600
  0.853000, -0.071500
  0.855000, -0.073200
  0.857000, -0.074700
  0.859000, -0.075900
  0.861000, -0.077000
  0.863000, -0.077900
  0.865000, -0.078600
  0.867000, -0.079100
  0.869000, -0.079400
  0.871000, -0.079600
  0.873000, -0.079600
  0.875000, -0.079400
  0.877000, -0.079100
  0.879000, -0.078700
  0.881000, -0.078200
  0.883000, -0.077500
  0.885000, -0.076700
  0.887000, -0.075800
  0.889000, -0.074700
  0.891000, -0.073400
  0.893000, -0.072100
  0.895000, -0.070700
  0.897000, -0.069200
  0.899000, -0.067600
  0.901000, -0.065900
  0.903000, -0.064200
  0.905000, -0.062400
  0.907000, -0.060700
  0.909000, -0.058800
  0.911000, -0.056800
  0.913000, -0.054800
  0.915000, -0.052800
  0.917000, -0.050800
  0.919000, -0.048700
  0.921000, -0.046600
  0.923000, -0.044500
  0.925000, -0.042400
  0.927000, -0.040300
  0.929000, -0.038200
  0.931000, -0.036000
  0.933000, -0.033800
  0.935000, -0.031700
  0.937000, -0.029600
  0.939000, -0.027400
  0.941000, -0.025300
  0.943000, -0.023100
  0.945000, -0.021000
  0.947000, -0.018900
  0.949000, -0.016800
  0.951000, -0.014800
  0.953000, -0.012800
  0.955000, -0.010800
  0.957000, -0.008800
  0.959000, -0.006900
  0.961000, -0.004900
  0.963000, -0.002800
  0.965000, -0.000700
  0.967000,  0.001200
  0.969000,  0.003200
  0.971000,  0.005200
  0.973000,  0.007100
  0.975000,  0.009000
  0.977000,  0.010900
  0.979000,  0.012700
  0.981000,  0.014400
  0.983000,  0.016100
  0.985000,  0.017700
  0.987000,  0.019400
  0.989000,  0.021100
  0.991000,  0.022700
  0.993000,  0.024400
  0.995000,  0.026100
  0.997000,  0.027800
  0.999000,  0.029400
  1.001000,  0.031000
  1.003000,  0.032500
  1.005000,  0.033900
  1.007000,  0.035400
  1.009000,  0.036900
  1.011000,  0.038400
  1.013000,  0.039800
  1.015000,  0.041200
  1.017000,  0.042500
  1.019000,  0.043700
  1.021000,  0.044900
  1.023000,  0.046000
  1.025000,  0.047100
  1.027000,  0.048200
  1.029000,  0.049300
  1.031000,  0.050300
  1.033000,  0.051200
  1.035000,  0.052000
  1.037000,  0.052700
  1.039000,  0.053300
  1.041000,  0.053900
  1.043000,  0.054400
  1.045000,  0.054900
  1.047000,  0.055300
  1.049000,  0.055600
  1.051000,  0.055900
  1.053000,  0.056100
  1.055000,  0.056200
  1.057000,  0.056200
  1.059000,  0.056200
  1.061000,  0.056100
  1.063000,  0.055900
  1.065000,  0.055600
  1.067000,  0.055300
  1.069000,  0.054900
  1.071000,  0.054500
  1.073000,  0.054100
  1.075000,  0.053600
  1.077000,  0.052900
  1.079000,  0.052200
  1.081000,  0.051500
  1.083000,  0.050700
  1.085000,  0.049900
  1.087000,  0.049200
  1.089000,  0.048300
  1.091000,  0.047300
  1.093000,  0.046300
  1.095000,  0.045300
  1.097000,  0.044300
  1.099000,  0.043300
  1.101000,  0.042400
  1.103000,  0.041400
  1.105000,  0.040400
  1.107000,  0.039400
  1.109000,  0.038400
  1.111000,  0.037400
  1.113000,  0.036500
  1.115000,  0.035600
  1.117000,  0.034700
  1.119000,  0.033700
  1.121000,  0.032900
  1.123000,  0.032000
  1.125000,  0.031200
  1.127000,  0.030400
  1.129000,  0.029600
  1.131000,  0.028800
  1.133000,  0.028100
  1.135000,  0.027400
  1.137000,  0.026800
  1.139000,  0.026100
  1.141000,  0.025500
  1.143000,  0.025000
  1.145000,  0.024500
  1.147000,  0.023900
  1.149000,  0.023400
  1.151000,  0.022900
  1.153000,  0.022500
  1.155000,  0.022000
  1.157000,  0.021500
  1.159000,  0.021100
  1.161000,  0.020600
  1.163000,  0.020200
  1.165000,  0.019700
  1.167000,  0.019400
  1.169000,  0.019000
  1.171000,  0.018600
  1.173000,  0.018200
  1.175000,  0.017800
  1.177000,  0.017300
  1.179000,  0.016800
  1.181000,  0.016400
  1.183000,  0.016000
  1.185000,  0.015400
  1.187000,  0.014900
  1.189000,  0.014400
  1.191000,  0.013900
  1.193000,  0.013300
  1.195000,  0.012800
  1.197000,  0.012200
  1.199000,  0.011500
  1.201000,  0.010900
  1.203000,  0.010100
  1.205000,  0.009400
  1.207000,  0.008500
  1.209000,  0.007700
  1.211000,  0.006900
  1.213000,  0.006000
  1.215000,  0.005200
  1.217000,  0.004300
  1.219000,  0.003400
  1.221000,  0.002600
  1.223000,  0.001700
  1.225000,  0.000800
  1.227000, -0.000000
  1.229000, -0.000900
  1.231000, -0.001700
  1.233000, -0.002500
  1.235000, -0.003200
  1.237000, -0.003900
  1.239000, -0.004700
  1.241000, -0.005400
  1.243000, -0.006000
  1.245000, -0.006500
  1.247000, -0.007100
  1.249000, -0.007500
  1.251000, -0.007800
  1.253000, -0.008100
  1.255000, -0.008400
  1.257000, -0.008700
  1.259000, -0.008900
  1.261000, -0.009000
  1.263000, -0.009000
  1.265000, -0.009100
  1.267000, -0.009000
  1.269000, -0.008900
  1.271000, -0.008700
  1.273000, -0.008500
  1.275000, -0.008100
  1.277000, -0.007800
  1.279000, -0.007500
  1.281000, -0.007100
  1.283000, -0.006700
  1.285000, -0.006300
  1.287000, -0.005800
  1.289000, -0.005300
  1.291000, -0.004800
  1.293000, -0.004300
  1.295000, -0.003900
  1.297000, -0.003500
  1.299000, -0.003000
  1.301000, -0.002600
  1.303000, -0.002200
  1.305000, -0.001800
  1.307000, -0.001300
  1.309000, -0.000900
  1.311000, -0.000600
  1.313000, -0.000200
  1.315000,  0.000100
  1.317000,  0.000300
  1.319000,  0.000500
  1.321000,  0.000700
  1.323000,  0.001000
  1.325000,  0.001100
  1.327000,  0.001300
  1.329000,  0.001500
  1.331000,  0.001600
  1.333000,  0.001700
  1.335000,  0.001900
  1.337000,  0.002000
  1.339000,  0.002100
  1.341000,  0.002200
  1.343000,  0.002300
  1.345000,  0.002400
  1.347000,  0.002500
  1.349000,  0.002600
  1.351000,  0.002700
  1.353000,  0.002900
  1.355000,  0.003100
  1.357000,  0.003300
  1.359000,  0.003500
  1.361000,  0.003700
  1.363000,  0.004000
  1.365000,  0.004200
  1.367000,  0.004500
  1.369000,  0.004800
  1.371000,  0.005100
  1.373000,  0.005500
  1.375000,  0.005800
  1.377000,  0.006200
  1.379000,  0.006400
  1.381000,  0.006700
  1.383000,  0.006800
  1.385000,  0.007000
  1.387000,  0.007100
  1.389000,  0.007000
  1.391000,  0.006800
  1.393000,  0.006400
  1.395000,  0.005800
  1.397000,  0.004900
  1.399000,  0.003800
