# z (nm)   (kJ/mol)
  0.099000,  9.475100
  0.101000,  9.211000
  0.103000,  8.917700
  0.105000,  8.616800
  0.107000,  8.322800
  0.109000,  8.021000
  0.111000,  7.708500
  0.113000,  7.397400
  0.115000,  7.072100
  0.117000,  6.744800
  0.119000,  6.417400
  0.121000,  6.077400
  0.123000,  5.736700
  0.125000,  5.392000
  0.127000,  5.039100
  0.129000,  4.684700
  0.131000,  4.327400
  0.133000,  3.964000
  0.135000,  3.602900
  0.137000,  3.247800
  0.139000,  2.890900
  0.141000,  2.529800
  0.143000,  2.171600
  0.145000,  1.811600
  0.147000,  1.450300
  0.149000,  1.092900
  0.151000,  0.741600
  0.153000,  0.393200
  0.155000,  0.047700
  0.157000, -0.289100
  0.159000, -0.623300
  0.161000, -0.952300
  0.163000, -1.273700
  0.165000, -1.590000
  0.167000, -1.899600
  0.169000, -2.204600
  0.171000, -2.506000
  0.173000, -2.798200
  0.175000, -3.078700
  0.177000, -3.352800
  0.179000, -3.620100
  0.181000, -3.878100
  0.183000, -4.128400
  0.185000, -4.371500
  0.187000, -4.605000
  0.189000, -4.828900
  0.191000, -5.044600
  0.193000, -5.251000
  0.195000, -5.448100
  0.197000, -5.637200
  0.199000, -5.816200
  0.201000, -5.985000
  0.203000, -6.145400
  0.205000, -6.296700
  0.207000, -6.437500
  0.209000, -6.568700
  0.211000, -6.690600
  0.213000, -6.803000
  0.215000, -6.906400
  0.217000, -7.000900
  0.219000, -7.086100
  0.221000, -7.162000
  0.223000, -7.228900
  0.225000, -7.286700
  0.227000, -7.336000
  0.229000, -7.377400
  0.231000, -7.410500
  0.233000, -7.435400
  0.235000, -7.452000
  0.237000, -7.460600
  0.239000, -7.462100
  0.241000, -7.456500
  0.243000, -7.444600
  0.245000, -7.426100
  0.247000, -7.400500
  0.249000, -7.369000
  0.251000, -7.331900
  0.253000, -7.288200
  0.255000, -7.239100
  0.257000, -7.185800
  0.259000, -7.128000
  0.261000, -7.065600
  0.263000, -6.998200
  0.265000, -6.926400
  0.267000, -6.851400
  0.269000, -6.773100
  0.271000, -6.691500
  0.273000, -6.606600
  0.275000, -6.518500
  0.277000, -6.427700
  0.279000, -6.334700
  0.281000, -6.239400
  0.283000, -6.141800
  0.285000, -6.042300
  0.287000, -5.940900
  0.289000, -5.837800
  0.291000, -5.732800
  0.293000, -5.626800
  0.295000, -5.519700
  0.297000, -5.411300
  0.299000, -5.302000
  0.301000, -5.191600
  0.303000, -5.080700
  0.305000, -4.968900
  0.307000, -4.856400
  0.309000, -4.743400
  0.311000, -4.629900
  0.313000, -4.516100
  0.315000, -4.402000
  0.317000, -4.287700
  0.319000, -4.173100
  0.321000, -4.058200
  0.323000, -3.943400
  0.325000, -3.829000
  0.327000, -3.714900
  0.329000, -3.600700
  0.331000, -3.486700
  0.333000, -3.373000
  0.335000, -3.259300
  0.337000, -3.146000
  0.339000, -3.033700
  0.341000, -2.922000
  0.343000, -2.810600
  0.345000, -2.699900
  0.347000, -2.590000
  0.349000, -2.481000
  0.351000, -2.372600
  0.353000, -2.264900
  0.355000, -2.158400
  0.357000, -2.053000
  0.359000, -1.948400
  0.361000, -1.845100
  0.363000, -1.743400
  0.365000, -1.643200
  0.367000, -1.544400
  0.369000, -1.447000
  0.371000, -1.351000
  0.373000, -1.256300
  0.375000, -1.163400
  0.377000, -1.072400
  0.379000, -0.983300
  0.381000, -0.895600
  0.383000, -0.809600
  0.385000, -0.726100
  0.387000, -0.645000
  0.389000, -0.566000
  0.391000, -0.489100
  0.393000, -0.414400
  0.395000, -0.342400
  0.397000, -0.272700
  0.399000, -0.205100
  0.401000, -0.140100
  0.403000, -0.077800
  0.405000, -0.017900
  0.407000,  0.038900
  0.409000,  0.092900
  0.411000,  0.144200
  0.413000,  0.192600
  0.415000,  0.238100
  0.417000,  0.280900
  0.419000,  0.321200
  0.421000,  0.358400
  0.423000,  0.392900
  0.425000,  0.424600
  0.427000,  0.453300
  0.429000,  0.479000
  0.431000,  0.501800
  0.433000,  0.521900
  0.435000,  0.539100
  0.437000,  0.553600
  0.439000,  0.565400
  0.441000,  0.574300
  0.443000,  0.580600
  0.445000,  0.584400
  0.447000,  0.585500
  0.449000,  0.584100
  0.451000,  0.580300
  0.453000,  0.574100
  0.455000,  0.565400
  0.457000,  0.554500
  0.459000,  0.541500
  0.461000,  0.526700
  0.463000,  0.509900
  0.465000,  0.491300
  0.467000,  0.470700
  0.469000,  0.448500
  0.471000,  0.424700
  0.473000,  0.399300
  0.475000,  0.372400
  0.477000,  0.344300
  0.479000,  0.315200
  0.481000,  0.285300
  0.483000,  0.254000
  0.485000,  0.221600
  0.487000,  0.188400
  0.489000,  0.154600
  0.491000,  0.120200
  0.493000,  0.085500
  0.495000,  0.050300
  0.497000,  0.014900
  0.499000, -0.020500
  0.501000, -0.056100
  0.503000, -0.091600
  0.505000, -0.126800
  0.507000, -0.162000
  0.509000, -0.197000
  0.511000, -0.231600
  0.513000, -0.265700
  0.515000, -0.299600
  0.517000, -0.332800
  0.519000, -0.365500
  0.521000, -0.397700
  0.523000, -0.429200
  0.525000, -0.459700
  0.527000, -0.489200
  0.529000, -0.517800
  0.531000, -0.545500
  0.533000, -0.572200
  0.535000, -0.597900
  0.537000, -0.622600
  0.539000, -0.646000
  0.541000, -0.668300
  0.543000, -0.689600
  0.545000, -0.709700
  0.547000, -0.728800
  0.549000, -0.746600
  0.551000, -0.763300
  0.553000, -0.778700
  0.555000, -0.793200
  0.557000, -0.806400
  0.559000, -0.818500
  0.561000, -0.829600
  0.563000, -0.839300
  0.565000, -0.847900
  0.567000, -0.855400
  0.569000, -0.861800
  0.571000, -0.867100
  0.573000, -0.871500
  0.575000, -0.874800
  0.577000, -0.877100
  0.579000, -0.878300
  0.581000, -0.878600
  0.583000, -0.878100
  0.585000, -0.876700
  0.587000, -0.874400
  0.589000, -0.871300
  0.591000, -0.867500
  0.593000, -0.862700
  0.595000, -0.857300
  0.597000, -0.851200
  0.599000, -0.844500
  0.601000, -0.836900
  0.603000, -0.828700
  0.605000, -0.819900
  0.607000, -0.810500
  0.609000, -0.800700
  0.611000, -0.790300
  0.613000, -0.779200
  0.615000, -0.767800
  0.617000, -0.755900
  0.619000, -0.743600
  0.621000, -0.730800
  0.623000, -0.717600
  0.625000, -0.704000
  0.627000, -0.690000
  0.629000, -0.675700
  0.631000, -0.661200
  0.633000, -0.646300
  0.635000, -0.631100
  0.637000, -0.615700
  0.639000, -0.600000
  0.641000, -0.584200
  0.643000, -0.568300
  0.645000, -0.552000
  0.647000, -0.535800
  0.649000, -0.519500
  0.651000, -0.502900
  0.653000, -0.486300
  0.655000, -0.469500
  0.657000, -0.452700
  0.659000, -0.435800
  0.661000, -0.419000
  0.663000, -0.402200
  0.665000, -0.385600
  0.667000, -0.369000
  0.669000, -0.352200
  0.671000, -0.335900
  0.673000, -0.319800
  0.675000, -0.303700
  0.677000, -0.287700
  0.679000, -0.271900
  0.681000, -0.256200
  0.683000, -0.240800
  0.685000, -0.225700
  0.687000, -0.210900
  0.689000, -0.196300
  0.691000, -0.182100
  0.693000, -0.168300
  0.695000, -0.154800
  0.697000, -0.141600
  0.699000, -0.128700
  0.701000, -0.116300
  0.703000, -0.104200
  0.705000, -0.092600
  0.707000, -0.081200
  0.709000, -0.070200
  0.711000, -0.059700
  0.713000, -0.049600
  0.715000, -0.040100
  0.717000, -0.031000
  0.719000, -0.022200
  0.721000, -0.013900
  0.723000, -0.006000
  0.725000,  0.001400
  0.727000,  0.008400
  0.729000,  0.014900
  0.731000,  0.021000
  0.733000,  0.026800
  0.735000,  0.032100
  0.737000,  0.037000
  0.739000,  0.041500
  0.741000,  0.045600
  0.743000,  0.049100
  0.745000,  0.052200
  0.747000,  0.055100
  0.749000,  0.057600
  0.751000,  0.059600
  0.753000,  0.061300
  0.755000,  0.062600
  0.757000,  0.063600
  0.759000,  0.064300
  0.761000,  0.064400
  0.763000,  0.064100
  0.765000,  0.063400
  0.767000,  0.062500
  0.769000,  0.061300
  0.771000,  0.059900
  0.773000,  0.057900
  0.775000,  0.055500
  0.777000,  0.052900
  0.779000,  0.049900
  0.781000,  0.046500
  0.783000,  0.043000
  0.785000,  0.039200
  0.787000,  0.035000
  0.789000,  0.030700
  0.791000,  0.026200
  0.793000,  0.021400
  0.795000,  0.016500
  0.797000,  0.011300
  0.799000,  0.005800
  0.801000,  0.000100
  0.803000, -0.005600
  0.805000, -0.011500
  0.807000, -0.017600
  0.809000, -0.023800
  0.811000, -0.030000
  0.813000, -0.036300
  0.815000, -0.042700
  0.817000, -0.049100
  0.819000, -0.055700
  0.821000, -0.062100
  0.823000, -0.068500
  0.825000, -0.074900
  0.827000, -0.081400
  0.829000, -0.087800
  0.831000, -0.094200
  0.833000, -0.100500
  0.835000, -0.106600
  0.837000, -0.112600
  0.839000, -0.118400
  0.841000, -0.124300
  0.843000, -0.130000
  0.845000, -0.135500
  0.847000, -0.140900
  0.849000, -0.146000
  0.851000, -0.150700
  0.853000, -0.155200
  0.855000, -0.159500
  0.857000, -0.163500
  0.859000, -0.167400
  0.861000, -0.171000
  0.863000, -0.174300
  0.865000, -0.177400
  0.867000, -0.180200
  0.869000, -0.182700
  0.871000, -0.184600
  0.873000, -0.186300
  0.875000, -0.187900
  0.877000, -0.189300
  0.879000, -0.190400
  0.881000, -0.191200
  0.883000, -0.191900
  0.885000, -0.192200
  0.887000, -0.192100
  0.889000, -0.191800
  0.891000, -0.191200
  0.893000, -0.190400
  0.895000, -0.189500
  0.897000, -0.188000
  0.899000, -0.186400
  0.901000, -0.184600
  0.903000, -0.182700
  0.905000, -0.180400
  0.907000, -0.177900
  0.909000, -0.175200
  0.911000, -0.172500
  0.913000, -0.169500
  0.915000, -0.166400
  0.917000, -0.163100
  0.919000, -0.159700
  0.921000, -0.156100
  0.923000, -0.152400
  0.925000, -0.148700
  0.927000, -0.144900
  0.929000, -0.141000
  0.931000, -0.137000
  0.933000, -0.133000
  0.935000, -0.128900
  0.937000, -0.124600
  0.939000, -0.120400
  0.941000, -0.116000
  0.943000, -0.111700
  0.945000, -0.107300
  0.947000, -0.103000
  0.949000, -0.098700
  0.951000, -0.094400
  0.953000, -0.090100
  0.955000, -0.085700
  0.957000, -0.081300
  0.959000, -0.076900
  0.961000, -0.072500
  0.963000, -0.068200
  0.965000, -0.063900
  0.967000, -0.059600
  0.969000, -0.055300
  0.971000, -0.051100
  0.973000, -0.046900
  0.975000, -0.042800
  0.977000, -0.038600
  0.979000, -0.034500
  0.981000, -0.030400
  0.983000, -0.026400
  0.985000, -0.022500
  0.987000, -0.018500
  0.989000, -0.014400
  0.991000, -0.010400
  0.993000, -0.006400
  0.995000, -0.002500
  0.997000,  0.001300
  0.999000,  0.005000
  1.001000,  0.008800
  1.003000,  0.012500
  1.005000,  0.016100
  1.007000,  0.019800
  1.009000,  0.023500
  1.011000,  0.027100
  1.013000,  0.030600
  1.015000,  0.034000
  1.017000,  0.037300
  1.019000,  0.040500
  1.021000,  0.043800
  1.023000,  0.046900
  1.025000,  0.049900
  1.027000,  0.053000
  1.029000,  0.055900
  1.031000,  0.058900
  1.033000,  0.061700
  1.035000,  0.064500
  1.037000,  0.067200
  1.039000,  0.069700
  1.041000,  0.072100
  1.043000,  0.074500
  1.045000,  0.076800
  1.047000,  0.078900
  1.049000,  0.080900
  1.051000,  0.082900
  1.053000,  0.084800
  1.055000,  0.086400
  1.057000,  0.088000
  1.059000,  0.089500
  1.061000,  0.090800
  1.063000,  0.091900
  1.065000,  0.093100
  1.067000,  0.094000
  1.069000,  0.094800
  1.071000,  0.095500
  1.073000,  0.096100
  1.075000,  0.096600
  1.077000,  0.096900
  1.079000,  0.097100
  1.081000,  0.097200
  1.083000,  0.097100
  1.085000,  0.096800
  1.087000,  0.096500
  1.089000,  0.096100
  1.091000,  0.095500
  1.093000,  0.094800
  1.095000,  0.094000
  1.097000,  0.093100
  1.099000,  0.092200
  1.101000,  0.091100
  1.103000,  0.089900
  1.105000,  0.088600
  1.107000,  0.087200
  1.109000,  0.085700
  1.111000,  0.084100
  1.113000,  0.082500
  1.115000,  0.080800
  1.117000,  0.079000
  1.119000,  0.077100
  1.121000,  0.075200
  1.123000,  0.073200
  1.125000,  0.071000
  1.127000,  0.068800
  1.129000,  0.066600
  1.131000,  0.064400
  1.133000,  0.062100
  1.135000,  0.059800
  1.137000,  0.057400
  1.139000,  0.055000
  1.141000,  0.052700
  1.143000,  0.050300
  1.145000,  0.047900
  1.147000,  0.045500
  1.149000,  0.043000
  1.151000,  0.040600
  1.153000,  0.038200
  1.155000,  0.035800
  1.157000,  0.033400
  1.159000,  0.031000
  1.161000,  0.028600
  1.163000,  0.026300
  1.165000,  0.024000
  1.167000,  0.021700
  1.169000,  0.019400
  1.171000,  0.017100
  1.173000,  0.015000
  1.175000,  0.012900
  1.177000,  0.010700
  1.179000,  0.008500
  1.181000,  0.006500
  1.183000,  0.004500
  1.185000,  0.002600
  1.187000,  0.000700
  1.189000, -0.001100
  1.191000, -0.002900
  1.193000, -0.004600
  1.195000, -0.006300
  1.197000, -0.008000
  1.199000, -0.009600
  1.201000, -0.011100
  1.203000, -0.012500
  1.205000, -0.013900
  1.207000, -0.015300
  1.209000, -0.016700
  1.211000, -0.017900
  1.213000, -0.019100
  1.215000, -0.020200
  1.217000, -0.021200
  1.219000, -0.022200
  1.221000, -0.023200
  1.223000, -0.024000
  1.225000, -0.024600
  1.227000, -0.025100
  1.229000, -0.025500
  1.231000, -0.026000
  1.233000, -0.026400
  1.235000, -0.026800
  1.237000, -0.027000
  1.239000, -0.027200
  1.241000, -0.027300
  1.243000, -0.027200
  1.245000, -0.027000
  1.247000, -0.026800
  1.249000, -0.026700
  1.251000, -0.026300
  1.253000, -0.025900
  1.255000, -0.025500
  1.257000, -0.024900
  1.259000, -0.024400
  1.261000, -0.023700
  1.263000, -0.022900
  1.265000, -0.022100
  1.267000, -0.021100
  1.269000, -0.020100
  1.271000, -0.019100
  1.273000, -0.018000
  1.275000, -0.016900
  1.277000, -0.015600
  1.279000, -0.014400
  1.281000, -0.013100
  1.283000, -0.011900
  1.285000, -0.010600
  1.287000, -0.009300
  1.289000, -0.008000
  1.291000, -0.006600
  1.293000, -0.005300
  1.295000, -0.004000
  1.297000, -0.002700
  1.299000, -0.001400
  1.301000, -0.000100
  1.303000,  0.001200
  1.305000,  0.002400
  1.307000,  0.003600
  1.309000,  0.004800
  1.311000,  0.005900
  1.313000,  0.007100
  1.315000,  0.008200
  1.317000,  0.009200
  1.319000,  0.010300
  1.321000,  0.011200
  1.323000,  0.012100
  1.325000,  0.013000
  1.327000,  0.013800
  1.329000,  0.014700
  1.331000,  0.015500
  1.333000,  0.016300
  1.335000,  0.017000
  1.337000,  0.017700
  1.339000,  0.018500
  1.341000,  0.019200
  1.343000,  0.020000
  1.345000,  0.020600
  1.347000,  0.021200
  1.349000,  0.021900
  1.351000,  0.022500
  1.353000,  0.023200
  1.355000,  0.023800
  1.357000,  0.024400
  1.359000,  0.025000
  1.361000,  0.025600
  1.363000,  0.026100
  1.365000,  0.026700
  1.367000,  0.027100
  1.369000,  0.027600
  1.371000,  0.028000
  1.373000,  0.028300
  1.375000,  0.028600
  1.377000,  0.028800
  1.379000,  0.029000
  1.381000,  0.029200
  1.383000,  0.029300
  1.385000,  0.029100
  1.387000,  0.028800
  1.389000,  0.028300
  1.391000,  0.027600
  1.393000,  0.026700
  1.395000,  0.025500
  1.397000,  0.024000
  1.399000,  0.022200
