# z (nm)   (kJ/mol)
  0.147000,  0.711600
  0.149000,  0.198800
  0.151000, -0.289500
  0.153000, -0.793600
  0.155000, -1.323300
  0.157000, -1.836200
  0.159000, -2.344000
  0.161000, -2.858200
  0.163000, -3.366700
  0.165000, -3.866300
  0.167000, -4.354500
  0.169000, -4.828400
  0.171000, -5.285700
  0.173000, -5.733200
  0.175000, -6.167500
  0.177000, -6.582600
  0.179000, -6.983900
  0.181000, -7.369500
  0.183000, -7.737800
  0.185000, -8.090100
  0.187000, -8.424600
  0.189000, -8.740400
  0.191000, -9.036500
  0.193000, -9.314800
  0.195000, -9.576200
  0.197000, -9.816100
  0.199000,-10.034700
  0.201000,-10.235700
  0.203000,-10.417400
  0.205000,-10.580100
  0.207000,-10.723300
  0.209000,-10.847000
  0.211000,-10.952600
  0.213000,-11.039900
  0.215000,-11.109100
  0.217000,-11.160500
  0.219000,-11.195000
  0.221000,-11.212900
  0.223000,-11.215300
  0.225000,-11.202000
  0.227000,-11.174200
  0.229000,-11.133400
  0.231000,-11.079700
  0.233000,-11.013800
  0.235000,-10.937500
  0.237000,-10.851400
  0.239000,-10.755800
  0.241000,-10.652300
  0.243000,-10.543000
  0.245000,-10.427900
  0.247000,-10.306400
  0.249000,-10.180500
  0.251000,-10.051300
  0.253000, -9.919600
  0.255000, -9.785200
  0.257000, -9.650800
  0.259000, -9.518200
  0.261000, -9.385900
  0.263000, -9.257000
  0.265000, -9.132700
  0.267000, -9.010900
  0.269000, -8.892300
  0.271000, -8.779300
  0.273000, -8.670900
  0.275000, -8.567000
  0.277000, -8.470100
  0.279000, -8.380200
  0.281000, -8.296600
  0.283000, -8.219400
  0.285000, -8.148900
  0.287000, -8.085600
  0.289000, -8.029200
  0.291000, -7.979200
  0.293000, -7.935800
  0.295000, -7.899000
  0.297000, -7.868400
  0.299000, -7.843800
  0.301000, -7.824800
  0.303000, -7.810600
  0.305000, -7.801500
  0.307000, -7.797000
  0.309000, -7.796500
  0.311000, -7.799800
  0.313000, -7.805700
  0.315000, -7.814100
  0.317000, -7.824900
  0.319000, -7.837600
  0.321000, -7.851600
  0.323000, -7.866700
  0.325000, -7.882400
  0.327000, -7.898400
  0.329000, -7.914200
  0.331000, -7.929600
  0.333000, -7.944100
  0.335000, -7.957100
  0.337000, -7.968700
  0.339000, -7.978300
  0.341000, -7.985700
  0.343000, -7.990700
  0.345000, -7.993400
  0.347000, -7.993700
  0.349000, -7.990900
  0.351000, -7.984600
  0.353000, -7.975400
  0.355000, -7.963100
  0.357000, -7.947400
  0.359000, -7.928300
  0.361000, -7.905800
  0.363000, -7.880000
  0.365000, -7.850900
  0.367000, -7.818500
  0.369000, -7.782700
  0.371000, -7.743800
  0.373000, -7.701900
  0.375000, -7.656600
  0.377000, -7.608300
  0.379000, -7.557300
  0.381000, -7.503800
  0.383000, -7.447800
  0.385000, -7.389200
  0.387000, -7.328200
  0.389000, -7.265000
  0.391000, -7.199800
  0.393000, -7.132600
  0.395000, -7.063300
  0.397000, -6.991900
  0.399000, -6.918900
  0.401000, -6.844300
  0.403000, -6.768100
  0.405000, -6.690500
  0.407000, -6.611600
  0.409000, -6.531500
  0.411000, -6.450000
  0.413000, -6.367300
  0.415000, -6.283500
  0.417000, -6.198500
  0.419000, -6.112800
  0.421000, -6.026400
  0.423000, -5.938900
  0.425000, -5.850300
  0.427000, -5.761000
  0.429000, -5.670900
  0.431000, -5.580100
  0.433000, -5.488700
  0.435000, -5.396600
  0.437000, -5.303900
  0.439000, -5.210400
  0.441000, -5.116100
  0.443000, -5.021400
  0.445000, -4.926300
  0.447000, -4.830600
  0.449000, -4.734200
  0.451000, -4.637000
  0.453000, -4.539600
  0.455000, -4.441600
  0.457000, -4.343300
  0.459000, -4.244700
  0.461000, -4.145500
  0.463000, -4.046000
  0.465000, -3.946200
  0.467000, -3.846300
  0.469000, -3.746400
  0.471000, -3.646400
  0.473000, -3.546400
  0.475000, -3.446300
  0.477000, -3.346500
  0.479000, -3.247100
  0.481000, -3.147500
  0.483000, -3.047700
  0.485000, -2.948600
  0.487000, -2.850600
  0.489000, -2.753100
  0.491000, -2.656300
  0.493000, -2.560300
  0.495000, -2.464800
  0.497000, -2.370300
  0.499000, -2.277600
  0.501000, -2.186000
  0.503000, -2.095400
  0.505000, -2.006000
  0.507000, -1.917500
  0.509000, -1.831300
  0.511000, -1.746500
  0.513000, -1.663200
  0.515000, -1.582000
  0.517000, -1.502500
  0.519000, -1.424800
  0.521000, -1.349000
  0.523000, -1.275500
  0.525000, -1.205100
  0.527000, -1.137100
  0.529000, -1.071200
  0.531000, -1.007500
  0.533000, -0.946000
  0.535000, -0.887100
  0.537000, -0.830700
  0.539000, -0.777100
  0.541000, -0.726200
  0.543000, -0.677700
  0.545000, -0.631500
  0.547000, -0.588200
  0.549000, -0.547800
  0.551000, -0.509900
  0.553000, -0.474600
  0.555000, -0.442000
  0.557000, -0.411900
  0.559000, -0.384500
  0.561000, -0.359500
  0.563000, -0.336900
  0.565000, -0.316700
  0.567000, -0.298900
  0.569000, -0.283600
  0.571000, -0.270600
  0.573000, -0.259700
  0.575000, -0.251100
  0.577000, -0.244700
  0.579000, -0.240200
  0.581000, -0.237600
  0.583000, -0.236900
  0.585000, -0.238000
  0.587000, -0.240700
  0.589000, -0.244800
  0.591000, -0.250600
  0.593000, -0.257900
  0.595000, -0.266400
  0.597000, -0.276300
  0.599000, -0.287500
  0.601000, -0.299500
  0.603000, -0.312500
  0.605000, -0.326400
  0.607000, -0.341100
  0.609000, -0.356600
  0.611000, -0.372700
  0.613000, -0.389400
  0.615000, -0.406400
  0.617000, -0.423700
  0.619000, -0.441400
  0.621000, -0.459100
  0.623000, -0.477000
  0.625000, -0.495300
  0.627000, -0.513800
  0.629000, -0.532000
  0.631000, -0.549800
  0.633000, -0.567400
  0.635000, -0.584800
  0.637000, -0.602000
  0.639000, -0.618800
  0.641000, -0.635200
  0.643000, -0.651300
  0.645000, -0.666900
  0.647000, -0.681900
  0.649000, -0.696300
  0.651000, -0.710200
  0.653000, -0.723400
  0.655000, -0.736200
  0.657000, -0.748500
  0.659000, -0.760200
  0.661000, -0.771100
  0.663000, -0.781400
  0.665000, -0.791000
  0.667000, -0.800000
  0.669000, -0.808300
  0.671000, -0.816000
  0.673000, -0.823000
  0.675000, -0.829400
  0.677000, -0.835100
  0.679000, -0.840100
  0.681000, -0.844500
  0.683000, -0.848200
  0.685000, -0.851300
  0.687000, -0.853800
  0.689000, -0.855600
  0.691000, -0.856900
  0.693000, -0.857500
  0.695000, -0.857500
  0.697000, -0.856900
  0.699000, -0.855700
  0.701000, -0.854100
  0.703000, -0.851900
  0.705000, -0.849200
  0.707000, -0.845900
  0.709000, -0.842100
  0.711000, -0.837800
  0.713000, -0.833000
  0.715000, -0.827700
  0.717000, -0.822000
  0.719000, -0.815900
  0.721000, -0.809300
  0.723000, -0.802100
  0.725000, -0.794500
  0.727000, -0.786600
  0.729000, -0.778300
  0.731000, -0.769500
  0.733000, -0.760300
  0.735000, -0.750800
  0.737000, -0.740900
  0.739000, -0.730600
  0.741000, -0.719900
  0.743000, -0.708800
  0.745000, -0.697500
  0.747000, -0.685800
  0.749000, -0.673800
  0.751000, -0.661400
  0.753000, -0.648800
  0.755000, -0.635900
  0.757000, -0.622800
  0.759000, -0.609600
  0.761000, -0.596200
  0.763000, -0.582600
  0.765000, -0.568900
  0.767000, -0.554800
  0.769000, -0.540500
  0.771000, -0.526300
  0.773000, -0.512000
  0.775000, -0.497600
  0.777000, -0.483200
  0.779000, -0.468800
  0.781000, -0.454200
  0.783000, -0.439600
  0.785000, -0.425200
  0.787000, -0.410800
  0.789000, -0.396300
  0.791000, -0.381900
  0.793000, -0.367700
  0.795000, -0.353500
  0.797000, -0.339500
  0.799000, -0.325700
  0.801000, -0.311800
  0.803000, -0.298200
  0.805000, -0.284800
  0.807000, -0.271500
  0.809000, -0.258500
  0.811000, -0.245800
  0.813000, -0.233300
  0.815000, -0.221000
  0.817000, -0.208900
  0.819000, -0.197200
  0.821000, -0.185600
  0.823000, -0.174200
  0.825000, -0.163400
  0.827000, -0.152900
  0.829000, -0.142500
  0.831000, -0.132400
  0.833000, -0.122900
  0.835000, -0.113800
  0.837000, -0.105300
  0.839000, -0.096900
  0.841000, -0.088800
  0.843000, -0.081000
  0.845000, -0.073700
  0.847000, -0.066700
  0.849000, -0.060000
  0.851000, -0.053800
  0.853000, -0.048000
  0.855000, -0.042700
  0.857000, -0.037600
  0.859000, -0.032800
  0.861000, -0.028500
  0.863000, -0.024500
  0.865000, -0.020800
  0.867000, -0.017400
  0.869000, -0.014400
  0.871000, -0.011800
  0.873000, -0.009500
  0.875000, -0.007500
  0.877000, -0.005800
  0.879000, -0.004300
  0.881000, -0.003100
  0.883000, -0.002200
  0.885000, -0.001600
  0.887000, -0.001100
  0.889000, -0.000900
  0.891000, -0.000800
  0.893000, -0.001000
  0.895000, -0.001300
  0.897000, -0.001900
  0.899000, -0.002600
  0.901000, -0.003500
  0.903000, -0.004500
  0.905000, -0.005700
  0.907000, -0.006800
  0.909000, -0.008200
  0.911000, -0.009600
  0.913000, -0.011100
  0.915000, -0.012700
  0.917000, -0.014400
  0.919000, -0.016100
  0.921000, -0.017800
  0.923000, -0.019500
  0.925000, -0.021400
  0.927000, -0.023200
  0.929000, -0.025000
  0.931000, -0.026800
  0.933000, -0.028500
  0.935000, -0.030200
  0.937000, -0.032000
  0.939000, -0.033700
  0.941000, -0.035400
  0.943000, -0.037200
  0.945000, -0.038900
  0.947000, -0.040600
  0.949000, -0.042300
  0.951000, -0.043900
  0.953000, -0.045600
  0.955000, -0.047400
  0.957000, -0.049100
  0.959000, -0.050800
  0.961000, -0.052400
  0.963000, -0.054000
  0.965000, -0.055700
  0.967000, -0.057300
  0.969000, -0.058900
  0.971000, -0.060500
  0.973000, -0.062100
  0.975000, -0.063800
  0.977000, -0.065400
  0.979000, -0.067100
  0.981000, -0.068900
  0.983000, -0.070700
  0.985000, -0.072600
  0.987000, -0.074400
  0.989000, -0.076200
  0.991000, -0.078100
  0.993000, -0.080000
  0.995000, -0.081900
  0.997000, -0.083800
  0.999000, -0.085700
  1.001000, -0.087700
  1.003000, -0.089700
  1.005000, -0.091800
  1.007000, -0.093900
  1.009000, -0.095900
  1.011000, -0.097900
  1.013000, -0.100000
  1.015000, -0.102000
  1.017000, -0.104000
  1.019000, -0.106100
  1.021000, -0.108100
  1.023000, -0.110200
  1.025000, -0.112200
  1.027000, -0.114000
  1.029000, -0.115900
  1.031000, -0.117600
  1.033000, -0.119400
  1.035000, -0.121100
  1.037000, -0.122600
  1.039000, -0.124100
  1.041000, -0.125600
  1.043000, -0.126800
  1.045000, -0.127900
  1.047000, -0.128800
  1.049000, -0.129600
  1.051000, -0.130400
  1.053000, -0.130900
  1.055000, -0.131300
  1.057000, -0.131600
  1.059000, -0.131700
  1.061000, -0.131600
  1.063000, -0.131400
  1.065000, -0.131100
  1.067000, -0.130500
  1.069000, -0.129700
  1.071000, -0.128700
  1.073000, -0.127400
  1.075000, -0.126000
  1.077000, -0.124300
  1.079000, -0.122500
  1.081000, -0.120500
  1.083000, -0.118300
  1.085000, -0.115900
  1.087000, -0.113300
  1.089000, -0.110700
  1.091000, -0.107900
  1.093000, -0.104900
  1.095000, -0.101800
  1.097000, -0.098600
  1.099000, -0.095200
  1.101000, -0.091800
  1.103000, -0.088300
  1.105000, -0.084500
  1.107000, -0.080800
  1.109000, -0.077000
  1.111000, -0.073200
  1.113000, -0.069400
  1.115000, -0.065500
  1.117000, -0.061800
  1.119000, -0.058000
  1.121000, -0.054100
  1.123000, -0.050300
  1.125000, -0.046500
  1.127000, -0.042800
  1.129000, -0.039200
  1.131000, -0.035700
  1.133000, -0.032300
  1.135000, -0.029000
  1.137000, -0.025800
  1.139000, -0.022700
  1.141000, -0.019700
  1.143000, -0.017100
  1.145000, -0.014500
  1.147000, -0.011900
  1.149000, -0.009600
  1.151000, -0.007400
  1.153000, -0.005500
  1.155000, -0.003600
  1.157000, -0.001900
  1.159000, -0.000400
  1.161000,  0.000800
  1.163000,  0.002000
  1.165000,  0.002900
  1.167000,  0.003700
  1.169000,  0.004300
  1.171000,  0.004800
  1.173000,  0.005000
  1.175000,  0.005200
  1.177000,  0.005100
  1.179000,  0.004900
  1.181000,  0.004500
  1.183000,  0.004100
  1.185000,  0.003500
  1.187000,  0.002900
  1.189000,  0.002200
  1.191000,  0.001300
  1.193000,  0.000200
  1.195000, -0.000900
  1.197000, -0.002100
  1.199000, -0.003400
  1.201000, -0.004700
  1.203000, -0.006000
  1.205000, -0.007500
  1.207000, -0.008900
  1.209000, -0.010300
  1.211000, -0.011800
  1.213000, -0.013300
  1.215000, -0.014700
  1.217000, -0.016200
  1.219000, -0.017700
  1.221000, -0.019100
  1.223000, -0.020500
  1.225000, -0.022000
  1.227000, -0.023400
  1.229000, -0.024800
  1.231000, -0.026100
  1.233000, -0.027300
  1.235000, -0.028500
  1.237000, -0.029600
  1.239000, -0.030600
  1.241000, -0.031700
  1.243000, -0.032600
  1.245000, -0.033600
  1.247000, -0.034400
  1.249000, -0.035100
  1.251000, -0.035700
  1.253000, -0.036400
  1.255000, -0.037000
  1.257000, -0.037400
  1.259000, -0.037800
  1.261000, -0.038200
  1.263000, -0.038500
  1.265000, -0.038600
  1.267000, -0.038600
  1.269000, -0.038500
  1.271000, -0.038500
  1.273000, -0.038500
  1.275000, -0.038400
  1.277000, -0.038200
  1.279000, -0.038000
  1.281000, -0.037800
  1.283000, -0.037400
  1.285000, -0.036900
  1.287000, -0.036200
  1.289000, -0.035600
  1.291000, -0.035000
  1.293000, -0.034300
  1.295000, -0.033400
  1.297000, -0.032500
  1.299000, -0.031400
  1.301000, -0.030300
  1.303000, -0.029100
  1.305000, -0.027700
  1.307000, -0.026200
  1.309000, -0.024800
  1.311000, -0.023200
  1.313000, -0.021500
  1.315000, -0.019800
  1.317000, -0.017900
  1.319000, -0.016000
  1.321000, -0.014000
  1.323000, -0.011800
  1.325000, -0.009500
  1.327000, -0.007200
  1.329000, -0.004600
  1.331000, -0.002000
  1.333000,  0.000800
  1.335000,  0.003900
  1.337000,  0.007000
  1.339000,  0.010100
  1.341000,  0.013500
  1.343000,  0.016900
  1.345000,  0.020200
  1.347000,  0.023600
  1.349000,  0.027000
  1.351000,  0.030700
  1.353000,  0.034400
  1.355000,  0.037900
  1.357000,  0.041200
  1.359000,  0.044600
  1.361000,  0.048100
  1.363000,  0.051600
  1.365000,  0.055000
  1.367000,  0.058500
  1.369000,  0.061800
  1.371000,  0.065000
  1.373000,  0.068000
  1.375000,  0.070900
  1.377000,  0.073600
  1.379000,  0.076100
  1.381000,  0.078300
  1.383000,  0.080300
  1.385000,  0.082200
  1.387000,  0.083800
  1.389000,  0.085000
  1.391000,  0.085900
  1.393000,  0.086300
  1.395000,  0.086300
  1.397000,  0.086000
  1.399000,  0.085300
