# z (nm)   (kJ/mol)
  0.313000,  8.674500
  0.315000,  8.280000
  0.317000,  7.835700
  0.319000,  7.325700
  0.321000,  6.840200
  0.323000,  6.371500
  0.325000,  5.905800
  0.327000,  5.438200
  0.329000,  4.946600
  0.331000,  4.449600
  0.333000,  3.959000
  0.335000,  3.473900
  0.337000,  2.983300
  0.339000,  2.494600
  0.341000,  2.013700
  0.343000,  1.537900
  0.345000,  1.065200
  0.347000,  0.595100
  0.349000,  0.132900
  0.351000, -0.321600
  0.353000, -0.772000
  0.355000, -1.217100
  0.357000, -1.651000
  0.359000, -2.075500
  0.361000, -2.492600
  0.363000, -2.894200
  0.365000, -3.282200
  0.367000, -3.659900
  0.369000, -4.024000
  0.371000, -4.375300
  0.373000, -4.714700
  0.375000, -5.039800
  0.377000, -5.350800
  0.379000, -5.650000
  0.381000, -5.933900
  0.383000, -6.201000
  0.385000, -6.454100
  0.387000, -6.693600
  0.389000, -6.919000
  0.391000, -7.130000
  0.393000, -7.325800
  0.395000, -7.505900
  0.397000, -7.670900
  0.399000, -7.821600
  0.401000, -7.958100
  0.403000, -8.080300
  0.405000, -8.187600
  0.407000, -8.280600
  0.409000, -8.359300
  0.411000, -8.423500
  0.413000, -8.474200
  0.415000, -8.512000
  0.417000, -8.536900
  0.419000, -8.549100
  0.421000, -8.548600
  0.423000, -8.536600
  0.425000, -8.514000
  0.427000, -8.481700
  0.429000, -8.439300
  0.431000, -8.386900
  0.433000, -8.325300
  0.435000, -8.255500
  0.437000, -8.177900
  0.439000, -8.094000
  0.441000, -8.004600
  0.443000, -7.907800
  0.445000, -7.805100
  0.447000, -7.698900
  0.449000, -7.589100
  0.451000, -7.476200
  0.453000, -7.360900
  0.455000, -7.244200
  0.457000, -7.126000
  0.459000, -7.006200
  0.461000, -6.886300
  0.463000, -6.767100
  0.465000, -6.648400
  0.467000, -6.530800
  0.469000, -6.414900
  0.471000, -6.300600
  0.473000, -6.189000
  0.475000, -6.080200
  0.477000, -5.974100
  0.479000, -5.870900
  0.481000, -5.771300
  0.483000, -5.675200
  0.485000, -5.582900
  0.487000, -5.494300
  0.489000, -5.409400
  0.491000, -5.328400
  0.493000, -5.251200
  0.495000, -5.178300
  0.497000, -5.109400
  0.499000, -5.044000
  0.501000, -4.982300
  0.503000, -4.924400
  0.505000, -4.870100
  0.507000, -4.819400
  0.509000, -4.772200
  0.511000, -4.728100
  0.513000, -4.686500
  0.515000, -4.647900
  0.517000, -4.612300
  0.519000, -4.579500
  0.521000, -4.549100
  0.523000, -4.520400
  0.525000, -4.493600
  0.527000, -4.468500
  0.529000, -4.445300
  0.531000, -4.423800
  0.533000, -4.403100
  0.535000, -4.383300
  0.537000, -4.364400
  0.539000, -4.346200
  0.541000, -4.328100
  0.543000, -4.310200
  0.545000, -4.292900
  0.547000, -4.275600
  0.549000, -4.257700
  0.551000, -4.239300
  0.553000, -4.220700
  0.555000, -4.201300
  0.557000, -4.180900
  0.559000, -4.159800
  0.561000, -4.137700
  0.563000, -4.114500
  0.565000, -4.090300
  0.567000, -4.065100
  0.569000, -4.038500
  0.571000, -4.010500
  0.573000, -3.981100
  0.575000, -3.950600
  0.577000, -3.918800
  0.579000, -3.885400
  0.581000, -3.850600
  0.583000, -3.814500
  0.585000, -3.776900
  0.587000, -3.738000
  0.589000, -3.697700
  0.591000, -3.656100
  0.593000, -3.613400
  0.595000, -3.569900
  0.597000, -3.525100
  0.599000, -3.479100
  0.601000, -3.431700
  0.603000, -3.383100
  0.605000, -3.333800
  0.607000, -3.283500
  0.609000, -3.232200
  0.611000, -3.180300
  0.613000, -3.127900
  0.615000, -3.075100
  0.617000, -3.021700
  0.619000, -2.967700
  0.621000, -2.913600
  0.623000, -2.859300
  0.625000, -2.805200
  0.627000, -2.751300
  0.629000, -2.697300
  0.631000, -2.643100
  0.633000, -2.589500
  0.635000, -2.536000
  0.637000, -2.482500
  0.639000, -2.429800
  0.641000, -2.377600
  0.643000, -2.325900
  0.645000, -2.275200
  0.647000, -2.225300
  0.649000, -2.176200
  0.651000, -2.127800
  0.653000, -2.079800
  0.655000, -2.032500
  0.657000, -1.986300
  0.659000, -1.941200
  0.661000, -1.897400
  0.663000, -1.854500
  0.665000, -1.812300
  0.667000, -1.771200
  0.669000, -1.731500
  0.671000, -1.693000
  0.673000, -1.655600
  0.675000, -1.619000
  0.677000, -1.583200
  0.679000, -1.548500
  0.681000, -1.514800
  0.683000, -1.481900
  0.685000, -1.450200
  0.687000, -1.419600
  0.689000, -1.389800
  0.691000, -1.361100
  0.693000, -1.333300
  0.695000, -1.306300
  0.697000, -1.280300
  0.699000, -1.254900
  0.701000, -1.230500
  0.703000, -1.206900
  0.705000, -1.184000
  0.707000, -1.161900
  0.709000, -1.140400
  0.711000, -1.119700
  0.713000, -1.099700
  0.715000, -1.080200
  0.717000, -1.061200
  0.719000, -1.042900
  0.721000, -1.025200
  0.723000, -1.008100
  0.725000, -0.991500
  0.727000, -0.975300
  0.729000, -0.959500
  0.731000, -0.944200
  0.733000, -0.929500
  0.735000, -0.915200
  0.737000, -0.901200
  0.739000, -0.887500
  0.741000, -0.874100
  0.743000, -0.861200
  0.745000, -0.848600
  0.747000, -0.836400
  0.749000, -0.824500
  0.751000, -0.813100
  0.753000, -0.801900
  0.755000, -0.790900
  0.757000, -0.780400
  0.759000, -0.770000
  0.761000, -0.759900
  0.763000, -0.750300
  0.765000, -0.740800
  0.767000, -0.731700
  0.769000, -0.723000
  0.771000, -0.714300
  0.773000, -0.706000
  0.775000, -0.698000
  0.777000, -0.690400
  0.779000, -0.683000
  0.781000, -0.675800
  0.783000, -0.668800
  0.785000, -0.662100
  0.787000, -0.655500
  0.789000, -0.649100
  0.791000, -0.642900
  0.793000, -0.636900
  0.795000, -0.631000
  0.797000, -0.625300
  0.799000, -0.619800
  0.801000, -0.614600
  0.803000, -0.609500
  0.805000, -0.604500
  0.807000, -0.599700
  0.809000, -0.595000
  0.811000, -0.590400
  0.813000, -0.585900
  0.815000, -0.581400
  0.817000, -0.576900
  0.819000, -0.572400
  0.821000, -0.568000
  0.823000, -0.563500
  0.825000, -0.559000
  0.827000, -0.554600
  0.829000, -0.550100
  0.831000, -0.545700
  0.833000, -0.541200
  0.835000, -0.536700
  0.837000, -0.532100
  0.839000, -0.527300
  0.841000, -0.522500
  0.843000, -0.517400
  0.845000, -0.512100
  0.847000, -0.506900
  0.849000, -0.501500
  0.851000, -0.496000
  0.853000, -0.490400
  0.855000, -0.484600
  0.857000, -0.478800
  0.859000, -0.472700
  0.861000, -0.466500
  0.863000, -0.460100
  0.865000, -0.453500
  0.867000, -0.447000
  0.869000, -0.440300
  0.871000, -0.433600
  0.873000, -0.426700
  0.875000, -0.419600
  0.877000, -0.412500
  0.879000, -0.405100
  0.881000, -0.397600
  0.883000, -0.390000
  0.885000, -0.382500
  0.887000, -0.375000
  0.889000, -0.367300
  0.891000, -0.359700
  0.893000, -0.352000
  0.895000, -0.344300
  0.897000, -0.336600
  0.899000, -0.328900
  0.901000, -0.321400
  0.903000, -0.313900
  0.905000, -0.306500
  0.907000, -0.299200
  0.909000, -0.292000
  0.911000, -0.284900
  0.913000, -0.277900
  0.915000, -0.271100
  0.917000, -0.264500
  0.919000, -0.258100
  0.921000, -0.251800
  0.923000, -0.245700
  0.925000, -0.239900
  0.927000, -0.234300
  0.929000, -0.229000
  0.931000, -0.223900
  0.933000, -0.219100
  0.935000, -0.214400
  0.937000, -0.209900
  0.939000, -0.205700
  0.941000, -0.201700
  0.943000, -0.198000
  0.945000, -0.194700
  0.947000, -0.191600
  0.949000, -0.188600
  0.951000, -0.185800
  0.953000, -0.183400
  0.955000, -0.181200
  0.957000, -0.179300
  0.959000, -0.177500
  0.961000, -0.176000
  0.963000, -0.174600
  0.965000, -0.173400
  0.967000, -0.172300
  0.969000, -0.171400
  0.971000, -0.170600
  0.973000, -0.170000
  0.975000, -0.169500
  0.977000, -0.169200
  0.979000, -0.169000
  0.981000, -0.168800
  0.983000, -0.168700
  0.985000, -0.168700
  0.987000, -0.168600
  0.989000, -0.168600
  0.991000, -0.168500
  0.993000, -0.168600
  0.995000, -0.168600
  0.997000, -0.168600
  0.999000, -0.168500
  1.001000, -0.168400
  1.003000, -0.168300
  1.005000, -0.168200
  1.007000, -0.168000
  1.009000, -0.167700
  1.011000, -0.167400
  1.013000, -0.167000
  1.015000, -0.166500
  1.017000, -0.166000
  1.019000, -0.165500
  1.021000, -0.164900
  1.023000, -0.164300
  1.025000, -0.163700
  1.027000, -0.163000
  1.029000, -0.162000
  1.031000, -0.161000
  1.033000, -0.160000
  1.035000, -0.158800
  1.037000, -0.157700
  1.039000, -0.156700
  1.041000, -0.155400
  1.043000, -0.154100
  1.045000, -0.152800
  1.047000, -0.151600
  1.049000, -0.150400
  1.051000, -0.149200
  1.053000, -0.148000
  1.055000, -0.146800
  1.057000, -0.145600
  1.059000, -0.144400
  1.061000, -0.143300
  1.063000, -0.142300
  1.065000, -0.141300
  1.067000, -0.140300
  1.069000, -0.139300
  1.071000, -0.138600
  1.073000, -0.137900
  1.075000, -0.137200
  1.077000, -0.136500
  1.079000, -0.135900
  1.081000, -0.135400
  1.083000, -0.134900
  1.085000, -0.134400
  1.087000, -0.134100
  1.089000, -0.133700
  1.091000, -0.133500
  1.093000, -0.133300
  1.095000, -0.133000
  1.097000, -0.132800
  1.099000, -0.132600
  1.101000, -0.132400
  1.103000, -0.132200
  1.105000, -0.132200
  1.107000, -0.132100
  1.109000, -0.132100
  1.111000, -0.132100
  1.113000, -0.132100
  1.115000, -0.132000
  1.117000, -0.132000
  1.119000, -0.132000
  1.121000, -0.132000
  1.123000, -0.131900
  1.125000, -0.131600
  1.127000, -0.131400
  1.129000, -0.131100
  1.131000, -0.130800
  1.133000, -0.130300
  1.135000, -0.129900
  1.137000, -0.129400
  1.139000, -0.129000
  1.141000, -0.128400
  1.143000, -0.127600
  1.145000, -0.126800
  1.147000, -0.126000
  1.149000, -0.125100
  1.151000, -0.124000
  1.153000, -0.123000
  1.155000, -0.121900
  1.157000, -0.120600
  1.159000, -0.119400
  1.161000, -0.118100
  1.163000, -0.116800
  1.165000, -0.115400
  1.167000, -0.113900
  1.169000, -0.112200
  1.171000, -0.110500
  1.173000, -0.108800
  1.175000, -0.107000
  1.177000, -0.105300
  1.179000, -0.103500
  1.181000, -0.101600
  1.183000, -0.099600
  1.185000, -0.097600
  1.187000, -0.095700
  1.189000, -0.093900
  1.191000, -0.091900
  1.193000, -0.089900
  1.195000, -0.087700
  1.197000, -0.085600
  1.199000, -0.083500
  1.201000, -0.081500
  1.203000, -0.079400
  1.205000, -0.077300
  1.207000, -0.075100
  1.209000, -0.073100
  1.211000, -0.071000
  1.213000, -0.069100
  1.215000, -0.067200
  1.217000, -0.065100
  1.219000, -0.063100
  1.221000, -0.061100
  1.223000, -0.059100
  1.225000, -0.057300
  1.227000, -0.055500
  1.229000, -0.053600
  1.231000, -0.051900
  1.233000, -0.050100
  1.235000, -0.048400
  1.237000, -0.046800
  1.239000, -0.045100
  1.241000, -0.043600
  1.243000, -0.042100
  1.245000, -0.040700
  1.247000, -0.039300
  1.249000, -0.038000
  1.251000, -0.036800
  1.253000, -0.035600
  1.255000, -0.034500
  1.257000, -0.033400
  1.259000, -0.032500
  1.261000, -0.031500
  1.263000, -0.030700
  1.265000, -0.029900
  1.267000, -0.029100
  1.269000, -0.028300
  1.271000, -0.027700
  1.273000, -0.027100
  1.275000, -0.026600
  1.277000, -0.026000
  1.279000, -0.025500
  1.281000, -0.025000
  1.283000, -0.024500
  1.285000, -0.024000
  1.287000, -0.023400
  1.289000, -0.022900
  1.291000, -0.022200
  1.293000, -0.021600
  1.295000, -0.021000
  1.297000, -0.020200
  1.299000, -0.019500
  1.301000, -0.018600
  1.303000, -0.017600
  1.305000, -0.016600
  1.307000, -0.015600
  1.309000, -0.014400
  1.311000, -0.013100
  1.313000, -0.011700
  1.315000, -0.010200
  1.317000, -0.008400
  1.319000, -0.006600
  1.321000, -0.004700
  1.323000, -0.002500
  1.325000, -0.000100
  1.327000,  0.002500
  1.329000,  0.005300
  1.331000,  0.008100
  1.333000,  0.011100
  1.335000,  0.014100
  1.337000,  0.017300
  1.339000,  0.020700
  1.341000,  0.024100
  1.343000,  0.027600
  1.345000,  0.031400
  1.347000,  0.035300
  1.349000,  0.039300
  1.351000,  0.043300
  1.353000,  0.047300
  1.355000,  0.051200
  1.357000,  0.055200
  1.359000,  0.059400
  1.361000,  0.063500
  1.363000,  0.067500
  1.365000,  0.071500
  1.367000,  0.075500
  1.369000,  0.079400
  1.371000,  0.083100
  1.373000,  0.086900
  1.375000,  0.090400
  1.377000,  0.093500
  1.379000,  0.096600
  1.381000,  0.099400
  1.383000,  0.102000
  1.385000,  0.104400
  1.387000,  0.106500
  1.389000,  0.108000
  1.391000,  0.109200
  1.393000,  0.110000
  1.395000,  0.110200
  1.397000,  0.109800
  1.399000,  0.109000
