# z (nm)   (kJ/mol)
  0.273000, 14.383200
  0.275000, 14.166400
  0.281000, 13.779200
  0.283000, 13.544800
  0.285000, 13.300000
  0.287000, 13.043500
  0.289000, 12.788000
  0.291000, 12.515700
  0.293000, 12.239600
  0.295000, 11.964600
  0.297000, 11.677700
  0.299000, 11.384300
  0.301000, 11.097700
  0.303000, 10.805200
  0.305000, 10.498400
  0.307000, 10.184600
  0.309000,  9.865900
  0.311000,  9.547600
  0.313000,  9.224200
  0.315000,  8.890000
  0.317000,  8.560400
  0.319000,  8.234100
  0.321000,  7.901800
  0.323000,  7.564100
  0.325000,  7.227300
  0.327000,  6.893200
  0.329000,  6.558400
  0.331000,  6.228300
  0.333000,  5.899400
  0.335000,  5.571500
  0.337000,  5.246500
  0.339000,  4.923600
  0.341000,  4.603900
  0.343000,  4.291200
  0.345000,  3.987400
  0.347000,  3.686300
  0.349000,  3.388700
  0.351000,  3.097000
  0.353000,  2.811300
  0.355000,  2.531900
  0.357000,  2.258700
  0.359000,  1.993600
  0.361000,  1.735300
  0.363000,  1.485700
  0.365000,  1.242800
  0.367000,  1.004100
  0.369000,  0.773000
  0.371000,  0.549800
  0.373000,  0.334500
  0.375000,  0.125900
  0.377000, -0.075300
  0.379000, -0.269800
  0.381000, -0.457300
  0.383000, -0.637400
  0.385000, -0.811000
  0.387000, -0.978000
  0.389000, -1.138500
  0.391000, -1.292200
  0.393000, -1.438100
  0.395000, -1.577400
  0.397000, -1.711500
  0.399000, -1.839700
  0.401000, -1.961800
  0.403000, -2.077600
  0.405000, -2.187500
  0.407000, -2.291900
  0.409000, -2.390100
  0.411000, -2.482700
  0.413000, -2.570200
  0.415000, -2.652300
  0.417000, -2.728700
  0.419000, -2.800100
  0.421000, -2.866900
  0.423000, -2.929100
  0.425000, -2.986600
  0.427000, -3.039400
  0.429000, -3.087900
  0.431000, -3.132400
  0.433000, -3.172800
  0.435000, -3.209300
  0.437000, -3.241400
  0.439000, -3.269400
  0.441000, -3.294000
  0.443000, -3.315300
  0.445000, -3.333200
  0.447000, -3.347300
  0.449000, -3.358000
  0.451000, -3.365400
  0.453000, -3.369400
  0.455000, -3.370300
  0.457000, -3.368000
  0.459000, -3.362400
  0.461000, -3.353800
  0.463000, -3.342300
  0.465000, -3.327600
  0.467000, -3.309900
  0.469000, -3.289400
  0.471000, -3.265900
  0.473000, -3.239600
  0.475000, -3.210500
  0.477000, -3.178600
  0.479000, -3.143600
  0.481000, -3.106000
  0.483000, -3.065900
  0.485000, -3.023200
  0.487000, -2.978200
  0.489000, -2.930700
  0.491000, -2.880800
  0.493000, -2.828400
  0.495000, -2.774200
  0.497000, -2.718000
  0.499000, -2.659900
  0.501000, -2.600000
  0.503000, -2.538500
  0.505000, -2.475400
  0.507000, -2.410600
  0.509000, -2.344500
  0.511000, -2.277500
  0.513000, -2.209700
  0.515000, -2.140900
  0.517000, -2.071500
  0.519000, -2.001300
  0.521000, -1.931000
  0.523000, -1.860600
  0.525000, -1.790100
  0.527000, -1.719900
  0.529000, -1.650100
  0.531000, -1.580800
  0.533000, -1.512300
  0.535000, -1.444700
  0.537000, -1.378000
  0.539000, -1.312700
  0.541000, -1.248700
  0.543000, -1.186100
  0.545000, -1.125200
  0.547000, -1.066000
  0.549000, -1.008700
  0.551000, -0.953400
  0.553000, -0.899900
  0.555000, -0.848400
  0.557000, -0.799200
  0.559000, -0.752000
  0.561000, -0.707100
  0.563000, -0.664800
  0.565000, -0.624900
  0.567000, -0.587400
  0.569000, -0.552300
  0.571000, -0.519600
  0.573000, -0.489100
  0.575000, -0.460800
  0.577000, -0.434800
  0.579000, -0.411000
  0.581000, -0.389600
  0.583000, -0.370200
  0.585000, -0.352800
  0.587000, -0.337600
  0.589000, -0.324600
  0.591000, -0.313400
  0.593000, -0.303800
  0.595000, -0.295700
  0.597000, -0.289200
  0.599000, -0.284200
  0.601000, -0.280900
  0.603000, -0.279100
  0.605000, -0.278200
  0.607000, -0.278100
  0.609000, -0.278900
  0.611000, -0.281000
  0.613000, -0.283700
  0.615000, -0.287000
  0.617000, -0.290600
  0.619000, -0.294700
  0.621000, -0.299500
  0.623000, -0.304700
  0.625000, -0.310000
  0.627000, -0.315400
  0.629000, -0.321200
  0.631000, -0.327100
  0.633000, -0.332700
  0.635000, -0.338300
  0.637000, -0.343800
  0.639000, -0.349200
  0.641000, -0.354300
  0.643000, -0.359200
  0.645000, -0.363900
  0.647000, -0.368300
  0.649000, -0.372500
  0.651000, -0.376300
  0.653000, -0.379800
  0.655000, -0.383000
  0.657000, -0.386000
  0.659000, -0.388500
  0.661000, -0.390700
  0.663000, -0.392600
  0.665000, -0.394300
  0.667000, -0.395800
  0.669000, -0.396900
  0.671000, -0.397600
  0.673000, -0.398000
  0.675000, -0.398300
  0.677000, -0.398300
  0.679000, -0.398100
  0.681000, -0.397800
  0.683000, -0.397300
  0.685000, -0.396700
  0.687000, -0.396000
  0.689000, -0.395300
  0.691000, -0.394600
  0.693000, -0.393900
  0.695000, -0.393000
  0.697000, -0.392100
  0.699000, -0.391100
  0.701000, -0.390300
  0.703000, -0.389400
  0.705000, -0.388600
  0.707000, -0.387700
  0.709000, -0.386900
  0.711000, -0.386100
  0.713000, -0.385500
  0.715000, -0.384900
  0.717000, -0.384300
  0.719000, -0.383800
  0.721000, -0.383300
  0.723000, -0.382900
  0.725000, -0.382600
  0.727000, -0.382300
  0.729000, -0.382000
  0.731000, -0.381600
  0.733000, -0.381200
  0.735000, -0.380800
  0.737000, -0.380300
  0.739000, -0.379700
  0.741000, -0.379200
  0.743000, -0.378600
  0.745000, -0.378000
  0.747000, -0.377300
  0.749000, -0.376600
  0.751000, -0.375600
  0.753000, -0.374600
  0.755000, -0.373400
  0.757000, -0.372100
  0.759000, -0.370600
  0.761000, -0.368900
  0.763000, -0.367100
  0.765000, -0.365100
  0.767000, -0.362900
  0.769000, -0.360600
  0.771000, -0.358100
  0.773000, -0.355300
  0.775000, -0.352200
  0.777000, -0.349000
  0.779000, -0.345600
  0.781000, -0.341900
  0.783000, -0.337900
  0.785000, -0.333800
  0.787000, -0.329400
  0.789000, -0.324800
  0.791000, -0.320100
  0.793000, -0.315100
  0.795000, -0.309800
  0.797000, -0.304300
  0.799000, -0.298700
  0.801000, -0.292900
  0.803000, -0.286900
  0.805000, -0.280700
  0.807000, -0.274200
  0.809000, -0.267500
  0.811000, -0.260600
  0.813000, -0.253600
  0.815000, -0.246500
  0.817000, -0.239200
  0.819000, -0.231800
  0.821000, -0.224300
  0.823000, -0.216500
  0.825000, -0.208600
  0.827000, -0.200600
  0.829000, -0.192500
  0.831000, -0.184500
  0.833000, -0.176500
  0.835000, -0.168400
  0.837000, -0.160100
  0.839000, -0.151700
  0.841000, -0.143300
  0.843000, -0.135000
  0.845000, -0.126800
  0.847000, -0.118500
  0.849000, -0.110100
  0.851000, -0.101900
  0.853000, -0.093800
  0.855000, -0.085600
  0.857000, -0.077500
  0.859000, -0.069500
  0.861000, -0.061700
  0.863000, -0.054000
  0.865000, -0.046400
  0.867000, -0.038900
  0.869000, -0.031600
  0.871000, -0.024400
  0.873000, -0.017300
  0.875000, -0.010500
  0.877000, -0.003800
  0.879000,  0.002500
  0.881000,  0.008600
  0.883000,  0.014700
  0.885000,  0.020400
  0.887000,  0.025900
  0.889000,  0.031200
  0.891000,  0.036200
  0.893000,  0.041100
  0.895000,  0.045700
  0.897000,  0.050000
  0.899000,  0.054100
  0.901000,  0.057900
  0.903000,  0.061400
  0.905000,  0.064700
  0.907000,  0.067700
  0.909000,  0.070400
  0.911000,  0.072900
  0.913000,  0.075100
  0.915000,  0.077000
  0.917000,  0.078700
  0.919000,  0.080200
  0.921000,  0.081400
  0.923000,  0.082400
  0.925000,  0.083100
  0.927000,  0.083600
  0.929000,  0.083800
  0.931000,  0.083800
  0.933000,  0.083700
  0.935000,  0.083500
  0.937000,  0.082900
  0.939000,  0.082200
  0.941000,  0.081200
  0.943000,  0.080100
  0.945000,  0.078800
  0.947000,  0.077400
  0.949000,  0.075800
  0.951000,  0.074100
  0.953000,  0.072300
  0.955000,  0.070300
  0.957000,  0.068100
  0.959000,  0.065900
  0.961000,  0.063700
  0.963000,  0.061300
  0.965000,  0.058800
  0.967000,  0.056200
  0.969000,  0.053600
  0.971000,  0.051000
  0.973000,  0.048300
  0.975000,  0.045400
  0.977000,  0.042600
  0.979000,  0.039700
  0.981000,  0.036800
  0.983000,  0.033900
  0.985000,  0.031000
  0.987000,  0.028000
  0.989000,  0.025000
  0.991000,  0.022000
  0.993000,  0.019100
  0.995000,  0.016300
  0.997000,  0.013400
  0.999000,  0.010700
  1.001000,  0.007900
  1.003000,  0.005100
  1.005000,  0.002500
  1.007000, -0.000200
  1.009000, -0.002700
  1.011000, -0.005200
  1.013000, -0.007700
  1.015000, -0.010100
  1.017000, -0.012400
  1.019000, -0.014600
  1.021000, -0.016700
  1.023000, -0.018800
  1.025000, -0.020900
  1.027000, -0.022800
  1.029000, -0.024600
  1.031000, -0.026400
  1.033000, -0.027900
  1.035000, -0.029500
  1.037000, -0.030900
  1.039000, -0.032200
  1.041000, -0.033400
  1.043000, -0.034500
  1.045000, -0.035600
  1.047000, -0.036600
  1.049000, -0.037500
  1.051000, -0.038300
  1.053000, -0.039000
  1.055000, -0.039600
  1.057000, -0.040100
  1.059000, -0.040700
  1.061000, -0.041100
  1.063000, -0.041600
  1.065000, -0.042000
  1.067000, -0.042300
  1.069000, -0.042400
  1.071000, -0.042600
  1.073000, -0.042600
  1.075000, -0.042500
  1.077000, -0.042600
  1.079000, -0.042500
  1.081000, -0.042300
  1.083000, -0.042000
  1.085000, -0.041700
  1.087000, -0.041500
  1.089000, -0.041200
  1.091000, -0.040900
  1.093000, -0.040500
  1.095000, -0.040000
  1.097000, -0.039600
  1.099000, -0.039200
  1.101000, -0.038700
  1.103000, -0.038200
  1.105000, -0.037600
  1.107000, -0.037100
  1.109000, -0.036400
  1.111000, -0.035800
  1.113000, -0.035100
  1.115000, -0.034400
  1.117000, -0.033600
  1.119000, -0.032900
  1.121000, -0.032000
  1.123000, -0.031100
  1.125000, -0.030300
  1.127000, -0.029500
  1.129000, -0.028600
  1.131000, -0.027700
  1.133000, -0.026800
  1.135000, -0.026000
  1.137000, -0.025300
  1.139000, -0.024300
  1.141000, -0.023300
  1.143000, -0.022500
  1.145000, -0.021600
  1.147000, -0.020600
  1.149000, -0.019600
  1.151000, -0.018700
  1.153000, -0.017900
  1.155000, -0.017000
  1.157000, -0.016200
  1.159000, -0.015400
  1.161000, -0.014700
  1.163000, -0.014100
  1.165000, -0.013400
  1.167000, -0.012700
  1.169000, -0.012100
  1.171000, -0.011600
  1.173000, -0.011200
  1.175000, -0.010700
  1.177000, -0.010200
  1.179000, -0.009800
  1.181000, -0.009500
  1.183000, -0.009300
  1.185000, -0.009000
  1.187000, -0.008800
  1.189000, -0.008700
  1.191000, -0.008800
  1.193000, -0.008800
  1.195000, -0.009000
  1.197000, -0.009200
  1.199000, -0.009500
  1.201000, -0.009800
  1.203000, -0.010300
  1.205000, -0.010900
  1.207000, -0.011500
  1.209000, -0.012200
  1.211000, -0.012900
  1.213000, -0.013700
  1.215000, -0.014400
  1.217000, -0.015300
  1.219000, -0.016200
  1.221000, -0.017000
  1.223000, -0.017900
  1.225000, -0.018800
  1.227000, -0.019800
  1.229000, -0.020800
  1.231000, -0.021800
  1.233000, -0.022800
  1.235000, -0.023800
  1.237000, -0.024700
  1.239000, -0.025700
  1.241000, -0.026600
  1.243000, -0.027400
  1.245000, -0.028300
  1.247000, -0.029000
  1.249000, -0.029500
  1.251000, -0.030000
  1.253000, -0.030700
  1.255000, -0.031000
  1.257000, -0.031300
  1.259000, -0.031600
  1.261000, -0.031700
  1.263000, -0.031800
  1.265000, -0.031900
  1.267000, -0.031900
  1.269000, -0.031800
  1.271000, -0.031700
  1.273000, -0.031400
  1.275000, -0.031100
  1.277000, -0.030700
  1.279000, -0.030200
  1.281000, -0.029700
  1.283000, -0.029200
  1.285000, -0.028600
  1.287000, -0.027900
  1.289000, -0.027200
  1.291000, -0.026300
  1.293000, -0.025500
  1.295000, -0.024600
  1.297000, -0.023600
  1.299000, -0.022600
  1.301000, -0.021600
  1.303000, -0.020600
  1.305000, -0.019600
  1.307000, -0.018400
  1.309000, -0.017200
  1.311000, -0.016100
  1.313000, -0.014900
  1.315000, -0.013700
  1.317000, -0.012400
  1.319000, -0.011000
  1.321000, -0.009600
  1.323000, -0.008200
  1.325000, -0.006800
  1.327000, -0.005300
  1.329000, -0.003800
  1.331000, -0.002200
  1.333000, -0.000500
  1.335000,  0.001100
  1.337000,  0.002900
  1.339000,  0.004800
  1.341000,  0.006900
  1.343000,  0.009000
  1.345000,  0.011200
  1.347000,  0.013400
  1.349000,  0.015800
  1.351000,  0.018300
  1.353000,  0.020900
  1.355000,  0.023500
  1.357000,  0.026300
  1.359000,  0.029200
  1.361000,  0.032400
  1.363000,  0.035600
  1.365000,  0.038800
  1.367000,  0.042100
  1.369000,  0.045500
  1.371000,  0.048800
  1.373000,  0.052200
  1.375000,  0.055700
  1.377000,  0.059300
  1.379000,  0.062900
  1.381000,  0.066600
  1.383000,  0.070200
  1.385000,  0.073800
  1.387000,  0.077200
  1.389000,  0.080400
  1.391000,  0.083500
  1.393000,  0.086300
  1.395000,  0.089100
  1.397000,  0.091500
  1.399000,  0.093600
