# z (nm)   (kJ/mol)
  0.263000, 14.011000
  0.267000, 13.771900
  0.269000, 13.560600
  0.271000, 13.352500
  0.273000, 13.117500
  0.275000, 12.889500
  0.277000, 12.666300
  0.279000, 12.428900
  0.281000, 12.177700
  0.283000, 11.930500
  0.285000, 11.688600
  0.287000, 11.434700
  0.289000, 11.171700
  0.291000, 10.909100
  0.293000, 10.648700
  0.295000, 10.393100
  0.297000, 10.139100
  0.299000,  9.882000
  0.301000,  9.621300
  0.303000,  9.363400
  0.305000,  9.108800
  0.307000,  8.858000
  0.309000,  8.611000
  0.311000,  8.364500
  0.313000,  8.121900
  0.315000,  7.886100
  0.317000,  7.651600
  0.319000,  7.417200
  0.321000,  7.190300
  0.323000,  6.971500
  0.325000,  6.752000
  0.327000,  6.532400
  0.329000,  6.316900
  0.331000,  6.104900
  0.333000,  5.896300
  0.335000,  5.690500
  0.337000,  5.487600
  0.339000,  5.287200
  0.341000,  5.091200
  0.343000,  4.898400
  0.345000,  4.708400
  0.347000,  4.520600
  0.349000,  4.336400
  0.351000,  4.156100
  0.353000,  3.978200
  0.355000,  3.802400
  0.357000,  3.626000
  0.359000,  3.452700
  0.361000,  3.282400
  0.363000,  3.113400
  0.365000,  2.947600
  0.367000,  2.783600
  0.369000,  2.621000
  0.371000,  2.460400
  0.373000,  2.302200
  0.375000,  2.146100
  0.377000,  1.990800
  0.379000,  1.837600
  0.381000,  1.686700
  0.383000,  1.535700
  0.385000,  1.385700
  0.387000,  1.238700
  0.389000,  1.093600
  0.391000,  0.949200
  0.393000,  0.806600
  0.395000,  0.665800
  0.397000,  0.526400
  0.399000,  0.388800
  0.401000,  0.252700
  0.403000,  0.119200
  0.405000, -0.012600
  0.407000, -0.143400
  0.409000, -0.271300
  0.411000, -0.396100
  0.413000, -0.518200
  0.415000, -0.638000
  0.417000, -0.755700
  0.419000, -0.870600
  0.421000, -0.981800
  0.423000, -1.089600
  0.425000, -1.194200
  0.427000, -1.295500
  0.429000, -1.393000
  0.431000, -1.486300
  0.433000, -1.575600
  0.435000, -1.661100
  0.437000, -1.742400
  0.439000, -1.819000
  0.441000, -1.891100
  0.443000, -1.958400
  0.445000, -2.020600
  0.447000, -2.078100
  0.449000, -2.130700
  0.451000, -2.178000
  0.453000, -2.220500
  0.455000, -2.258100
  0.457000, -2.290700
  0.459000, -2.318100
  0.461000, -2.340500
  0.463000, -2.358000
  0.465000, -2.370600
  0.467000, -2.378200
  0.469000, -2.380800
  0.471000, -2.378600
  0.473000, -2.372000
  0.475000, -2.360700
  0.477000, -2.345100
  0.479000, -2.325400
  0.481000, -2.301500
  0.483000, -2.274000
  0.485000, -2.242800
  0.487000, -2.208400
  0.489000, -2.170700
  0.491000, -2.129800
  0.493000, -2.086100
  0.495000, -2.039900
  0.497000, -1.991400
  0.499000, -1.940700
  0.501000, -1.888100
  0.503000, -1.834100
  0.505000, -1.778700
  0.507000, -1.721800
  0.509000, -1.663900
  0.511000, -1.605500
  0.513000, -1.546500
  0.515000, -1.487100
  0.517000, -1.427500
  0.519000, -1.368500
  0.521000, -1.309600
  0.523000, -1.251200
  0.525000, -1.193500
  0.527000, -1.136100
  0.529000, -1.079400
  0.531000, -1.024000
  0.533000, -0.969900
  0.535000, -0.917000
  0.537000, -0.865500
  0.539000, -0.815500
  0.541000, -0.767100
  0.543000, -0.720300
  0.545000, -0.675200
  0.547000, -0.631900
  0.549000, -0.590300
  0.551000, -0.550300
  0.553000, -0.512200
  0.555000, -0.476100
  0.557000, -0.441700
  0.559000, -0.409100
  0.561000, -0.378500
  0.563000, -0.349500
  0.565000, -0.322300
  0.567000, -0.296900
  0.569000, -0.273100
  0.571000, -0.250800
  0.573000, -0.230100
  0.575000, -0.211100
  0.577000, -0.193700
  0.579000, -0.177700
  0.581000, -0.162900
  0.583000, -0.149500
  0.585000, -0.137400
  0.587000, -0.126400
  0.589000, -0.116500
  0.591000, -0.107700
  0.593000, -0.100200
  0.595000, -0.093500
  0.597000, -0.087700
  0.599000, -0.082600
  0.601000, -0.078400
  0.603000, -0.074800
  0.605000, -0.072000
  0.607000, -0.069900
  0.609000, -0.068500
  0.611000, -0.067600
  0.613000, -0.067300
  0.615000, -0.067400
  0.617000, -0.068100
  0.619000, -0.069200
  0.621000, -0.070700
  0.623000, -0.072600
  0.625000, -0.074800
  0.627000, -0.077200
  0.629000, -0.080100
  0.631000, -0.083300
  0.633000, -0.086700
  0.635000, -0.090200
  0.637000, -0.094200
  0.639000, -0.098400
  0.641000, -0.102700
  0.643000, -0.107200
  0.645000, -0.111900
  0.647000, -0.116800
  0.649000, -0.121900
  0.651000, -0.127200
  0.653000, -0.132700
  0.655000, -0.138500
  0.657000, -0.144400
  0.659000, -0.150400
  0.661000, -0.156600
  0.663000, -0.163100
  0.665000, -0.169600
  0.667000, -0.176400
  0.669000, -0.183400
  0.671000, -0.190500
  0.673000, -0.197800
  0.675000, -0.205200
  0.677000, -0.212700
  0.679000, -0.220400
  0.681000, -0.228200
  0.683000, -0.236100
  0.685000, -0.244200
  0.687000, -0.252600
  0.689000, -0.261000
  0.691000, -0.269400
  0.693000, -0.277900
  0.695000, -0.286500
  0.697000, -0.295000
  0.699000, -0.303700
  0.701000, -0.312600
  0.703000, -0.321400
  0.705000, -0.330200
  0.707000, -0.339000
  0.709000, -0.347800
  0.711000, -0.356600
  0.713000, -0.365200
  0.715000, -0.373700
  0.717000, -0.382200
  0.719000, -0.390400
  0.721000, -0.398400
  0.723000, -0.406300
  0.725000, -0.413900
  0.727000, -0.421400
  0.729000, -0.428800
  0.731000, -0.435900
  0.733000, -0.442700
  0.735000, -0.449300
  0.737000, -0.455800
  0.739000, -0.461800
  0.741000, -0.467400
  0.743000, -0.472700
  0.745000, -0.477800
  0.747000, -0.482500
  0.749000, -0.486700
  0.751000, -0.490500
  0.753000, -0.493900
  0.755000, -0.496900
  0.757000, -0.499600
  0.759000, -0.501800
  0.761000, -0.503400
  0.763000, -0.504600
  0.765000, -0.505400
  0.767000, -0.505700
  0.769000, -0.505600
  0.771000, -0.505100
  0.773000, -0.504100
  0.775000, -0.502600
  0.777000, -0.500800
  0.779000, -0.498600
  0.781000, -0.496100
  0.783000, -0.493100
  0.785000, -0.489500
  0.787000, -0.485600
  0.789000, -0.481200
  0.791000, -0.476500
  0.793000, -0.471400
  0.795000, -0.465900
  0.797000, -0.460000
  0.799000, -0.453900
  0.801000, -0.447400
  0.803000, -0.440700
  0.805000, -0.433600
  0.807000, -0.426200
  0.809000, -0.418500
  0.811000, -0.410700
  0.813000, -0.402600
  0.815000, -0.394100
  0.817000, -0.385600
  0.819000, -0.376900
  0.821000, -0.368200
  0.823000, -0.359400
  0.825000, -0.350500
  0.827000, -0.341500
  0.829000, -0.332500
  0.831000, -0.323400
  0.833000, -0.314400
  0.835000, -0.305300
  0.837000, -0.296300
  0.839000, -0.287300
  0.841000, -0.278200
  0.843000, -0.269200
  0.845000, -0.260300
  0.847000, -0.251400
  0.849000, -0.242700
  0.851000, -0.234200
  0.853000, -0.225700
  0.855000, -0.217500
  0.857000, -0.209500
  0.859000, -0.201600
  0.861000, -0.193900
  0.863000, -0.186400
  0.865000, -0.179200
  0.867000, -0.172300
  0.869000, -0.165500
  0.871000, -0.159000
  0.873000, -0.152700
  0.875000, -0.146500
  0.877000, -0.140700
  0.879000, -0.135100
  0.881000, -0.129900
  0.883000, -0.125000
  0.885000, -0.120300
  0.887000, -0.116000
  0.889000, -0.111800
  0.891000, -0.108000
  0.893000, -0.104500
  0.895000, -0.101200
  0.897000, -0.098100
  0.899000, -0.095400
  0.901000, -0.093000
  0.903000, -0.090700
  0.905000, -0.088800
  0.907000, -0.087200
  0.909000, -0.085700
  0.911000, -0.084500
  0.913000, -0.083600
  0.915000, -0.082900
  0.917000, -0.082400
  0.919000, -0.082200
  0.921000, -0.082100
  0.923000, -0.082300
  0.925000, -0.082700
  0.927000, -0.083200
  0.929000, -0.083800
  0.931000, -0.084700
  0.933000, -0.085700
  0.935000, -0.086900
  0.937000, -0.088100
  0.939000, -0.089400
  0.941000, -0.090800
  0.943000, -0.092300
  0.945000, -0.094000
  0.947000, -0.095800
  0.949000, -0.097600
  0.951000, -0.099400
  0.953000, -0.101200
  0.955000, -0.103000
  0.957000, -0.104800
  0.959000, -0.106800
  0.961000, -0.108900
  0.963000, -0.110900
  0.965000, -0.112900
  0.967000, -0.114900
  0.969000, -0.117000
  0.971000, -0.119100
  0.973000, -0.120900
  0.975000, -0.122900
  0.977000, -0.124900
  0.979000, -0.126700
  0.981000, -0.128600
  0.983000, -0.130500
  0.985000, -0.132400
  0.987000, -0.134200
  0.989000, -0.136000
  0.991000, -0.138000
  0.993000, -0.139900
  0.995000, -0.141600
  0.997000, -0.143300
  0.999000, -0.145100
  1.001000, -0.146700
  1.003000, -0.148400
  1.005000, -0.150100
  1.007000, -0.151800
  1.009000, -0.153500
  1.011000, -0.155200
  1.013000, -0.156900
  1.015000, -0.158600
  1.017000, -0.160400
  1.019000, -0.162100
  1.021000, -0.163800
  1.023000, -0.165400
  1.025000, -0.167100
  1.027000, -0.168800
  1.029000, -0.170500
  1.031000, -0.172200
  1.033000, -0.173900
  1.035000, -0.175400
  1.037000, -0.177100
  1.039000, -0.178800
  1.041000, -0.180400
  1.043000, -0.181900
  1.045000, -0.183500
  1.047000, -0.185100
  1.049000, -0.186500
  1.051000, -0.187900
  1.053000, -0.189300
  1.055000, -0.190500
  1.057000, -0.191700
  1.059000, -0.192700
  1.061000, -0.193700
  1.063000, -0.194700
  1.065000, -0.195500
  1.067000, -0.196300
  1.069000, -0.196900
  1.071000, -0.197400
  1.073000, -0.197600
  1.075000, -0.197900
  1.077000, -0.197900
  1.079000, -0.197900
  1.081000, -0.197700
  1.083000, -0.197300
  1.085000, -0.196700
  1.087000, -0.196000
  1.089000, -0.195000
  1.091000, -0.193900
  1.093000, -0.192700
  1.095000, -0.191300
  1.097000, -0.189900
  1.099000, -0.188300
  1.101000, -0.186500
  1.103000, -0.184500
  1.105000, -0.182300
  1.107000, -0.180100
  1.109000, -0.177700
  1.111000, -0.175100
  1.113000, -0.172500
  1.115000, -0.169700
  1.117000, -0.166800
  1.119000, -0.163800
  1.121000, -0.160700
  1.123000, -0.157600
  1.125000, -0.154500
  1.127000, -0.151300
  1.129000, -0.148000
  1.131000, -0.144600
  1.133000, -0.141400
  1.135000, -0.138100
  1.137000, -0.134600
  1.139000, -0.131100
  1.141000, -0.127500
  1.143000, -0.123900
  1.145000, -0.120400
  1.147000, -0.117100
  1.149000, -0.113700
  1.151000, -0.110400
  1.153000, -0.107200
  1.155000, -0.103900
  1.157000, -0.100800
  1.159000, -0.097800
  1.161000, -0.094700
  1.163000, -0.091700
  1.165000, -0.088800
  1.167000, -0.086000
  1.169000, -0.083200
  1.171000, -0.080500
  1.173000, -0.078000
  1.175000, -0.075500
  1.177000, -0.073100
  1.179000, -0.070700
  1.181000, -0.068400
  1.183000, -0.066300
  1.185000, -0.064200
  1.187000, -0.062100
  1.189000, -0.060200
  1.191000, -0.058300
  1.193000, -0.056500
  1.195000, -0.054900
  1.197000, -0.053300
  1.199000, -0.051800
  1.201000, -0.050300
  1.203000, -0.048900
  1.205000, -0.047500
  1.207000, -0.046100
  1.209000, -0.044900
  1.211000, -0.043700
  1.213000, -0.042500
  1.215000, -0.041500
  1.217000, -0.040400
  1.219000, -0.039400
  1.221000, -0.038500
  1.223000, -0.037600
  1.225000, -0.036700
  1.227000, -0.035900
  1.229000, -0.035000
  1.231000, -0.034100
  1.233000, -0.033400
  1.235000, -0.032600
  1.237000, -0.031900
  1.239000, -0.031200
  1.241000, -0.030600
  1.243000, -0.029900
  1.245000, -0.029300
  1.247000, -0.028800
  1.249000, -0.028300
  1.251000, -0.027700
  1.253000, -0.027200
  1.255000, -0.026700
  1.257000, -0.026300
  1.259000, -0.025900
  1.261000, -0.025500
  1.263000, -0.025000
  1.265000, -0.024600
  1.267000, -0.024200
  1.269000, -0.023800
  1.271000, -0.023300
  1.273000, -0.022900
  1.275000, -0.022500
  1.277000, -0.022000
  1.279000, -0.021500
  1.281000, -0.021000
  1.283000, -0.020500
  1.285000, -0.020000
  1.287000, -0.019500
  1.289000, -0.018900
  1.291000, -0.018400
  1.293000, -0.017800
  1.295000, -0.017200
  1.297000, -0.016500
  1.299000, -0.015900
  1.301000, -0.015200
  1.303000, -0.014500
  1.305000, -0.013700
  1.307000, -0.012900
  1.309000, -0.012000
  1.311000, -0.011000
  1.313000, -0.010000
  1.315000, -0.009000
  1.317000, -0.007800
  1.319000, -0.006500
  1.321000, -0.005100
  1.323000, -0.003500
  1.325000, -0.002000
  1.327000, -0.000500
  1.329000,  0.001100
  1.331000,  0.002800
  1.333000,  0.004600
  1.335000,  0.006600
  1.337000,  0.008800
  1.339000,  0.011200
  1.341000,  0.013600
  1.343000,  0.016000
  1.345000,  0.018500
  1.347000,  0.021100
  1.349000,  0.023700
  1.351000,  0.026400
  1.353000,  0.029100
  1.355000,  0.031900
  1.357000,  0.034800
  1.359000,  0.037900
  1.361000,  0.041100
  1.363000,  0.044300
  1.365000,  0.047400
  1.367000,  0.050500
  1.369000,  0.053700
  1.371000,  0.056800
  1.373000,  0.060200
  1.375000,  0.063600
  1.377000,  0.067000
  1.379000,  0.070000
  1.381000,  0.073000
  1.383000,  0.076200
  1.385000,  0.079300
  1.387000,  0.082000
  1.389000,  0.084500
  1.391000,  0.086800
  1.393000,  0.089000
  1.395000,  0.090800
  1.397000,  0.092200
  1.399000,  0.093200
