# z (nm)   (kJ/mol)
  0.305000,  6.927600
  0.307000,  6.470600
  0.309000,  5.986900
  0.311000,  5.503200
  0.313000,  5.035800
  0.315000,  4.571100
  0.317000,  4.094600
  0.319000,  3.634100
  0.321000,  3.174500
  0.323000,  2.700700
  0.325000,  2.227900
  0.327000,  1.756500
  0.329000,  1.296800
  0.331000,  0.842300
  0.333000,  0.383700
  0.335000, -0.077200
  0.337000, -0.528800
  0.339000, -0.964700
  0.341000, -1.397500
  0.343000, -1.825200
  0.345000, -2.241300
  0.347000, -2.645900
  0.349000, -3.037000
  0.351000, -3.418600
  0.353000, -3.789700
  0.355000, -4.147900
  0.357000, -4.496300
  0.359000, -4.833800
  0.361000, -5.157700
  0.363000, -5.469400
  0.365000, -5.768200
  0.367000, -6.053700
  0.369000, -6.325600
  0.371000, -6.581800
  0.373000, -6.825600
  0.375000, -7.056500
  0.377000, -7.272900
  0.379000, -7.474600
  0.381000, -7.661500
  0.383000, -7.835400
  0.385000, -7.996400
  0.387000, -8.143800
  0.389000, -8.277500
  0.391000, -8.397900
  0.393000, -8.505600
  0.395000, -8.600600
  0.397000, -8.683200
  0.399000, -8.753800
  0.401000, -8.812700
  0.403000, -8.860100
  0.405000, -8.896000
  0.407000, -8.920500
  0.409000, -8.935300
  0.411000, -8.940300
  0.413000, -8.935700
  0.415000, -8.922600
  0.417000, -8.900400
  0.419000, -8.869700
  0.421000, -8.832100
  0.423000, -8.786900
  0.425000, -8.735200
  0.427000, -8.679600
  0.429000, -8.618000
  0.431000, -8.550100
  0.433000, -8.478300
  0.435000, -8.402400
  0.437000, -8.323100
  0.439000, -8.241600
  0.441000, -8.157500
  0.443000, -8.070500
  0.445000, -7.981600
  0.447000, -7.891500
  0.449000, -7.800400
  0.451000, -7.708900
  0.453000, -7.617100
  0.455000, -7.525600
  0.457000, -7.433700
  0.459000, -7.342100
  0.461000, -7.251200
  0.463000, -7.161100
  0.465000, -7.071700
  0.467000, -6.983400
  0.469000, -6.895900
  0.471000, -6.809900
  0.473000, -6.724900
  0.475000, -6.640900
  0.477000, -6.558100
  0.479000, -6.476600
  0.481000, -6.396400
  0.483000, -6.317400
  0.485000, -6.239500
  0.487000, -6.162400
  0.489000, -6.086200
  0.491000, -6.011000
  0.493000, -5.937000
  0.495000, -5.864000
  0.497000, -5.791700
  0.499000, -5.720100
  0.501000, -5.649100
  0.503000, -5.578400
  0.505000, -5.508300
  0.507000, -5.438400
  0.509000, -5.368500
  0.511000, -5.298800
  0.513000, -5.229400
  0.515000, -5.160300
  0.517000, -5.091100
  0.519000, -5.021500
  0.521000, -4.951900
  0.523000, -4.882000
  0.525000, -4.812000
  0.527000, -4.741900
  0.529000, -4.671600
  0.531000, -4.601000
  0.533000, -4.530100
  0.535000, -4.458800
  0.537000, -4.387300
  0.539000, -4.315100
  0.541000, -4.242600
  0.543000, -4.169800
  0.545000, -4.096900
  0.547000, -4.023700
  0.549000, -3.950000
  0.551000, -3.876200
  0.553000, -3.802000
  0.555000, -3.727400
  0.557000, -3.652500
  0.559000, -3.577600
  0.561000, -3.502400
  0.563000, -3.426900
  0.565000, -3.351200
  0.567000, -3.275500
  0.569000, -3.199900
  0.571000, -3.124200
  0.573000, -3.048800
  0.575000, -2.973500
  0.577000, -2.898200
  0.579000, -2.823200
  0.581000, -2.748200
  0.583000, -2.673500
  0.585000, -2.599200
  0.587000, -2.525600
  0.589000, -2.452400
  0.591000, -2.379800
  0.593000, -2.307900
  0.595000, -2.236600
  0.597000, -2.165900
  0.599000, -2.096600
  0.601000, -2.028200
  0.603000, -1.960700
  0.605000, -1.894500
  0.607000, -1.829600
  0.609000, -1.766200
  0.611000, -1.704100
  0.613000, -1.643400
  0.615000, -1.584300
  0.617000, -1.526700
  0.619000, -1.470600
  0.621000, -1.416600
  0.623000, -1.364500
  0.625000, -1.314400
  0.627000, -1.266100
  0.629000, -1.219600
  0.631000, -1.175200
  0.633000, -1.132800
  0.635000, -1.092500
  0.637000, -1.054300
  0.639000, -1.018400
  0.641000, -0.984600
  0.643000, -0.953000
  0.645000, -0.923600
  0.647000, -0.896300
  0.649000, -0.871200
  0.651000, -0.848100
  0.653000, -0.827100
  0.655000, -0.808300
  0.657000, -0.791600
  0.659000, -0.777000
  0.661000, -0.764300
  0.663000, -0.753600
  0.665000, -0.744700
  0.667000, -0.737800
  0.669000, -0.732400
  0.671000, -0.728700
  0.673000, -0.726700
  0.675000, -0.726100
  0.677000, -0.727100
  0.679000, -0.729600
  0.681000, -0.733300
  0.683000, -0.738200
  0.685000, -0.744200
  0.687000, -0.751200
  0.689000, -0.759300
  0.691000, -0.768200
  0.693000, -0.777900
  0.695000, -0.788300
  0.697000, -0.799200
  0.699000, -0.810800
  0.701000, -0.822800
  0.703000, -0.835100
  0.705000, -0.847800
  0.707000, -0.860500
  0.709000, -0.873300
  0.711000, -0.886300
  0.713000, -0.899300
  0.715000, -0.912200
  0.717000, -0.924800
  0.719000, -0.937300
  0.721000, -0.949500
  0.723000, -0.961500
  0.725000, -0.973000
  0.727000, -0.984200
  0.729000, -0.995000
  0.731000, -1.005300
  0.733000, -1.014900
  0.735000, -1.024100
  0.737000, -1.032900
  0.739000, -1.041000
  0.741000, -1.048500
  0.743000, -1.055300
  0.745000, -1.061500
  0.747000, -1.067000
  0.749000, -1.071700
  0.751000, -1.075800
  0.753000, -1.079200
  0.755000, -1.082000
  0.757000, -1.084300
  0.759000, -1.085800
  0.761000, -1.086700
  0.763000, -1.087000
  0.765000, -1.086700
  0.767000, -1.085500
  0.769000, -1.084000
  0.771000, -1.081900
  0.773000, -1.079000
  0.775000, -1.075500
  0.777000, -1.071400
  0.779000, -1.066700
  0.781000, -1.061800
  0.783000, -1.056400
  0.785000, -1.050300
  0.787000, -1.043600
  0.789000, -1.036500
  0.791000, -1.029000
  0.793000, -1.021000
  0.795000, -1.012700
  0.797000, -1.004000
  0.799000, -0.994700
  0.801000, -0.985100
  0.803000, -0.975400
  0.805000, -0.965400
  0.807000, -0.955000
  0.809000, -0.944400
  0.811000, -0.933600
  0.813000, -0.922500
  0.815000, -0.911100
  0.817000, -0.899400
  0.819000, -0.887400
  0.821000, -0.875200
  0.823000, -0.862800
  0.825000, -0.850200
  0.827000, -0.837300
  0.829000, -0.824400
  0.831000, -0.811300
  0.833000, -0.798000
  0.835000, -0.784500
  0.837000, -0.770800
  0.839000, -0.757000
  0.841000, -0.743100
  0.843000, -0.729100
  0.845000, -0.715000
  0.847000, -0.700900
  0.849000, -0.686700
  0.851000, -0.672400
  0.853000, -0.658000
  0.855000, -0.643500
  0.857000, -0.629100
  0.859000, -0.614700
  0.861000, -0.600200
  0.863000, -0.585500
  0.865000, -0.570800
  0.867000, -0.556200
  0.869000, -0.541600
  0.871000, -0.527100
  0.873000, -0.512700
  0.875000, -0.498300
  0.877000, -0.484000
  0.879000, -0.469600
  0.881000, -0.455400
  0.883000, -0.441300
  0.885000, -0.427200
  0.887000, -0.413200
  0.889000, -0.399500
  0.891000, -0.385800
  0.893000, -0.372300
  0.895000, -0.359000
  0.897000, -0.345900
  0.899000, -0.332900
  0.901000, -0.320200
  0.903000, -0.307900
  0.905000, -0.295800
  0.907000, -0.283900
  0.909000, -0.272300
  0.911000, -0.261000
  0.913000, -0.249900
  0.915000, -0.239000
  0.917000, -0.228400
  0.919000, -0.218400
  0.921000, -0.208700
  0.923000, -0.199300
  0.925000, -0.190200
  0.927000, -0.181500
  0.929000, -0.173100
  0.931000, -0.165000
  0.933000, -0.157400
  0.935000, -0.150200
  0.937000, -0.143500
  0.939000, -0.137100
  0.941000, -0.131100
  0.943000, -0.125300
  0.945000, -0.120000
  0.947000, -0.115100
  0.949000, -0.110500
  0.951000, -0.106400
  0.953000, -0.102600
  0.955000, -0.099200
  0.957000, -0.096000
  0.959000, -0.093400
  0.961000, -0.091000
  0.963000, -0.088900
  0.965000, -0.087300
  0.967000, -0.086000
  0.969000, -0.085000
  0.971000, -0.084200
  0.973000, -0.083600
  0.975000, -0.083300
  0.977000, -0.083400
  0.979000, -0.083600
  0.981000, -0.084200
  0.983000, -0.085000
  0.985000, -0.085900
  0.987000, -0.087000
  0.989000, -0.088400
  0.991000, -0.089900
  0.993000, -0.091600
  0.995000, -0.093500
  0.997000, -0.095600
  0.999000, -0.097800
  1.001000, -0.100200
  1.003000, -0.102700
  1.005000, -0.105300
  1.007000, -0.107900
  1.009000, -0.110800
  1.011000, -0.113700
  1.013000, -0.116700
  1.015000, -0.119800
  1.017000, -0.122900
  1.019000, -0.126000
  1.021000, -0.129100
  1.023000, -0.132400
  1.025000, -0.135700
  1.027000, -0.139000
  1.029000, -0.142400
  1.031000, -0.145800
  1.033000, -0.149200
  1.035000, -0.152600
  1.037000, -0.156000
  1.039000, -0.159300
  1.041000, -0.162600
  1.043000, -0.165900
  1.045000, -0.169100
  1.047000, -0.172300
  1.049000, -0.175600
  1.051000, -0.178700
  1.053000, -0.181700
  1.055000, -0.184600
  1.057000, -0.187400
  1.059000, -0.190200
  1.061000, -0.192900
  1.063000, -0.195500
  1.065000, -0.197900
  1.067000, -0.200200
  1.069000, -0.202400
  1.071000, -0.204500
  1.073000, -0.206500
  1.075000, -0.208300
  1.077000, -0.210000
  1.079000, -0.211500
  1.081000, -0.212800
  1.083000, -0.213800
  1.085000, -0.214700
  1.087000, -0.215500
  1.089000, -0.216000
  1.091000, -0.216300
  1.093000, -0.216400
  1.095000, -0.216500
  1.097000, -0.216300
  1.099000, -0.216000
  1.101000, -0.215400
  1.103000, -0.214700
  1.105000, -0.213700
  1.107000, -0.212600
  1.109000, -0.211200
  1.111000, -0.209800
  1.113000, -0.208200
  1.115000, -0.206400
  1.117000, -0.204500
  1.119000, -0.202400
  1.121000, -0.200200
  1.123000, -0.197900
  1.125000, -0.195400
  1.127000, -0.192800
  1.129000, -0.190100
  1.131000, -0.187200
  1.133000, -0.184300
  1.135000, -0.181200
  1.137000, -0.178100
  1.139000, -0.174900
  1.141000, -0.171600
  1.143000, -0.168300
  1.145000, -0.164800
  1.147000, -0.161400
  1.149000, -0.157900
  1.151000, -0.154300
  1.153000, -0.150700
  1.155000, -0.147300
  1.157000, -0.143800
  1.159000, -0.140300
  1.161000, -0.136700
  1.163000, -0.133100
  1.165000, -0.129600
  1.167000, -0.126000
  1.169000, -0.122400
  1.171000, -0.118800
  1.173000, -0.115300
  1.175000, -0.111800
  1.177000, -0.108500
  1.179000, -0.105200
  1.181000, -0.101800
  1.183000, -0.098400
  1.185000, -0.095100
  1.187000, -0.091800
  1.189000, -0.088600
  1.191000, -0.085300
  1.193000, -0.082100
  1.195000, -0.078900
  1.197000, -0.075800
  1.199000, -0.072700
  1.201000, -0.069600
  1.203000, -0.066700
  1.205000, -0.063700
  1.207000, -0.060800
  1.209000, -0.058100
  1.211000, -0.055300
  1.213000, -0.052700
  1.215000, -0.050100
  1.217000, -0.047400
  1.219000, -0.044700
  1.221000, -0.042100
  1.223000, -0.039600
  1.225000, -0.037200
  1.227000, -0.034900
  1.229000, -0.032500
  1.231000, -0.030200
  1.233000, -0.027900
  1.235000, -0.025900
  1.237000, -0.023900
  1.239000, -0.021800
  1.241000, -0.019900
  1.243000, -0.017900
  1.245000, -0.016200
  1.247000, -0.014600
  1.249000, -0.013100
  1.251000, -0.011700
  1.253000, -0.010300
  1.255000, -0.009100
  1.257000, -0.008000
  1.259000, -0.007000
  1.261000, -0.006000
  1.263000, -0.005200
  1.265000, -0.004500
  1.267000, -0.003800
  1.269000, -0.003300
  1.271000, -0.002700
  1.273000, -0.002200
  1.275000, -0.001900
  1.277000, -0.001700
  1.279000, -0.001500
  1.281000, -0.001300
  1.283000, -0.001300
  1.285000, -0.001200
  1.287000, -0.001200
  1.289000, -0.001200
  1.291000, -0.001300
  1.293000, -0.001400
  1.295000, -0.001600
  1.297000, -0.001700
  1.299000, -0.001800
  1.301000, -0.001900
  1.303000, -0.002000
  1.305000, -0.002000
  1.307000, -0.002000
  1.309000, -0.002000
  1.311000, -0.001800
  1.313000, -0.001600
  1.315000, -0.001400
  1.317000, -0.001100
  1.319000, -0.000600
  1.321000, -0.000000
  1.323000,  0.000600
  1.325000,  0.001400
  1.327000,  0.002300
  1.329000,  0.003300
  1.331000,  0.004400
  1.333000,  0.005600
  1.335000,  0.006900
  1.337000,  0.008300
  1.339000,  0.009900
  1.341000,  0.011500
  1.343000,  0.013200
  1.345000,  0.014900
  1.347000,  0.016700
  1.349000,  0.018600
  1.351000,  0.020600
  1.353000,  0.022600
  1.355000,  0.024800
  1.357000,  0.027000
  1.359000,  0.029100
  1.361000,  0.031300
  1.363000,  0.033400
  1.365000,  0.035400
  1.367000,  0.037300
  1.369000,  0.039400
  1.371000,  0.041400
  1.373000,  0.043200
  1.375000,  0.044900
  1.377000,  0.046300
  1.379000,  0.047600
  1.381000,  0.048800
  1.383000,  0.049700
  1.385000,  0.050400
  1.387000,  0.050800
  1.389000,  0.050800
  1.391000,  0.050500
  1.393000,  0.049800
  1.395000,  0.048800
  1.397000,  0.047200
  1.399000,  0.045100
