# z (nm)   (kJ/mol)
  0.307000,  7.202400
  0.311000,  6.284200
  0.313000,  5.848400
  0.315000,  5.405100
  0.317000,  4.924200
  0.319000,  4.441900
  0.321000,  3.977400
  0.323000,  3.510300
  0.325000,  3.033600
  0.327000,  2.562500
  0.329000,  2.095400
  0.331000,  1.631600
  0.333000,  1.168400
  0.335000,  0.714900
  0.337000,  0.271900
  0.339000, -0.173200
  0.341000, -0.614500
  0.343000, -1.043000
  0.345000, -1.459900
  0.347000, -1.869600
  0.349000, -2.271200
  0.351000, -2.661500
  0.353000, -3.041700
  0.355000, -3.412100
  0.357000, -3.772500
  0.359000, -4.120300
  0.361000, -4.454600
  0.363000, -4.776400
  0.365000, -5.085600
  0.367000, -5.382600
  0.369000, -5.666300
  0.371000, -5.936900
  0.373000, -6.192800
  0.375000, -6.435200
  0.377000, -6.665100
  0.379000, -6.880100
  0.381000, -7.081600
  0.383000, -7.269600
  0.385000, -7.443400
  0.387000, -7.603900
  0.389000, -7.751100
  0.391000, -7.885600
  0.393000, -8.006800
  0.395000, -8.114200
  0.397000, -8.209000
  0.399000, -8.291200
  0.401000, -8.361100
  0.403000, -8.419200
  0.405000, -8.465800
  0.407000, -8.501500
  0.409000, -8.526200
  0.411000, -8.539600
  0.413000, -8.543300
  0.415000, -8.538100
  0.417000, -8.524200
  0.419000, -8.500900
  0.421000, -8.468900
  0.423000, -8.429500
  0.425000, -8.383000
  0.427000, -8.330500
  0.429000, -8.272600
  0.431000, -8.209400
  0.433000, -8.140700
  0.435000, -8.067800
  0.437000, -7.991300
  0.439000, -7.909900
  0.441000, -7.825600
  0.443000, -7.740000
  0.445000, -7.651900
  0.447000, -7.562100
  0.449000, -7.470800
  0.451000, -7.378400
  0.453000, -7.286200
  0.455000, -7.193900
  0.457000, -7.101600
  0.459000, -7.009800
  0.461000, -6.918500
  0.463000, -6.827800
  0.465000, -6.737800
  0.467000, -6.649200
  0.469000, -6.561500
  0.471000, -6.475200
  0.473000, -6.390400
  0.475000, -6.307000
  0.477000, -6.225300
  0.479000, -6.145000
  0.481000, -6.066400
  0.483000, -5.989700
  0.485000, -5.914500
  0.487000, -5.840600
  0.489000, -5.768200
  0.491000, -5.697000
  0.493000, -5.627100
  0.495000, -5.558600
  0.497000, -5.491200
  0.499000, -5.425000
  0.501000, -5.359600
  0.503000, -5.294800
  0.505000, -5.230700
  0.507000, -5.167100
  0.509000, -5.104000
  0.511000, -5.041100
  0.513000, -4.978300
  0.515000, -4.915800
  0.517000, -4.853300
  0.519000, -4.790900
  0.521000, -4.728100
  0.523000, -4.665100
  0.525000, -4.601700
  0.527000, -4.537700
  0.529000, -4.473200
  0.531000, -4.408000
  0.533000, -4.342100
  0.535000, -4.275500
  0.537000, -4.208000
  0.539000, -4.139600
  0.541000, -4.070300
  0.543000, -4.000200
  0.545000, -3.929400
  0.547000, -3.857600
  0.549000, -3.784800
  0.551000, -3.711100
  0.553000, -3.636400
  0.555000, -3.560900
  0.557000, -3.484800
  0.559000, -3.408100
  0.561000, -3.330500
  0.563000, -3.252000
  0.565000, -3.172400
  0.567000, -3.092300
  0.569000, -3.011600
  0.571000, -2.930700
  0.573000, -2.849200
  0.575000, -2.767500
  0.577000, -2.685600
  0.579000, -2.603600
  0.581000, -2.521700
  0.583000, -2.439800
  0.585000, -2.357700
  0.587000, -2.275500
  0.589000, -2.194200
  0.591000, -2.113800
  0.593000, -2.033700
  0.595000, -1.954400
  0.597000, -1.875900
  0.599000, -1.798100
  0.601000, -1.721300
  0.603000, -1.645900
  0.605000, -1.571500
  0.607000, -1.498600
  0.609000, -1.427800
  0.611000, -1.358200
  0.613000, -1.290300
  0.615000, -1.224500
  0.617000, -1.160400
  0.619000, -1.098400
  0.621000, -1.038500
  0.623000, -0.980700
  0.625000, -0.925300
  0.627000, -0.871700
  0.629000, -0.820600
  0.631000, -0.772000
  0.633000, -0.725900
  0.635000, -0.682400
  0.637000, -0.641200
  0.639000, -0.602600
  0.641000, -0.566900
  0.643000, -0.533500
  0.645000, -0.502500
  0.647000, -0.474200
  0.649000, -0.448500
  0.651000, -0.425200
  0.653000, -0.404300
  0.655000, -0.385900
  0.657000, -0.369800
  0.659000, -0.356100
  0.661000, -0.344800
  0.663000, -0.335700
  0.665000, -0.328600
  0.667000, -0.323700
  0.669000, -0.320900
  0.671000, -0.320000
  0.673000, -0.321200
  0.675000, -0.324200
  0.677000, -0.328800
  0.679000, -0.334900
  0.681000, -0.342500
  0.683000, -0.351700
  0.685000, -0.362400
  0.687000, -0.374400
  0.689000, -0.387300
  0.691000, -0.401500
  0.693000, -0.416500
  0.695000, -0.432300
  0.697000, -0.449100
  0.699000, -0.466300
  0.701000, -0.484100
  0.703000, -0.502600
  0.705000, -0.521400
  0.707000, -0.540700
  0.709000, -0.560300
  0.711000, -0.580000
  0.713000, -0.599800
  0.715000, -0.619600
  0.717000, -0.639500
  0.719000, -0.659300
  0.721000, -0.678800
  0.723000, -0.698100
  0.725000, -0.717100
  0.727000, -0.736000
  0.729000, -0.754500
  0.731000, -0.772600
  0.733000, -0.789900
  0.735000, -0.806800
  0.737000, -0.823500
  0.739000, -0.839700
  0.741000, -0.855100
  0.743000, -0.870000
  0.745000, -0.884400
  0.747000, -0.898200
  0.749000, -0.911400
  0.751000, -0.923700
  0.753000, -0.935300
  0.755000, -0.946200
  0.757000, -0.956400
  0.759000, -0.966100
  0.761000, -0.975000
  0.763000, -0.983300
  0.765000, -0.990900
  0.767000, -0.997700
  0.769000, -1.003700
  0.771000, -1.008900
  0.773000, -1.013700
  0.775000, -1.017700
  0.777000, -1.020900
  0.779000, -1.023700
  0.781000, -1.025400
  0.783000, -1.026400
  0.785000, -1.027100
  0.787000, -1.027100
  0.789000, -1.026500
  0.791000, -1.025200
  0.793000, -1.023400
  0.795000, -1.020900
  0.797000, -1.017600
  0.799000, -1.013600
  0.801000, -1.008800
  0.803000, -1.003700
  0.805000, -0.997800
  0.807000, -0.991200
  0.809000, -0.984200
  0.811000, -0.976500
  0.813000, -0.968000
  0.815000, -0.958900
  0.817000, -0.949600
  0.819000, -0.939800
  0.821000, -0.929100
  0.823000, -0.917800
  0.825000, -0.906100
  0.827000, -0.893700
  0.829000, -0.880700
  0.831000, -0.867300
  0.833000, -0.853500
  0.835000, -0.839200
  0.837000, -0.824300
  0.839000, -0.808900
  0.841000, -0.792900
  0.843000, -0.776500
  0.845000, -0.759800
  0.847000, -0.742700
  0.849000, -0.725200
  0.851000, -0.707400
  0.853000, -0.689400
  0.855000, -0.671000
  0.857000, -0.652400
  0.859000, -0.633500
  0.861000, -0.614200
  0.863000, -0.594700
  0.865000, -0.575000
  0.867000, -0.555200
  0.869000, -0.535200
  0.871000, -0.515000
  0.873000, -0.495100
  0.875000, -0.475200
  0.877000, -0.455300
  0.879000, -0.435400
  0.881000, -0.415800
  0.883000, -0.396100
  0.885000, -0.376700
  0.887000, -0.357400
  0.889000, -0.338500
  0.891000, -0.319700
  0.893000, -0.301200
  0.895000, -0.283000
  0.897000, -0.265100
  0.899000, -0.247500
  0.901000, -0.230300
  0.903000, -0.213400
  0.905000, -0.197000
  0.907000, -0.180900
  0.909000, -0.165300
  0.911000, -0.150200
  0.913000, -0.135500
  0.915000, -0.121400
  0.917000, -0.107800
  0.919000, -0.094600
  0.921000, -0.081900
  0.923000, -0.069800
  0.925000, -0.058200
  0.927000, -0.047100
  0.929000, -0.036600
  0.931000, -0.026700
  0.933000, -0.017400
  0.935000, -0.008500
  0.937000, -0.000200
  0.939000,  0.007600
  0.941000,  0.014900
  0.943000,  0.021600
  0.945000,  0.027900
  0.947000,  0.033500
  0.949000,  0.038700
  0.951000,  0.043300
  0.953000,  0.047600
  0.955000,  0.051200
  0.957000,  0.054300
  0.959000,  0.057000
  0.961000,  0.059300
  0.963000,  0.061100
  0.965000,  0.062400
  0.967000,  0.063200
  0.969000,  0.063700
  0.971000,  0.063800
  0.973000,  0.063400
  0.975000,  0.062800
  0.977000,  0.061600
  0.979000,  0.060200
  0.981000,  0.058400
  0.983000,  0.056300
  0.985000,  0.053900
  0.987000,  0.051200
  0.989000,  0.048300
  0.991000,  0.045000
  0.993000,  0.041600
  0.995000,  0.037900
  0.997000,  0.034000
  0.999000,  0.029700
  1.001000,  0.025300
  1.003000,  0.020900
  1.005000,  0.016300
  1.007000,  0.011500
  1.009000,  0.006500
  1.011000,  0.001400
  1.013000, -0.003600
  1.015000, -0.008700
  1.017000, -0.013800
  1.019000, -0.019000
  1.021000, -0.024100
  1.023000, -0.029300
  1.025000, -0.034500
  1.027000, -0.039600
  1.029000, -0.044700
  1.031000, -0.049800
  1.033000, -0.054900
  1.035000, -0.059900
  1.037000, -0.064800
  1.039000, -0.069700
  1.041000, -0.074500
  1.043000, -0.079200
  1.045000, -0.083800
  1.047000, -0.088200
  1.049000, -0.092700
  1.051000, -0.097000
  1.053000, -0.101100
  1.055000, -0.105200
  1.057000, -0.109100
  1.059000, -0.112900
  1.061000, -0.116600
  1.063000, -0.120100
  1.065000, -0.123500
  1.067000, -0.126900
  1.069000, -0.130000
  1.071000, -0.133000
  1.073000, -0.136000
  1.075000, -0.138800
  1.077000, -0.141600
  1.079000, -0.144300
  1.081000, -0.146800
  1.083000, -0.149300
  1.085000, -0.151600
  1.087000, -0.153800
  1.089000, -0.156000
  1.091000, -0.157900
  1.093000, -0.159700
  1.095000, -0.161500
  1.097000, -0.163200
  1.099000, -0.164700
  1.101000, -0.166200
  1.103000, -0.167400
  1.105000, -0.168600
  1.107000, -0.169800
  1.109000, -0.170900
  1.111000, -0.171800
  1.113000, -0.172600
  1.115000, -0.173100
  1.117000, -0.173600
  1.119000, -0.174000
  1.121000, -0.174200
  1.123000, -0.174300
  1.125000, -0.174100
  1.127000, -0.173900
  1.129000, -0.173400
  1.131000, -0.172800
  1.133000, -0.172100
  1.135000, -0.171300
  1.137000, -0.170300
  1.139000, -0.169200
  1.141000, -0.167900
  1.143000, -0.166400
  1.145000, -0.164800
  1.147000, -0.163000
  1.149000, -0.160900
  1.151000, -0.158600
  1.153000, -0.156200
  1.155000, -0.153700
  1.157000, -0.151000
  1.159000, -0.148100
  1.161000, -0.145100
  1.163000, -0.141800
  1.165000, -0.138400
  1.167000, -0.134800
  1.169000, -0.131100
  1.171000, -0.127300
  1.173000, -0.123400
  1.175000, -0.119400
  1.177000, -0.115200
  1.179000, -0.110900
  1.181000, -0.106500
  1.183000, -0.102000
  1.185000, -0.097500
  1.187000, -0.092800
  1.189000, -0.088100
  1.191000, -0.083400
  1.193000, -0.078600
  1.195000, -0.073800
  1.197000, -0.068900
  1.199000, -0.064200
  1.201000, -0.059500
  1.203000, -0.054800
  1.205000, -0.050100
  1.207000, -0.045400
  1.209000, -0.040800
  1.211000, -0.036300
  1.213000, -0.031800
  1.215000, -0.027400
  1.217000, -0.023200
  1.219000, -0.019000
  1.221000, -0.015000
  1.223000, -0.011100
  1.225000, -0.007400
  1.227000, -0.003800
  1.229000, -0.000500
  1.231000,  0.002700
  1.233000,  0.005800
  1.235000,  0.008700
  1.237000,  0.011400
  1.239000,  0.013900
  1.241000,  0.016300
  1.243000,  0.018500
  1.245000,  0.020400
  1.247000,  0.022100
  1.249000,  0.023700
  1.251000,  0.025200
  1.253000,  0.026300
  1.255000,  0.027300
  1.257000,  0.028100
  1.259000,  0.028600
  1.261000,  0.029000
  1.263000,  0.029300
  1.265000,  0.029300
  1.267000,  0.029200
  1.269000,  0.028800
  1.271000,  0.028300
  1.273000,  0.027600
  1.275000,  0.026700
  1.277000,  0.025700
  1.279000,  0.024500
  1.281000,  0.023300
  1.283000,  0.021800
  1.285000,  0.020300
  1.287000,  0.018700
  1.289000,  0.017000
  1.291000,  0.015100
  1.293000,  0.013300
  1.295000,  0.011400
  1.297000,  0.009300
  1.299000,  0.007300
  1.301000,  0.005400
  1.303000,  0.003400
  1.305000,  0.001500
  1.307000, -0.000400
  1.309000, -0.002400
  1.311000, -0.004200
  1.313000, -0.006000
  1.315000, -0.007800
  1.317000, -0.009400
  1.319000, -0.010900
  1.321000, -0.012300
  1.323000, -0.013500
  1.325000, -0.014700
  1.327000, -0.015700
  1.329000, -0.016500
  1.331000, -0.017300
  1.333000, -0.017900
  1.335000, -0.018300
  1.337000, -0.018500
  1.339000, -0.018600
  1.341000, -0.018500
  1.343000, -0.018400
  1.345000, -0.018000
  1.347000, -0.017500
  1.349000, -0.016900
  1.351000, -0.016200
  1.353000, -0.015200
  1.355000, -0.013900
  1.357000, -0.012600
  1.359000, -0.011100
  1.361000, -0.009700
  1.363000, -0.008100
  1.365000, -0.006400
  1.367000, -0.004600
  1.369000, -0.002900
  1.371000, -0.001200
  1.373000,  0.000600
  1.375000,  0.002400
  1.377000,  0.004100
  1.379000,  0.005700
  1.381000,  0.007300
  1.383000,  0.008800
  1.385000,  0.010200
  1.387000,  0.011500
  1.389000,  0.012700
  1.391000,  0.013600
  1.393000,  0.014200
  1.395000,  0.014500
  1.397000,  0.014500
  1.399000,  0.014100
