# z (nm)   (kJ/mol)
  0.309000,  7.243700
  0.313000,  6.311600
  0.315000,  5.874700
  0.317000,  5.410300
  0.319000,  4.938300
  0.321000,  4.471600
  0.323000,  3.994600
  0.325000,  3.508700
  0.327000,  3.027000
  0.329000,  2.540900
  0.331000,  2.053600
  0.333000,  1.573100
  0.335000,  1.091100
  0.337000,  0.613300
  0.339000,  0.144100
  0.341000, -0.322500
  0.343000, -0.782300
  0.345000, -1.232800
  0.347000, -1.672600
  0.349000, -2.103000
  0.351000, -2.523900
  0.353000, -2.932600
  0.355000, -3.332000
  0.357000, -3.716300
  0.359000, -4.086900
  0.361000, -4.445000
  0.363000, -4.789700
  0.365000, -5.118700
  0.367000, -5.432200
  0.369000, -5.729700
  0.371000, -6.009500
  0.373000, -6.274500
  0.375000, -6.524800
  0.377000, -6.759500
  0.379000, -6.978200
  0.381000, -7.179700
  0.383000, -7.364300
  0.385000, -7.531900
  0.387000, -7.683000
  0.389000, -7.819600
  0.391000, -7.940500
  0.393000, -8.044700
  0.395000, -8.133800
  0.397000, -8.208100
  0.399000, -8.267300
  0.401000, -8.311600
  0.403000, -8.341400
  0.405000, -8.357200
  0.407000, -8.359800
  0.409000, -8.349300
  0.411000, -8.326200
  0.413000, -8.290900
  0.415000, -8.244400
  0.417000, -8.187100
  0.419000, -8.119200
  0.421000, -8.043000
  0.423000, -7.957200
  0.425000, -7.861300
  0.427000, -7.757200
  0.429000, -7.646000
  0.431000, -7.529300
  0.433000, -7.407800
  0.435000, -7.281700
  0.437000, -7.151400
  0.439000, -7.018400
  0.441000, -6.882500
  0.443000, -6.743900
  0.445000, -6.604100
  0.447000, -6.462300
  0.449000, -6.319600
  0.451000, -6.177300
  0.453000, -6.035800
  0.455000, -5.894900
  0.457000, -5.754500
  0.459000, -5.615900
  0.461000, -5.480100
  0.463000, -5.346400
  0.465000, -5.215400
  0.467000, -5.087400
  0.469000, -4.962300
  0.471000, -4.840400
  0.473000, -4.721600
  0.475000, -4.606300
  0.477000, -4.494800
  0.479000, -4.387100
  0.481000, -4.282700
  0.483000, -4.181800
  0.485000, -4.084400
  0.487000, -3.990700
  0.489000, -3.900500
  0.491000, -3.813700
  0.493000, -3.730200
  0.495000, -3.650100
  0.497000, -3.573000
  0.499000, -3.498800
  0.501000, -3.427200
  0.503000, -3.358200
  0.505000, -3.291800
  0.507000, -3.227800
  0.509000, -3.165700
  0.511000, -3.105400
  0.513000, -3.047100
  0.515000, -2.990500
  0.517000, -2.935500
  0.519000, -2.881800
  0.521000, -2.829300
  0.523000, -2.777800
  0.525000, -2.727300
  0.527000, -2.677700
  0.529000, -2.628900
  0.531000, -2.581000
  0.533000, -2.533700
  0.535000, -2.486700
  0.537000, -2.440100
  0.539000, -2.393700
  0.541000, -2.347300
  0.543000, -2.301200
  0.545000, -2.255400
  0.547000, -2.209600
  0.549000, -2.163900
  0.551000, -2.118100
  0.553000, -2.072500
  0.555000, -2.026800
  0.557000, -1.980800
  0.559000, -1.934800
  0.561000, -1.888700
  0.563000, -1.842600
  0.565000, -1.796400
  0.567000, -1.750500
  0.569000, -1.704700
  0.571000, -1.658900
  0.573000, -1.613100
  0.575000, -1.567600
  0.577000, -1.522700
  0.579000, -1.477700
  0.581000, -1.432900
  0.583000, -1.388600
  0.585000, -1.344500
  0.587000, -1.301100
  0.589000, -1.258000
  0.591000, -1.215200
  0.593000, -1.173400
  0.595000, -1.132800
  0.597000, -1.093000
  0.599000, -1.053800
  0.601000, -1.015700
  0.603000, -0.978900
  0.605000, -0.943700
  0.607000, -0.909900
  0.609000, -0.877000
  0.611000, -0.845800
  0.613000, -0.816300
  0.615000, -0.788300
  0.617000, -0.761500
  0.619000, -0.736500
  0.621000, -0.713400
  0.623000, -0.692000
  0.625000, -0.672500
  0.627000, -0.654600
  0.629000, -0.638500
  0.631000, -0.624500
  0.633000, -0.612100
  0.635000, -0.601900
  0.637000, -0.593800
  0.639000, -0.587500
  0.641000, -0.583200
  0.643000, -0.580800
  0.645000, -0.580400
  0.647000, -0.581800
  0.649000, -0.585000
  0.651000, -0.590200
  0.653000, -0.597000
  0.655000, -0.605700
  0.657000, -0.615900
  0.659000, -0.627500
  0.661000, -0.641100
  0.663000, -0.656000
  0.665000, -0.671900
  0.667000, -0.689200
  0.669000, -0.708000
  0.671000, -0.727500
  0.673000, -0.748100
  0.675000, -0.769700
  0.677000, -0.792200
  0.679000, -0.815100
  0.681000, -0.838500
  0.683000, -0.862300
  0.685000, -0.886300
  0.687000, -0.910700
  0.689000, -0.935700
  0.691000, -0.960900
  0.693000, -0.986000
  0.695000, -1.011000
  0.697000, -1.035600
  0.699000, -1.059900
  0.701000, -1.083800
  0.703000, -1.107400
  0.705000, -1.130500
  0.707000, -1.153000
  0.709000, -1.174900
  0.711000, -1.196100
  0.713000, -1.216600
  0.715000, -1.236200
  0.717000, -1.254800
  0.719000, -1.272600
  0.721000, -1.289400
  0.723000, -1.305200
  0.725000, -1.319900
  0.727000, -1.333700
  0.729000, -1.346300
  0.731000, -1.357800
  0.733000, -1.368100
  0.735000, -1.377300
  0.737000, -1.385300
  0.739000, -1.392100
  0.741000, -1.397600
  0.743000, -1.402000
  0.745000, -1.405300
  0.747000, -1.407400
  0.749000, -1.408300
  0.751000, -1.408100
  0.753000, -1.406800
  0.755000, -1.404500
  0.757000, -1.400900
  0.759000, -1.396300
  0.761000, -1.390700
  0.763000, -1.384100
  0.765000, -1.376500
  0.767000, -1.368000
  0.769000, -1.358700
  0.771000, -1.348400
  0.773000, -1.337400
  0.775000, -1.325700
  0.777000, -1.313100
  0.779000, -1.299700
  0.781000, -1.285800
  0.783000, -1.271300
  0.785000, -1.256200
  0.787000, -1.240400
  0.789000, -1.224200
  0.791000, -1.207500
  0.793000, -1.190300
  0.795000, -1.172600
  0.797000, -1.154500
  0.799000, -1.136000
  0.801000, -1.117400
  0.803000, -1.098600
  0.805000, -1.079500
  0.807000, -1.060200
  0.809000, -1.040800
  0.811000, -1.021200
  0.813000, -1.001600
  0.815000, -0.981800
  0.817000, -0.961900
  0.819000, -0.942200
  0.821000, -0.922300
  0.823000, -0.902300
  0.825000, -0.882500
  0.827000, -0.862700
  0.829000, -0.842900
  0.831000, -0.823200
  0.833000, -0.803500
  0.835000, -0.784000
  0.837000, -0.764600
  0.839000, -0.745300
  0.841000, -0.726100
  0.843000, -0.706900
  0.845000, -0.688000
  0.847000, -0.669200
  0.849000, -0.650500
  0.851000, -0.631900
  0.853000, -0.613600
  0.855000, -0.595500
  0.857000, -0.577500
  0.859000, -0.559700
  0.861000, -0.542100
  0.863000, -0.524800
  0.865000, -0.507600
  0.867000, -0.490500
  0.869000, -0.473700
  0.871000, -0.457100
  0.873000, -0.440700
  0.875000, -0.424500
  0.877000, -0.408600
  0.879000, -0.392900
  0.881000, -0.377600
  0.883000, -0.362400
  0.885000, -0.347500
  0.887000, -0.332900
  0.889000, -0.318600
  0.891000, -0.304600
  0.893000, -0.291000
  0.895000, -0.277700
  0.897000, -0.264600
  0.899000, -0.251900
  0.901000, -0.239600
  0.903000, -0.227500
  0.905000, -0.215900
  0.907000, -0.204600
  0.909000, -0.193700
  0.911000, -0.183200
  0.913000, -0.173200
  0.915000, -0.163600
  0.917000, -0.154400
  0.919000, -0.145700
  0.921000, -0.137400
  0.923000, -0.129500
  0.925000, -0.122100
  0.927000, -0.115200
  0.929000, -0.108700
  0.931000, -0.102800
  0.933000, -0.097300
  0.935000, -0.092300
  0.937000, -0.087800
  0.939000, -0.083700
  0.941000, -0.080100
  0.943000, -0.077000
  0.945000, -0.074500
  0.947000, -0.072400
  0.949000, -0.070700
  0.951000, -0.069400
  0.953000, -0.068500
  0.955000, -0.068200
  0.957000, -0.068200
  0.959000, -0.068700
  0.961000, -0.069500
  0.963000, -0.070700
  0.965000, -0.072500
  0.967000, -0.074500
  0.969000, -0.076800
  0.971000, -0.079400
  0.973000, -0.082100
  0.975000, -0.085300
  0.977000, -0.088700
  0.979000, -0.092300
  0.981000, -0.096100
  0.983000, -0.100100
  0.985000, -0.104300
  0.987000, -0.108600
  0.989000, -0.113000
  0.991000, -0.117500
  0.993000, -0.122000
  0.995000, -0.126600
  0.997000, -0.131200
  0.999000, -0.135800
  1.001000, -0.140400
  1.003000, -0.145000
  1.005000, -0.149400
  1.007000, -0.153700
  1.009000, -0.158000
  1.011000, -0.162200
  1.013000, -0.166200
  1.015000, -0.170200
  1.017000, -0.174000
  1.019000, -0.177400
  1.021000, -0.180800
  1.023000, -0.184000
  1.025000, -0.187100
  1.027000, -0.189900
  1.029000, -0.192500
  1.031000, -0.195000
  1.033000, -0.196900
  1.035000, -0.198700
  1.037000, -0.200200
  1.039000, -0.201500
  1.041000, -0.202500
  1.043000, -0.203300
  1.045000, -0.204000
  1.047000, -0.204300
  1.049000, -0.204300
  1.051000, -0.204100
  1.053000, -0.203700
  1.055000, -0.203200
  1.057000, -0.202400
  1.059000, -0.201500
  1.061000, -0.200500
  1.063000, -0.199200
  1.065000, -0.197900
  1.067000, -0.196500
  1.069000, -0.195000
  1.071000, -0.193400
  1.073000, -0.191600
  1.075000, -0.189800
  1.077000, -0.188100
  1.079000, -0.186300
  1.081000, -0.184400
  1.083000, -0.182500
  1.085000, -0.180600
  1.087000, -0.178800
  1.089000, -0.176900
  1.091000, -0.174900
  1.093000, -0.172900
  1.095000, -0.171300
  1.097000, -0.169600
  1.099000, -0.167900
  1.101000, -0.166200
  1.103000, -0.164600
  1.105000, -0.163200
  1.107000, -0.161800
  1.109000, -0.160400
  1.111000, -0.159000
  1.113000, -0.157600
  1.115000, -0.156200
  1.117000, -0.155000
  1.119000, -0.153900
  1.121000, -0.152900
  1.123000, -0.151900
  1.125000, -0.150900
  1.127000, -0.150000
  1.129000, -0.149100
  1.131000, -0.148100
  1.133000, -0.147200
  1.135000, -0.146300
  1.137000, -0.145300
  1.139000, -0.144300
  1.141000, -0.143300
  1.143000, -0.142400
  1.145000, -0.141400
  1.147000, -0.140400
  1.149000, -0.139200
  1.151000, -0.138000
  1.153000, -0.136800
  1.155000, -0.135600
  1.157000, -0.134300
  1.159000, -0.133000
  1.161000, -0.131600
  1.163000, -0.130100
  1.165000, -0.128600
  1.167000, -0.127000
  1.169000, -0.125200
  1.171000, -0.123500
  1.173000, -0.121800
  1.175000, -0.120000
  1.177000, -0.118100
  1.179000, -0.116200
  1.181000, -0.114300
  1.183000, -0.112300
  1.185000, -0.110200
  1.187000, -0.108200
  1.189000, -0.106100
  1.191000, -0.104000
  1.193000, -0.101800
  1.195000, -0.099600
  1.197000, -0.097500
  1.199000, -0.095300
  1.201000, -0.093200
  1.203000, -0.091100
  1.205000, -0.088900
  1.207000, -0.086700
  1.209000, -0.084500
  1.211000, -0.082300
  1.213000, -0.080000
  1.215000, -0.077900
  1.217000, -0.075800
  1.219000, -0.073700
  1.221000, -0.071600
  1.223000, -0.069400
  1.225000, -0.067300
  1.227000, -0.065100
  1.229000, -0.063000
  1.231000, -0.060900
  1.233000, -0.058700
  1.235000, -0.056500
  1.237000, -0.054400
  1.239000, -0.052300
  1.241000, -0.050200
  1.243000, -0.048100
  1.245000, -0.046000
  1.247000, -0.043900
  1.249000, -0.041800
  1.251000, -0.039700
  1.253000, -0.037700
  1.255000, -0.035700
  1.257000, -0.033800
  1.259000, -0.031800
  1.261000, -0.029800
  1.263000, -0.027800
  1.265000, -0.025900
  1.267000, -0.024000
  1.269000, -0.022000
  1.271000, -0.020000
  1.273000, -0.018100
  1.275000, -0.016200
  1.277000, -0.014400
  1.279000, -0.012600
  1.281000, -0.010900
  1.283000, -0.009200
  1.285000, -0.007500
  1.287000, -0.005800
  1.289000, -0.004200
  1.291000, -0.002700
  1.293000, -0.001100
  1.295000,  0.000400
  1.297000,  0.001800
  1.299000,  0.003300
  1.301000,  0.004600
  1.303000,  0.005900
  1.305000,  0.007200
  1.307000,  0.008500
  1.309000,  0.009800
  1.311000,  0.011000
  1.313000,  0.012200
  1.315000,  0.013500
  1.317000,  0.014800
  1.319000,  0.016000
  1.321000,  0.017300
  1.323000,  0.018600
  1.325000,  0.019900
  1.327000,  0.021200
  1.329000,  0.022700
  1.331000,  0.024300
  1.333000,  0.025800
  1.335000,  0.027400
  1.337000,  0.029000
  1.339000,  0.030700
  1.341000,  0.032500
  1.343000,  0.034300
  1.345000,  0.036200
  1.347000,  0.038100
  1.349000,  0.040100
  1.351000,  0.042200
  1.353000,  0.044300
  1.355000,  0.046600
  1.357000,  0.048700
  1.359000,  0.050900
  1.361000,  0.053100
  1.363000,  0.055300
  1.365000,  0.057600
  1.367000,  0.059800
  1.369000,  0.062000
  1.371000,  0.064300
  1.373000,  0.066500
  1.375000,  0.068700
  1.377000,  0.070900
  1.379000,  0.073100
  1.381000,  0.075000
  1.383000,  0.076900
  1.385000,  0.078700
  1.387000,  0.080300
  1.389000,  0.081700
  1.391000,  0.082800
  1.393000,  0.083700
  1.395000,  0.084300
  1.397000,  0.084400
  1.399000,  0.084100
