# z (nm)   (kJ/mol)
  0.317000,  9.898400
  0.319000,  9.600700
  0.321000,  9.247500
  0.323000,  8.854600
  0.325000,  8.465200
  0.327000,  8.086100
  0.329000,  7.705400
  0.331000,  7.323000
  0.333000,  6.927800
  0.335000,  6.515800
  0.337000,  6.097800
  0.339000,  5.686300
  0.341000,  5.274400
  0.343000,  4.859800
  0.345000,  4.440500
  0.347000,  4.023100
  0.349000,  3.609100
  0.351000,  3.193400
  0.353000,  2.773200
  0.355000,  2.354200
  0.357000,  1.940600
  0.359000,  1.531100
  0.361000,  1.128500
  0.363000,  0.729600
  0.365000,  0.332600
  0.367000, -0.059000
  0.369000, -0.445800
  0.371000, -0.830400
  0.373000, -1.206500
  0.375000, -1.574600
  0.377000, -1.938900
  0.379000, -2.296300
  0.381000, -2.647800
  0.383000, -2.992100
  0.385000, -3.326900
  0.387000, -3.654200
  0.389000, -3.975400
  0.391000, -4.288400
  0.393000, -4.591900
  0.395000, -4.886200
  0.397000, -5.170600
  0.399000, -5.446200
  0.401000, -5.711200
  0.403000, -5.965600
  0.405000, -6.209600
  0.407000, -6.443300
  0.409000, -6.667300
  0.411000, -6.880200
  0.413000, -7.082200
  0.415000, -7.273500
  0.417000, -7.453600
  0.419000, -7.622500
  0.421000, -7.779600
  0.423000, -7.925600
  0.425000, -8.060500
  0.427000, -8.184300
  0.429000, -8.297000
  0.431000, -8.398900
  0.433000, -8.489300
  0.435000, -8.568500
  0.437000, -8.637300
  0.439000, -8.695200
  0.441000, -8.742900
  0.443000, -8.781100
  0.445000, -8.808500
  0.447000, -8.825600
  0.449000, -8.832600
  0.451000, -8.830400
  0.453000, -8.819700
  0.455000, -8.800000
  0.457000, -8.771400
  0.459000, -8.734200
  0.461000, -8.689000
  0.463000, -8.635700
  0.465000, -8.575700
  0.467000, -8.509200
  0.469000, -8.435700
  0.471000, -8.355600
  0.473000, -8.269400
  0.475000, -8.177700
  0.477000, -8.080900
  0.479000, -7.979300
  0.481000, -7.873200
  0.483000, -7.762800
  0.485000, -7.647900
  0.487000, -7.529100
  0.489000, -7.406600
  0.491000, -7.280800
  0.493000, -7.152300
  0.495000, -7.020800
  0.497000, -6.886900
  0.499000, -6.750600
  0.501000, -6.612200
  0.503000, -6.472000
  0.505000, -6.330400
  0.507000, -6.187500
  0.509000, -6.043500
  0.511000, -5.898400
  0.513000, -5.752200
  0.515000, -5.605100
  0.517000, -5.457600
  0.519000, -5.309800
  0.521000, -5.161600
  0.523000, -5.013200
  0.525000, -4.864800
  0.527000, -4.716500
  0.529000, -4.568300
  0.531000, -4.420400
  0.533000, -4.273000
  0.535000, -4.126300
  0.537000, -3.980000
  0.539000, -3.834500
  0.541000, -3.689900
  0.543000, -3.546100
  0.545000, -3.403400
  0.547000, -3.261500
  0.549000, -3.120600
  0.551000, -2.980900
  0.553000, -2.842500
  0.555000, -2.705800
  0.557000, -2.570500
  0.559000, -2.436700
  0.561000, -2.304600
  0.563000, -2.174300
  0.565000, -2.045300
  0.567000, -1.918100
  0.569000, -1.793000
  0.571000, -1.670000
  0.573000, -1.549100
  0.575000, -1.430100
  0.577000, -1.313000
  0.579000, -1.198300
  0.581000, -1.086000
  0.583000, -0.975700
  0.585000, -0.868000
  0.587000, -0.763100
  0.589000, -0.660400
  0.591000, -0.560200
  0.593000, -0.463200
  0.595000, -0.369500
  0.597000, -0.278700
  0.599000, -0.190700
  0.601000, -0.105500
  0.603000, -0.023400
  0.605000,  0.055500
  0.607000,  0.130800
  0.609000,  0.202800
  0.611000,  0.272100
  0.613000,  0.338100
  0.615000,  0.400500
  0.617000,  0.459300
  0.619000,  0.514800
  0.621000,  0.566800
  0.623000,  0.615400
  0.625000,  0.660300
  0.627000,  0.701700
  0.629000,  0.739600
  0.631000,  0.774000
  0.633000,  0.804600
  0.635000,  0.831800
  0.637000,  0.855500
  0.639000,  0.875800
  0.641000,  0.892600
  0.643000,  0.906000
  0.645000,  0.916000
  0.647000,  0.922800
  0.649000,  0.926200
  0.651000,  0.926400
  0.653000,  0.923300
  0.655000,  0.917300
  0.657000,  0.908400
  0.659000,  0.896500
  0.661000,  0.881900
  0.663000,  0.864900
  0.665000,  0.845400
  0.667000,  0.823100
  0.669000,  0.798500
  0.671000,  0.771700
  0.673000,  0.742900
  0.675000,  0.711700
  0.677000,  0.678300
  0.679000,  0.643300
  0.681000,  0.606500
  0.683000,  0.568200
  0.685000,  0.528400
  0.687000,  0.487200
  0.689000,  0.445100
  0.691000,  0.401300
  0.693000,  0.356400
  0.695000,  0.311200
  0.697000,  0.265700
  0.699000,  0.219300
  0.701000,  0.171800
  0.703000,  0.124100
  0.705000,  0.076600
  0.707000,  0.028800
  0.709000, -0.019200
  0.711000, -0.067100
  0.713000, -0.114600
  0.715000, -0.161700
  0.717000, -0.208400
  0.719000, -0.254800
  0.721000, -0.300600
  0.723000, -0.345600
  0.725000, -0.390200
  0.727000, -0.434100
  0.729000, -0.476600
  0.731000, -0.517800
  0.733000, -0.558200
  0.735000, -0.597500
  0.737000, -0.635300
  0.739000, -0.671700
  0.741000, -0.706800
  0.743000, -0.740700
  0.745000, -0.773300
  0.747000, -0.804600
  0.749000, -0.834500
  0.751000, -0.862800
  0.753000, -0.889500
  0.755000, -0.914700
  0.757000, -0.938500
  0.759000, -0.960700
  0.761000, -0.981200
  0.763000, -1.000200
  0.765000, -1.017600
  0.767000, -1.033200
  0.769000, -1.047300
  0.771000, -1.059700
  0.773000, -1.070600
  0.775000, -1.079900
  0.777000, -1.087600
  0.779000, -1.093600
  0.781000, -1.098100
  0.783000, -1.101000
  0.785000, -1.102500
  0.787000, -1.102500
  0.789000, -1.101000
  0.791000, -1.098000
  0.793000, -1.093600
  0.795000, -1.088000
  0.797000, -1.081000
  0.799000, -1.072600
  0.801000, -1.063000
  0.803000, -1.052100
  0.805000, -1.039800
  0.807000, -1.026400
  0.809000, -1.012000
  0.811000, -0.996500
  0.813000, -0.979900
  0.815000, -0.962500
  0.817000, -0.944100
  0.819000, -0.924600
  0.821000, -0.904300
  0.823000, -0.883200
  0.825000, -0.861200
  0.827000, -0.838400
  0.829000, -0.815000
  0.831000, -0.791100
  0.833000, -0.766400
  0.835000, -0.741000
  0.837000, -0.715200
  0.839000, -0.689000
  0.841000, -0.662300
  0.843000, -0.635400
  0.845000, -0.608100
  0.847000, -0.580400
  0.849000, -0.552500
  0.851000, -0.524300
  0.853000, -0.495900
  0.855000, -0.467400
  0.857000, -0.439100
  0.859000, -0.410800
  0.861000, -0.382600
  0.863000, -0.354500
  0.865000, -0.326400
  0.867000, -0.298500
  0.869000, -0.270800
  0.871000, -0.243300
  0.873000, -0.216100
  0.875000, -0.189300
  0.877000, -0.162900
  0.879000, -0.136800
  0.881000, -0.111000
  0.883000, -0.085700
  0.885000, -0.060800
  0.887000, -0.036600
  0.889000, -0.013100
  0.891000,  0.009900
  0.893000,  0.032500
  0.895000,  0.054300
  0.897000,  0.075500
  0.899000,  0.096100
  0.901000,  0.116100
  0.903000,  0.135200
  0.905000,  0.153500
  0.907000,  0.171100
  0.909000,  0.187900
  0.911000,  0.203800
  0.913000,  0.218900
  0.915000,  0.233200
  0.917000,  0.246800
  0.919000,  0.259600
  0.921000,  0.271600
  0.923000,  0.282700
  0.925000,  0.292800
  0.927000,  0.302000
  0.929000,  0.310500
  0.931000,  0.318200
  0.933000,  0.325100
  0.935000,  0.331100
  0.937000,  0.336200
  0.939000,  0.340500
  0.941000,  0.344100
  0.943000,  0.346800
  0.945000,  0.348700
  0.947000,  0.349700
  0.949000,  0.350000
  0.951000,  0.349700
  0.953000,  0.348700
  0.955000,  0.346900
  0.957000,  0.344300
  0.959000,  0.341000
  0.961000,  0.337000
  0.963000,  0.332400
  0.965000,  0.327400
  0.967000,  0.321600
  0.969000,  0.315200
  0.971000,  0.308300
  0.973000,  0.300800
  0.975000,  0.292800
  0.977000,  0.284400
  0.979000,  0.275600
  0.981000,  0.266500
  0.983000,  0.256700
  0.985000,  0.246500
  0.987000,  0.235900
  0.989000,  0.225100
  0.991000,  0.213900
  0.993000,  0.202300
  0.995000,  0.190600
  0.997000,  0.178700
  0.999000,  0.166600
  1.001000,  0.154300
  1.003000,  0.141900
  1.005000,  0.129300
  1.007000,  0.116500
  1.009000,  0.103700
  1.011000,  0.090900
  1.013000,  0.078000
  1.015000,  0.065200
  1.017000,  0.052600
  1.019000,  0.039900
  1.021000,  0.027200
  1.023000,  0.014600
  1.025000,  0.002100
  1.027000, -0.010400
  1.029000, -0.022700
  1.031000, -0.035000
  1.033000, -0.047100
  1.035000, -0.058900
  1.037000, -0.070500
  1.039000, -0.081900
  1.041000, -0.093100
  1.043000, -0.104200
  1.045000, -0.114900
  1.047000, -0.125300
  1.049000, -0.135400
  1.051000, -0.145400
  1.053000, -0.155100
  1.055000, -0.164400
  1.057000, -0.173500
  1.059000, -0.182200
  1.061000, -0.190800
  1.063000, -0.199100
  1.065000, -0.206900
  1.067000, -0.214400
  1.069000, -0.221500
  1.071000, -0.228300
  1.073000, -0.234800
  1.075000, -0.240800
  1.077000, -0.246600
  1.079000, -0.252000
  1.081000, -0.257100
  1.083000, -0.261800
  1.085000, -0.266200
  1.087000, -0.270200
  1.089000, -0.273900
  1.091000, -0.277200
  1.093000, -0.280200
  1.095000, -0.283000
  1.097000, -0.285400
  1.099000, -0.287400
  1.101000, -0.289000
  1.103000, -0.290300
  1.105000, -0.291300
  1.107000, -0.292100
  1.109000, -0.292400
  1.111000, -0.292400
  1.113000, -0.292200
  1.115000, -0.291700
  1.117000, -0.291000
  1.119000, -0.290000
  1.121000, -0.288700
  1.123000, -0.287100
  1.125000, -0.285200
  1.127000, -0.283200
  1.129000, -0.281000
  1.131000, -0.278500
  1.133000, -0.275900
  1.135000, -0.273000
  1.137000, -0.269800
  1.139000, -0.266500
  1.141000, -0.263100
  1.143000, -0.259500
  1.145000, -0.255700
  1.147000, -0.251700
  1.149000, -0.247500
  1.151000, -0.243200
  1.153000, -0.238700
  1.155000, -0.234300
  1.157000, -0.229800
  1.159000, -0.225000
  1.161000, -0.220200
  1.163000, -0.215300
  1.165000, -0.210200
  1.167000, -0.205000
  1.169000, -0.199500
  1.171000, -0.194000
  1.173000, -0.188500
  1.175000, -0.182800
  1.177000, -0.177100
  1.179000, -0.171500
  1.181000, -0.165800
  1.183000, -0.160000
  1.185000, -0.154000
  1.187000, -0.148100
  1.189000, -0.142300
  1.191000, -0.136200
  1.193000, -0.130200
  1.195000, -0.124100
  1.197000, -0.118100
  1.199000, -0.111900
  1.201000, -0.105800
  1.203000, -0.099800
  1.205000, -0.093800
  1.207000, -0.087900
  1.209000, -0.081900
  1.211000, -0.076000
  1.213000, -0.070100
  1.215000, -0.064200
  1.217000, -0.058400
  1.219000, -0.052700
  1.221000, -0.047100
  1.223000, -0.041500
  1.225000, -0.036000
  1.227000, -0.030600
  1.229000, -0.025500
  1.231000, -0.020400
  1.233000, -0.015400
  1.235000, -0.010700
  1.237000, -0.006000
  1.239000, -0.001700
  1.241000,  0.002600
  1.243000,  0.006600
  1.245000,  0.010300
  1.247000,  0.013900
  1.249000,  0.017400
  1.251000,  0.020500
  1.253000,  0.023500
  1.255000,  0.026300
  1.257000,  0.028700
  1.259000,  0.031000
  1.261000,  0.033000
  1.263000,  0.034900
  1.265000,  0.036400
  1.267000,  0.037700
  1.269000,  0.038700
  1.271000,  0.039400
  1.273000,  0.040000
  1.275000,  0.040400
  1.277000,  0.040600
  1.279000,  0.040500
  1.281000,  0.040200
  1.283000,  0.039700
  1.285000,  0.039000
  1.287000,  0.038100
  1.289000,  0.037000
  1.291000,  0.035700
  1.293000,  0.034300
  1.295000,  0.032700
  1.297000,  0.031000
  1.299000,  0.029200
  1.301000,  0.027300
  1.303000,  0.025400
  1.305000,  0.023500
  1.307000,  0.021500
  1.309000,  0.019500
  1.311000,  0.017600
  1.313000,  0.015600
  1.315000,  0.013400
  1.317000,  0.011200
  1.319000,  0.009100
  1.321000,  0.007000
  1.323000,  0.005100
  1.325000,  0.003400
  1.327000,  0.001700
  1.329000,  0.000100
  1.331000, -0.001500
  1.333000, -0.002900
  1.335000, -0.004100
  1.337000, -0.005200
  1.339000, -0.006200
  1.341000, -0.006900
  1.343000, -0.007500
  1.345000, -0.008000
  1.347000, -0.008200
  1.349000, -0.008400
  1.351000, -0.008300
  1.353000, -0.008100
  1.355000, -0.007600
  1.357000, -0.007100
  1.359000, -0.006500
  1.361000, -0.005800
  1.363000, -0.005000
  1.365000, -0.004100
  1.367000, -0.003000
  1.369000, -0.001800
  1.371000, -0.000500
  1.373000,  0.000400
  1.375000,  0.001500
  1.377000,  0.002500
  1.379000,  0.003600
  1.381000,  0.004900
  1.383000,  0.005900
  1.385000,  0.006600
  1.387000,  0.007300
  1.389000,  0.007900
  1.391000,  0.008400
  1.393000,  0.008400
  1.395000,  0.007900
  1.397000,  0.007000
  1.399000,  0.005900
