# z (nm)   (kJ/mol)
  0.2990   10.38250
  0.3030    9.56060
  0.3050    9.14220
  0.3070    8.75320
  0.3090    8.35440
  0.3110    7.94720
  0.3130    7.54440
  0.3150    7.12780
  0.3170    6.70330
  0.3190    6.28540
  0.3210    5.86590
  0.3230    5.43950
  0.3250    5.01250
  0.3270    4.57890
  0.3290    4.14180
  0.3310    3.71080
  0.3330    3.27880
  0.3350    2.84370
  0.3370    2.41620
  0.3390    1.99340
  0.3410    1.57000
  0.3430    1.15170
  0.3450    0.73870
  0.3470    0.33350
  0.3490   -0.06460
  0.3510   -0.45920
  0.3530   -0.84460
  0.3550   -1.21980
  0.3570   -1.58900
  0.3590   -1.95310
  0.3610   -2.30780
  0.3630   -2.65380
  0.3650   -2.99070
  0.3670   -3.31790
  0.3690   -3.63600
  0.3710   -3.94190
  0.3730   -4.23690
  0.3750   -4.52280
  0.3770   -4.79740
  0.3790   -5.06190
  0.3810   -5.31670
  0.3830   -5.55840
  0.3850   -5.78920
  0.3870   -6.00970
  0.3890   -6.21800
  0.3910   -6.41440
  0.3930   -6.59840
  0.3950   -6.77010
  0.3970   -6.93010
  0.3990   -7.07900
  0.4010   -7.21650
  0.4030   -7.34200
  0.4050   -7.45510
  0.4070   -7.55600
  0.4090   -7.64550
  0.4110   -7.72380
  0.4130   -7.79070
  0.4150   -7.84680
  0.4170   -7.89160
  0.4190   -7.92580
  0.4210   -7.95010
  0.4230   -7.96480
  0.4250   -7.96910
  0.4270   -7.96330
  0.4290   -7.94860
  0.4310   -7.92530
  0.4330   -7.89310
  0.4350   -7.85290
  0.4370   -7.80540
  0.4390   -7.75040
  0.4410   -7.68850
  0.4430   -7.61960
  0.4450   -7.54450
  0.4470   -7.46310
  0.4490   -7.37600
  0.4510   -7.28380
  0.4530   -7.18710
  0.4550   -7.08640
  0.4570   -6.98220
  0.4590   -6.87380
  0.4610   -6.76130
  0.4630   -6.64620
  0.4650   -6.52870
  0.4670   -6.40840
  0.4690   -6.28580
  0.4710   -6.16190
  0.4730   -6.03610
  0.4750   -5.90860
  0.4770   -5.77970
  0.4790   -5.64970
  0.4810   -5.51910
  0.4830   -5.38770
  0.4850   -5.25590
  0.4870   -5.12360
  0.4890   -4.99100
  0.4910   -4.85810
  0.4930   -4.72500
  0.4950   -4.59200
  0.4970   -4.45920
  0.4990   -4.32660
  0.5010   -4.19440
  0.5030   -4.06230
  0.5050   -3.93070
  0.5070   -3.79960
  0.5090   -3.66930
  0.5110   -3.53960
  0.5130   -3.41050
  0.5150   -3.28240
  0.5170   -3.15500
  0.5190   -3.02820
  0.5210   -2.90210
  0.5230   -2.77700
  0.5250   -2.65300
  0.5270   -2.53010
  0.5290   -2.40780
  0.5310   -2.28670
  0.5330   -2.16700
  0.5350   -2.04860
  0.5370   -1.93160
  0.5390   -1.81610
  0.5410   -1.70220
  0.5430   -1.58950
  0.5450   -1.47830
  0.5470   -1.36890
  0.5490   -1.26090
  0.5510   -1.15470
  0.5530   -1.05060
  0.5550   -0.94850
  0.5570   -0.84830
  0.5590   -0.75010
  0.5610   -0.65390
  0.5630   -0.56010
  0.5650   -0.46850
  0.5670   -0.37930
  0.5690   -0.29240
  0.5710   -0.20800
  0.5730   -0.12640
  0.5750   -0.04710
  0.5770    0.02930
  0.5790    0.10310
  0.5810    0.17400
  0.5830    0.24170
  0.5850    0.30640
  0.5870    0.36830
  0.5890    0.42710
  0.5910    0.48280
  0.5930    0.53520
  0.5950    0.58460
  0.5970    0.63070
  0.5990    0.67360
  0.6010    0.71320
  0.6030    0.74960
  0.6050    0.78270
  0.6070    0.81250
  0.6090    0.83910
  0.6110    0.86260
  0.6130    0.88280
  0.6150    0.89980
  0.6170    0.91370
  0.6190    0.92410
  0.6210    0.93150
  0.6230    0.93590
  0.6250    0.93720
  0.6270    0.93570
  0.6290    0.93120
  0.6310    0.92400
  0.6330    0.91420
  0.6350    0.90150
  0.6370    0.88640
  0.6390    0.86870
  0.6410    0.84910
  0.6430    0.82700
  0.6450    0.80230
  0.6470    0.77530
  0.6490    0.74660
  0.6510    0.71600
  0.6530    0.68360
  0.6550    0.64940
  0.6570    0.61340
  0.6590    0.57610
  0.6610    0.53780
  0.6630    0.49820
  0.6650    0.45720
  0.6670    0.41540
  0.6690    0.37290
  0.6710    0.32960
  0.6730    0.28550
  0.6750    0.24110
  0.6770    0.19630
  0.6790    0.15140
  0.6810    0.10620
  0.6830    0.06110
  0.6850    0.01590
  0.6870   -0.02910
  0.6890   -0.07360
  0.6910   -0.11810
  0.6930   -0.16220
  0.6950   -0.20560
  0.6970   -0.24880
  0.6990   -0.29150
  0.7010   -0.33320
  0.7030   -0.37430
  0.7050   -0.41420
  0.7070   -0.45310
  0.7090   -0.49090
  0.7110   -0.52760
  0.7130   -0.56300
  0.7150   -0.59720
  0.7170   -0.63020
  0.7190   -0.66170
  0.7210   -0.69180
  0.7230   -0.72050
  0.7250   -0.74780
  0.7270   -0.77360
  0.7290   -0.79790
  0.7310   -0.82060
  0.7330   -0.84190
  0.7350   -0.86150
  0.7370   -0.87960
  0.7390   -0.89620
  0.7410   -0.91130
  0.7430   -0.92480
  0.7450   -0.93690
  0.7470   -0.94740
  0.7490   -0.95640
  0.7510   -0.96390
  0.7530   -0.96970
  0.7550   -0.97410
  0.7570   -0.97710
  0.7590   -0.97860
  0.7610   -0.97890
  0.7630   -0.97770
  0.7650   -0.97520
  0.7670   -0.97140
  0.7690   -0.96630
  0.7710   -0.96010
  0.7730   -0.95270
  0.7750   -0.94430
  0.7770   -0.93480
  0.7790   -0.92410
  0.7810   -0.91250
  0.7830   -0.89980
  0.7850   -0.88630
  0.7870   -0.87180
  0.7890   -0.85650
  0.7910   -0.84040
  0.7930   -0.82380
  0.7950   -0.80680
  0.7970   -0.78890
  0.7990   -0.77020
  0.8010   -0.75080
  0.8030   -0.73090
  0.8050   -0.71070
  0.8070   -0.69000
  0.8090   -0.66880
  0.8110   -0.64730
  0.8130   -0.62550
  0.8150   -0.60350
  0.8170   -0.58110
  0.8190   -0.55850
  0.8210   -0.53590
  0.8230   -0.51320
  0.8250   -0.49040
  0.8270   -0.46750
  0.8290   -0.44460
  0.8310   -0.42160
  0.8330   -0.39880
  0.8350   -0.37590
  0.8370   -0.35290
  0.8390   -0.33020
  0.8410   -0.30760
  0.8430   -0.28500
  0.8450   -0.26270
  0.8470   -0.24060
  0.8490   -0.21860
  0.8510   -0.19680
  0.8530   -0.17530
  0.8550   -0.15410
  0.8570   -0.13310
  0.8590   -0.11230
  0.8610   -0.09190
  0.8630   -0.07190
  0.8650   -0.05220
  0.8670   -0.03310
  0.8690   -0.01430
  0.8710    0.00420
  0.8730    0.02240
  0.8750    0.04010
  0.8770    0.05730
  0.8790    0.07400
  0.8810    0.09030
  0.8830    0.10610
  0.8850    0.12130
  0.8870    0.13590
  0.8890    0.15010
  0.8910    0.16370
  0.8930    0.17680
  0.8950    0.18950
  0.8970    0.20160
  0.8990    0.21290
  0.9010    0.22360
  0.9030    0.23380
  0.9050    0.24320
  0.9070    0.25210
  0.9090    0.26030
  0.9110    0.26790
  0.9130    0.27490
  0.9150    0.28140
  0.9170    0.28720
  0.9190    0.29240
  0.9210    0.29700
  0.9230    0.30070
  0.9250    0.30380
  0.9270    0.30640
  0.9290    0.30830
  0.9310    0.30940
  0.9330    0.31000
  0.9350    0.30990
  0.9370    0.30920
  0.9390    0.30800
  0.9410    0.30620
  0.9430    0.30380
  0.9450    0.30080
  0.9470    0.29730
  0.9490    0.29340
  0.9510    0.28880
  0.9530    0.28370
  0.9550    0.27810
  0.9570    0.27200
  0.9590    0.26540
  0.9610    0.25820
  0.9630    0.25080
  0.9650    0.24310
  0.9670    0.23490
  0.9690    0.22640
  0.9710    0.21760
  0.9730    0.20850
  0.9750    0.19890
  0.9770    0.18920
  0.9790    0.17910
  0.9810    0.16860
  0.9830    0.15810
  0.9850    0.14730
  0.9870    0.13640
  0.9890    0.12530
  0.9910    0.11400
  0.9930    0.10260
  0.9950    0.09110
  0.9970    0.07970
  0.9990    0.06820
  1.0010    0.05670
  1.0030    0.04520
  1.0050    0.03360
  1.0070    0.02220
  1.0090    0.01100
  1.0110   -0.00030
  1.0130   -0.01150
  1.0150   -0.02270
  1.0170   -0.03390
  1.0190   -0.04490
  1.0210   -0.05580
  1.0230   -0.06640
  1.0250   -0.07690
  1.0270   -0.08710
  1.0290   -0.09710
  1.0310   -0.10700
  1.0330   -0.11660
  1.0350   -0.12600
  1.0370   -0.13500
  1.0390   -0.14380
  1.0410   -0.15230
  1.0430   -0.16070
  1.0450   -0.16870
  1.0470   -0.17650
  1.0490   -0.18390
  1.0510   -0.19110
  1.0530   -0.19780
  1.0550   -0.20420
  1.0570   -0.21030
  1.0590   -0.21610
  1.0610   -0.22140
  1.0630   -0.22640
  1.0650   -0.23110
  1.0670   -0.23540
  1.0690   -0.23940
  1.0710   -0.24300
  1.0730   -0.24620
  1.0750   -0.24910
  1.0770   -0.25160
  1.0790   -0.25380
  1.0810   -0.25560
  1.0830   -0.25710
  1.0850   -0.25820
  1.0870   -0.25890
  1.0890   -0.25930
  1.0910   -0.25930
  1.0930   -0.25900
  1.0950   -0.25850
  1.0970   -0.25760
  1.0990   -0.25630
  1.1010   -0.25470
  1.1030   -0.25290
  1.1050   -0.25080
  1.1070   -0.24840
  1.1090   -0.24580
  1.1110   -0.24290
  1.1130   -0.23970
  1.1150   -0.23640
  1.1170   -0.23280
  1.1190   -0.22890
  1.1210   -0.22480
  1.1230   -0.22050
  1.1250   -0.21610
  1.1270   -0.21150
  1.1290   -0.20680
  1.1310   -0.20200
  1.1330   -0.19700
  1.1350   -0.19200
  1.1370   -0.18680
  1.1390   -0.18160
  1.1410   -0.17620
  1.1430   -0.17090
  1.1450   -0.16550
  1.1470   -0.16000
  1.1490   -0.15450
  1.1510   -0.14910
  1.1530   -0.14360
  1.1550   -0.13810
  1.1570   -0.13260
  1.1590   -0.12720
  1.1610   -0.12180
  1.1630   -0.11650
  1.1650   -0.11120
  1.1670   -0.10610
  1.1690   -0.10110
  1.1710   -0.09620
  1.1730   -0.09120
  1.1750   -0.08640
  1.1770   -0.08180
  1.1790   -0.07720
  1.1810   -0.07270
  1.1830   -0.06840
  1.1850   -0.06420
  1.1870   -0.06010
  1.1890   -0.05610
  1.1910   -0.05230
  1.1930   -0.04860
  1.1950   -0.04500
  1.1970   -0.04150
  1.1990   -0.03830
  1.2010   -0.03510
  1.2030   -0.03210
  1.2050   -0.02910
  1.2070   -0.02630
  1.2090   -0.02360
  1.2110   -0.02110
  1.2130   -0.01860
  1.2150   -0.01620
  1.2170   -0.01390
  1.2190   -0.01170
  1.2210   -0.00960
  1.2230   -0.00760
  1.2250   -0.00600
  1.2270   -0.00440
  1.2290   -0.00300
  1.2310   -0.00170
  1.2330   -0.00040
  1.2350    0.00080
  1.2370    0.00200
  1.2390    0.00300
  1.2410    0.00390
  1.2430    0.00460
  1.2450    0.00530
  1.2470    0.00600
  1.2490    0.00650
  1.2510    0.00680
  1.2530    0.00730
  1.2550    0.00770
  1.2570    0.00790
  1.2590    0.00800
  1.2610    0.00800
  1.2630    0.00780
  1.2650    0.00760
  1.2670    0.00730
  1.2690    0.00700
  1.2710    0.00680
  1.2730    0.00640
  1.2750    0.00590
  1.2770    0.00540
  1.2790    0.00500
  1.2810    0.00440
  1.2830    0.00380
  1.2850    0.00310
  1.2870    0.00240
  1.2890    0.00170
  1.2910    0.00090
  1.2930    0.00000
  1.2950   -0.00080
  1.2970   -0.00160
  1.2990   -0.00230
  1.3010   -0.00310
  1.3030   -0.00390
  1.3050   -0.00460
  1.3070   -0.00520
  1.3090   -0.00590
  1.3110   -0.00640
  1.3130   -0.00700
  1.3150   -0.00750
  1.3170   -0.00800
  1.3190   -0.00840
  1.3210   -0.00870
  1.3230   -0.00890
  1.3250   -0.00900
  1.3270   -0.00910
  1.3290   -0.00900
  1.3310   -0.00880
  1.3330   -0.00850
  1.3350   -0.00800
  1.3370   -0.00750
  1.3390   -0.00690
  1.3410   -0.00620
  1.3430   -0.00520
  1.3450   -0.00420
  1.3470   -0.00320
  1.3490   -0.00210
  1.3510   -0.00090
  1.3530    0.00040
  1.3550    0.00170
  1.3570    0.00290
  1.3590    0.00430
  1.3610    0.00570
  1.3630    0.00710
  1.3650    0.00860
  1.3670    0.01010
  1.3690    0.01150
  1.3710    0.01280
  1.3730    0.01400
  1.3750    0.01520
  1.3770    0.01620
  1.3790    0.01710
  1.3810    0.01790
  1.3830    0.01850
  1.3850    0.01880
  1.3870    0.01900
  1.3890    0.01910
  1.3910    0.01880
  1.3930    0.01800
  1.3950    0.01670
  1.3970    0.01500
  1.3990    0.01280
