# z (nm)   (kJ/mol)
  0.0640  271.15864
  0.0660  268.81911
  0.0680  265.88745
  0.0700  263.57751
  0.0720  260.91484
  0.0740  258.54877
  0.0760  256.13816
  0.0780  253.76370
  0.0800  251.35548
  0.0820  248.90237
  0.0840  246.41298
  0.0860  243.85306
  0.0880  241.21194
  0.0900  238.46295
  0.0920  235.58839
  0.0940  232.57257
  0.0960  229.40406
  0.0980  226.06796
  0.1000  222.57051
  0.1020  218.91233
  0.1040  215.09665
  0.1060  211.13735
  0.1080  207.05025
  0.1100  202.84352
  0.1120  198.54371
  0.1140  194.17698
  0.1160  189.77354
  0.1180  185.36366
  0.1200  180.99530
  0.1220  176.70418
  0.1240  172.52019
  0.1260  168.46706
  0.1280  164.56220
  0.1300  160.80249
  0.1320  157.19773
  0.1340  153.73488
  0.1360  150.39653
  0.1380  147.15653
  0.1400  143.98966
  0.1420  140.87203
  0.1440  137.77744
  0.1460  134.68909
  0.1480  131.59465
  0.1500  128.49546
  0.1520  125.40149
  0.1540  122.33116
  0.1560  119.30318
  0.1580  116.33400
  0.1600  113.43889
  0.1620  110.61983
  0.1640  107.86562
  0.1660  105.15805
  0.1680  102.46947
  0.1700   99.77922
  0.1720   97.05907
  0.1740   94.30942
  0.1760   91.53294
  0.1780   88.75094
  0.1800   86.00160
  0.1820   83.32801
  0.1840   80.77287
  0.1860   78.34961
  0.1880   76.05784
  0.1900   73.87355
  0.1920   71.76468
  0.1940   69.69540
  0.1960   67.64114
  0.1980   65.59154
  0.2000   63.55189
  0.2020   61.53348
  0.2040   59.55541
  0.2060   57.62728
  0.2080   55.74820
  0.2100   53.92157
  0.2120   52.13945
  0.2140   50.40222
  0.2160   48.70959
  0.2180   47.05420
  0.2200   45.43311
  0.2220   43.86479
  0.2240   42.33804
  0.2260   40.85108
  0.2280   39.39544
  0.2300   37.96819
  0.2320   36.57989
  0.2340   35.23242
  0.2360   33.94724
  0.2380   32.71784
  0.2400   31.53923
  0.2420   30.40853
  0.2440   29.29833
  0.2460   28.20925
  0.2480   27.12121
  0.2500   26.03988
  0.2520   24.97282
  0.2540   23.93987
  0.2560   22.96080
  0.2580   22.04089
  0.2600   21.18980
  0.2620   20.40238
  0.2640   19.66176
  0.2660   18.96370
  0.2680   18.29108
  0.2700   17.63676
  0.2720   16.99085
  0.2740   16.35191
  0.2760   15.72826
  0.2780   15.11320
  0.2800   14.52134
  0.2820   13.94523
  0.2840   13.38969
  0.2860   12.86334
  0.2880   12.37595
  0.2900   11.93016
  0.2920   11.51276
  0.2940   11.12376
  0.2960   10.76495
  0.2980   10.42447
  0.3000   10.10239
  0.3020    9.79174
  0.3040    9.48629
  0.3060    9.19040
  0.3080    8.90255
  0.3100    8.61963
  0.3120    8.34197
  0.3140    8.08448
  0.3160    7.84647
  0.3180    7.62749
  0.3200    7.41987
  0.3220    7.21769
  0.3240    7.02331
  0.3260    6.83648
  0.3280    6.65006
  0.3300    6.46145
  0.3320    6.27852
  0.3340    6.09784
  0.3360    5.91544
  0.3380    5.73750
  0.3400    5.56219
  0.3420    5.39500
  0.3440    5.22883
  0.3460    5.06587
  0.3480    4.89731
  0.3500    4.72836
  0.3520    4.56245
  0.3540    4.39838
  0.3560    4.24144
  0.3580    4.09125
  0.3600    3.94438
  0.3620    3.80399
  0.3640    3.67355
  0.3660    3.54548
  0.3680    3.42457
  0.3700    3.30706
  0.3720    3.19072
  0.3740    3.07695
  0.3760    2.95374
  0.3780    2.83691
  0.3800    2.72510
  0.3820    2.62010
  0.3840    2.52144
  0.3860    2.43939
  0.3880    2.36228
  0.3900    2.30089
  0.3920    2.25711
  0.3940    2.22462
  0.3960    2.20221
  0.3980    2.17974
  0.4000    2.14971
  0.4020    2.10495
  0.4040    2.04147
  0.4060    1.96495
  0.4080    1.87952
  0.4100    1.77683
  0.4120    1.67705
  0.4140    1.59320
  0.4160    1.51870
  0.4180    1.46654
  0.4200    1.43479
  0.4220    1.41294
  0.4240    1.40940
  0.4260    1.40091
  0.4280    1.38588
  0.4300    1.36172
  0.4320    1.32508
  0.4340    1.26672
  0.4360    1.19837
  0.4380    1.12343
  0.4400    1.03881
  0.4420    0.95223
  0.4440    0.86577
  0.4460    0.77985
  0.4480    0.69842
  0.4500    0.62546
  0.4520    0.55564
  0.4540    0.48923
  0.4560    0.42284
  0.4580    0.36462
  0.4600    0.31174
  0.4620    0.26192
  0.4640    0.21755
  0.4660    0.18321
  0.4680    0.15097
  0.4700    0.12557
  0.4720    0.10553
  0.4740    0.09010
  0.4760    0.06859
  0.4780    0.04838
  0.4800    0.02765
  0.4820    0.02513
  0.4840    0.03869
  0.4860    0.06975
  0.4880    0.11404
  0.4900    0.17108
  0.4920    0.23708
  0.4940    0.30823
  0.4960    0.36934
  0.4980    0.43280
  0.5000    0.49363
  0.5020    0.55658
  0.5040    0.63484
  0.5060    0.71248
  0.5080    0.80552
  0.5100    0.90765
  0.5120    1.01238
  0.5140    1.11347
  0.5160    1.20200
  0.5180    1.27654
  0.5200    1.33725
  0.5220    1.38594
  0.5240    1.42969
  0.5260    1.47803
  0.5280    1.51993
  0.5300    1.54705
  0.5320    1.54456
  0.5340    1.50126
  0.5360    1.41749
  0.5380    1.31420
  0.5400    1.18281
  0.5420    1.04196
  0.5440    0.91070
  0.5460    0.79399
  0.5480    0.68903
  0.5500    0.59173
  0.5520    0.50214
  0.5540    0.40440
  0.5560    0.29956
  0.5580    0.18409
  0.5600    0.06377
  0.5620   -0.06929
  0.5640   -0.21163
  0.5660   -0.34836
  0.5680   -0.49398
  0.5700   -0.63350
  0.5720   -0.76228
  0.5740   -0.86867
  0.5760   -0.97358
  0.5780   -1.05696
  0.5800   -1.13378
  0.5820   -1.20717
  0.5840   -1.27966
  0.5860   -1.36081
  0.5880   -1.44941
  0.5900   -1.54331
  0.5920   -1.63647
  0.5940   -1.72747
  0.5960   -1.81045
  0.5980   -1.87563
  0.6000   -1.92946
  0.6020   -1.95831
  0.6040   -1.97356
  0.6060   -1.97881
  0.6080   -1.97782
  0.6100   -1.97896
  0.6120   -1.98320
  0.6140   -1.99533
  0.6160   -2.01643
  0.6180   -2.04528
  0.6200   -2.07168
  0.6220   -2.10629
  0.6240   -2.12961
  0.6260   -2.14588
  0.6280   -2.15187
  0.6300   -2.14621
  0.6320   -2.13188
  0.6340   -2.10329
  0.6360   -2.07535
  0.6380   -2.04042
  0.6400   -2.00736
  0.6420   -1.98086
  0.6440   -1.95341
  0.6460   -1.94537
  0.6480   -1.93247
  0.6500   -1.93130
  0.6520   -1.92923
  0.6540   -1.93727
  0.6560   -1.94378
  0.6580   -1.94271
  0.6600   -1.92985
  0.6620   -1.90813
  0.6640   -1.87541
  0.6660   -1.83144
  0.6680   -1.78918
  0.6700   -1.75026
  0.6720   -1.71491
  0.6740   -1.68172
  0.6760   -1.66223
  0.6780   -1.63723
  0.6800   -1.61356
  0.6820   -1.58181
  0.6840   -1.54003
  0.6860   -1.49124
  0.6880   -1.43802
  0.6900   -1.38240
  0.6920   -1.33431
  0.6940   -1.27563
  0.6960   -1.22889
  0.6980   -1.18099
  0.7000   -1.13828
  0.7020   -1.10045
  0.7040   -1.06572
  0.7060   -1.02801
  0.7080   -1.00155
  0.7100   -0.97059
  0.7120   -0.93437
  0.7140   -0.88770
  0.7160   -0.83854
  0.7180   -0.78252
  0.7200   -0.72407
  0.7220   -0.66377
  0.7240   -0.61523
  0.7260   -0.57277
  0.7280   -0.53564
  0.7300   -0.51853
  0.7320   -0.50643
  0.7340   -0.49487
  0.7360   -0.48360
  0.7380   -0.47224
  0.7400   -0.45180
  0.7420   -0.42147
  0.7440   -0.38850
  0.7460   -0.35368
  0.7480   -0.32243
  0.7500   -0.29015
  0.7520   -0.26473
  0.7540   -0.24082
  0.7560   -0.22166
  0.7580   -0.19671
  0.7600   -0.17143
  0.7620   -0.15014
  0.7640   -0.11842
  0.7660   -0.08863
  0.7680   -0.06607
  0.7700   -0.04408
  0.7720   -0.02469
  0.7740   -0.00575
  0.7760    0.00482
  0.7780    0.00543
  0.7800    0.00830
  0.7820   -0.00215
  0.7840   -0.01377
  0.7860   -0.02113
  0.7880   -0.03142
  0.7900   -0.03524
  0.7920   -0.03243
  0.7940   -0.02291
  0.7960   -0.01194
  0.7980    0.00939
  0.8000    0.02574
  0.8020    0.04290
  0.8040    0.06214
  0.8060    0.06822
  0.8080    0.07577
  0.8100    0.06929
  0.8120    0.05755
  0.8140    0.04059
  0.8160    0.01666
  0.8180    0.00127
  0.8200   -0.00225
  0.8220    0.00390
  0.8240    0.01824
  0.8260    0.04466
  0.8280    0.06757
  0.8300    0.09838
  0.8320    0.12454
  0.8340    0.13663
  0.8360    0.15185
  0.8380    0.14870
  0.8400    0.13684
  0.8420    0.11721
  0.8440    0.09443
  0.8460    0.07029
  0.8480    0.04208
  0.8500    0.00686
  0.8520   -0.02729
  0.8540   -0.05368
  0.8560   -0.08120
  0.8580   -0.10612
  0.8600   -0.11617
  0.8620   -0.12705
  0.8640   -0.12284
  0.8660   -0.12503
  0.8680   -0.11965
  0.8700   -0.09919
  0.8720   -0.08229
  0.8740   -0.07235
  0.8760   -0.06898
  0.8780   -0.06494
  0.8800   -0.05975
  0.8820   -0.06316
  0.8840   -0.06789
  0.8860   -0.07092
  0.8880   -0.06627
  0.8900   -0.05370
  0.8920   -0.05063
  0.8940   -0.04205
  0.8960   -0.03447
  0.8980   -0.02853
  0.9000   -0.02067
  0.9020   -0.01343
  0.9040   -0.00636
  0.9060   -0.00197
  0.9080    0.01362
  0.9100    0.02729
  0.9120    0.04047
  0.9140    0.05840
  0.9160    0.07658
  0.9180    0.09047
  0.9200    0.09512
  0.9220    0.09666
  0.9240    0.09287
  0.9260    0.08619
  0.9280    0.07281
  0.9300    0.06584
  0.9320    0.05902
  0.9340    0.05268
  0.9360    0.04654
  0.9380    0.04837
  0.9400    0.05356
  0.9420    0.05115
  0.9440    0.04406
  0.9460    0.03491
  0.9480    0.02487
  0.9500    0.00903
  0.9520   -0.00439
  0.9540   -0.02421
  0.9560   -0.04224
  0.9580   -0.06414
  0.9600   -0.07841
  0.9620   -0.09291
  0.9640   -0.09384
  0.9660   -0.10309
  0.9680   -0.10182
  0.9700   -0.09920
  0.9720   -0.09420
  0.9740   -0.09159
  0.9760   -0.08274
  0.9780   -0.06934
  0.9800   -0.05821
  0.9820   -0.04000
  0.9840   -0.02811
  0.9860   -0.01544
  0.9880   -0.00647
  0.9900    0.00356
  0.9920    0.00240
  0.9940   -0.00005
  0.9960   -0.00096
  0.9980   -0.01467
  1.0000   -0.01869
