# z (nm)   (kJ/mol)
  0.124000,271.110230
  0.126000,267.753550
  0.128000,264.746470
  0.130000,261.975810
  0.132000,259.287310
  0.134000,256.530890
  0.136000,253.756130
  0.138000,250.945080
  0.140000,248.063010
  0.142000,245.085100
  0.144000,242.011800
  0.146000,238.832620
  0.148000,235.536100
  0.150000,232.122350
  0.152000,228.587790
  0.154000,224.949340
  0.156000,221.215890
  0.158000,217.401550
  0.160000,213.518650
  0.162000,209.578490
  0.164000,205.585020
  0.166000,201.537390
  0.168000,197.426760
  0.170000,193.259480
  0.172000,189.033310
  0.174000,184.765810
  0.176000,180.482730
  0.178000,176.222140
  0.180000,172.015580
  0.182000,167.896470
  0.184000,163.880630
  0.186000,159.978870
  0.188000,156.189130
  0.190000,152.496490
  0.192000,148.894130
  0.194000,145.364110
  0.196000,141.908880
  0.198000,138.522920
  0.200000,135.199470
  0.202000,131.930570
  0.204000,128.707160
  0.206000,125.522450
  0.208000,122.354390
  0.210000,119.202410
  0.212000,116.068480
  0.214000,112.959300
  0.216000,109.883010
  0.218000,106.858700
  0.220000,103.888410
  0.222000,100.969810
  0.224000, 98.082820
  0.226000, 95.218620
  0.228000, 92.367670
  0.230000, 89.530330
  0.232000, 86.725730
  0.234000, 83.974640
  0.236000, 81.294450
  0.238000, 78.690460
  0.240000, 76.153480
  0.242000, 73.663630
  0.244000, 71.198970
  0.246000, 68.739040
  0.248000, 66.286070
  0.250000, 63.857230
  0.252000, 61.466580
  0.254000, 59.131150
  0.256000, 56.870910
  0.258000, 54.688290
  0.260000, 52.582650
  0.262000, 50.542460
  0.264000, 48.556570
  0.266000, 46.619890
  0.268000, 44.711340
  0.270000, 42.845350
  0.272000, 41.024590
  0.274000, 39.249330
  0.276000, 37.526820
  0.278000, 35.872370
  0.280000, 34.265100
  0.282000, 32.704830
  0.284000, 31.170850
  0.286000, 29.665850
  0.288000, 28.191710
  0.290000, 26.744990
  0.292000, 25.335840
  0.294000, 23.985390
  0.296000, 22.695380
  0.298000, 21.451580
  0.300000, 20.248890
  0.302000, 19.073310
  0.304000, 17.906840
  0.306000, 16.751800
  0.308000, 15.619690
  0.310000, 14.515870
  0.312000, 13.459090
  0.314000, 12.443830
  0.316000, 11.478700
  0.318000, 10.566530
  0.320000,  9.705010
  0.322000,  8.894640
  0.324000,  8.125910
  0.326000,  7.396710
  0.328000,  6.690390
  0.330000,  6.002990
  0.332000,  5.315230
  0.334000,  4.621910
  0.336000,  3.925760
  0.338000,  3.244660
  0.340000,  2.591650
  0.342000,  1.985640
  0.344000,  1.438260
  0.346000,  0.945050
  0.348000,  0.499420
  0.350000,  0.088080
  0.352000, -0.296470
  0.354000, -0.668750
  0.356000, -1.031290
  0.358000, -1.383800
  0.360000, -1.718190
  0.362000, -2.038100
  0.364000, -2.331260
  0.366000, -2.587480
  0.368000, -2.820020
  0.370000, -3.019390
  0.372000, -3.197000
  0.374000, -3.353490
  0.376000, -3.505590
  0.378000, -3.642880
  0.380000, -3.778560
  0.382000, -3.903230
  0.384000, -4.025640
  0.386000, -4.136040
  0.388000, -4.243560
  0.390000, -4.344620
  0.392000, -4.426550
  0.394000, -4.495130
  0.396000, -4.547850
  0.398000, -4.580760
  0.400000, -4.602010
  0.402000, -4.608150
  0.404000, -4.601000
  0.406000, -4.594040
  0.408000, -4.582230
  0.410000, -4.578730
  0.412000, -4.575930
  0.414000, -4.573520
  0.416000, -4.568730
  0.418000, -4.559720
  0.420000, -4.551210
  0.422000, -4.538840
  0.424000, -4.524780
  0.426000, -4.490150
  0.428000, -4.445470
  0.430000, -4.381280
  0.432000, -4.303060
  0.434000, -4.197120
  0.436000, -4.087650
  0.438000, -3.958110
  0.440000, -3.830810
  0.442000, -3.706250
  0.444000, -3.589490
  0.446000, -3.488730
  0.448000, -3.403960
  0.450000, -3.330800
  0.452000, -3.269610
  0.454000, -3.209070
  0.456000, -3.142250
  0.458000, -3.063370
  0.460000, -2.969580
  0.462000, -2.850630
  0.464000, -2.711750
  0.466000, -2.558530
  0.468000, -2.394950
  0.470000, -2.231670
  0.472000, -2.076730
  0.474000, -1.941810
  0.476000, -1.819910
  0.478000, -1.706350
  0.480000, -1.613990
  0.482000, -1.519390
  0.484000, -1.428400
  0.486000, -1.327670
  0.488000, -1.224260
  0.490000, -1.112900
  0.492000, -0.998190
  0.494000, -0.878950
  0.496000, -0.754160
  0.498000, -0.627610
  0.500000, -0.503320
  0.502000, -0.362820
  0.504000, -0.214110
  0.506000, -0.067630
  0.508000,  0.082170
  0.510000,  0.230000
  0.512000,  0.368450
  0.514000,  0.484360
  0.516000,  0.589970
  0.518000,  0.684290
  0.520000,  0.773130
  0.522000,  0.860040
  0.524000,  0.959520
  0.526000,  1.064480
  0.528000,  1.178570
  0.530000,  1.307790
  0.532000,  1.438350
  0.534000,  1.575960
  0.536000,  1.714090
  0.538000,  1.854460
  0.540000,  1.991590
  0.542000,  2.123140
  0.544000,  2.244700
  0.546000,  2.352560
  0.548000,  2.448180
  0.550000,  2.521070
  0.552000,  2.584600
  0.554000,  2.629430
  0.556000,  2.662750
  0.558000,  2.696230
  0.560000,  2.724350
  0.562000,  2.757610
  0.564000,  2.788040
  0.566000,  2.832340
  0.568000,  2.876560
  0.570000,  2.927620
  0.572000,  2.982180
  0.574000,  3.023650
  0.576000,  3.057790
  0.578000,  3.072510
  0.580000,  3.080950
  0.582000,  3.061740
  0.584000,  3.033190
  0.586000,  2.988990
  0.588000,  2.937360
  0.590000,  2.877820
  0.592000,  2.814820
  0.594000,  2.751900
  0.596000,  2.687980
  0.598000,  2.623800
  0.600000,  2.562390
  0.602000,  2.496150
  0.604000,  2.417210
  0.606000,  2.336840
  0.608000,  2.250560
  0.610000,  2.145780
  0.612000,  2.035710
  0.614000,  1.913040
  0.616000,  1.784670
  0.618000,  1.639900
  0.620000,  1.492610
  0.622000,  1.332510
  0.624000,  1.178330
  0.626000,  1.027380
  0.628000,  0.873850
  0.630000,  0.724450
  0.632000,  0.579780
  0.634000,  0.444140
  0.636000,  0.313300
  0.638000,  0.189680
  0.640000,  0.068270
  0.642000, -0.056400
  0.644000, -0.185450
  0.646000, -0.316560
  0.648000, -0.447220
  0.650000, -0.575840
  0.652000, -0.698920
  0.654000, -0.818750
  0.656000, -0.925530
  0.658000, -1.026690
  0.660000, -1.113670
  0.662000, -1.191740
  0.664000, -1.257740
  0.666000, -1.319150
  0.668000, -1.378140
  0.670000, -1.423880
  0.672000, -1.473990
  0.674000, -1.526950
  0.676000, -1.581460
  0.678000, -1.633250
  0.680000, -1.689760
  0.682000, -1.743620
  0.684000, -1.792910
  0.686000, -1.843650
  0.688000, -1.882140
  0.690000, -1.908550
  0.692000, -1.934550
  0.694000, -1.951490
  0.696000, -1.962840
  0.698000, -1.970860
  0.700000, -1.980120
  0.702000, -1.984870
  0.704000, -1.989370
  0.706000, -2.000820
  0.708000, -2.004610
  0.710000, -2.006710
  0.712000, -2.009740
  0.714000, -2.014700
  0.716000, -2.010600
  0.718000, -2.003110
  0.720000, -1.996390
  0.722000, -1.987410
  0.724000, -1.969900
  0.726000, -1.953120
  0.728000, -1.929280
  0.730000, -1.901220
  0.732000, -1.869990
  0.734000, -1.831100
  0.736000, -1.779120
  0.738000, -1.725180
  0.740000, -1.661590
  0.742000, -1.593790
  0.744000, -1.524430
  0.746000, -1.462960
  0.748000, -1.407530
  0.750000, -1.351860
  0.752000, -1.298950
  0.754000, -1.255260
  0.756000, -1.210930
  0.758000, -1.170740
  0.760000, -1.124190
  0.762000, -1.079800
  0.764000, -1.029290
  0.766000, -0.984290
  0.768000, -0.932220
  0.770000, -0.875540
  0.772000, -0.826950
  0.774000, -0.773900
  0.776000, -0.718270
  0.778000, -0.660930
  0.780000, -0.599530
  0.782000, -0.540850
  0.784000, -0.483720
  0.786000, -0.426840
  0.788000, -0.367950
  0.790000, -0.311830
  0.792000, -0.263150
  0.794000, -0.212590
  0.796000, -0.155900
  0.798000, -0.099460
  0.800000, -0.052730
  0.802000, -0.003040
  0.804000,  0.044990
  0.806000,  0.087310
  0.808000,  0.126730
  0.810000,  0.159550
  0.812000,  0.188760
  0.814000,  0.212310
  0.816000,  0.228420
  0.818000,  0.249300
  0.820000,  0.267050
  0.822000,  0.285960
  0.824000,  0.302540
  0.826000,  0.324080
  0.828000,  0.352290
  0.830000,  0.384500
  0.832000,  0.419790
  0.834000,  0.453060
  0.836000,  0.486860
  0.838000,  0.516280
  0.840000,  0.546240
  0.842000,  0.561350
  0.844000,  0.568750
  0.846000,  0.566370
  0.848000,  0.560450
  0.850000,  0.553000
  0.852000,  0.545320
  0.854000,  0.534900
  0.856000,  0.522310
  0.858000,  0.521350
  0.860000,  0.523940
  0.862000,  0.534530
  0.864000,  0.551680
  0.866000,  0.568810
  0.868000,  0.584460
  0.870000,  0.597750
  0.872000,  0.605900
  0.874000,  0.609380
  0.876000,  0.604250
  0.878000,  0.592330
  0.880000,  0.567740
  0.882000,  0.540780
  0.884000,  0.508470
  0.886000,  0.473840
  0.888000,  0.445100
  0.890000,  0.414720
  0.892000,  0.388210
  0.894000,  0.362340
  0.896000,  0.343870
  0.898000,  0.325540
  0.900000,  0.318710
  0.902000,  0.309540
  0.904000,  0.303070
  0.906000,  0.303160
  0.908000,  0.292040
  0.910000,  0.269010
  0.912000,  0.243800
  0.914000,  0.210360
  0.916000,  0.168020
  0.918000,  0.127090
  0.920000,  0.081820
  0.922000,  0.039540
  0.924000,  0.007460
  0.926000, -0.023600
  0.928000, -0.048400
  0.930000, -0.064090
  0.932000, -0.064230
  0.934000, -0.065900
  0.936000, -0.060350
  0.938000, -0.047800
  0.940000, -0.033890
  0.942000, -0.020280
  0.944000, -0.008250
  0.946000,  0.000170
  0.948000,  0.002230
  0.950000,  0.005400
  0.952000,  0.002020
  0.954000, -0.003460
  0.956000, -0.016280
  0.958000, -0.028000
  0.960000, -0.037740
  0.962000, -0.048820
  0.964000, -0.064180
  0.966000, -0.082090
  0.968000, -0.095440
  0.970000, -0.114410
  0.972000, -0.120470
  0.974000, -0.131910
  0.976000, -0.132960
  0.978000, -0.130580
  0.980000, -0.125640
  0.982000, -0.113290
  0.984000, -0.109150
  0.986000, -0.104300
  0.988000, -0.096340
  0.990000, -0.091320
  0.992000, -0.083970
  0.994000, -0.071230
  0.996000, -0.059640
  0.998000, -0.042550
  1.000000, -0.024140
