# z (nm)   (kJ/mol)
  0.060000,275.415650
  0.062000,272.547990
  0.064000,270.086510
  0.066000,267.566770
  0.068000,265.088570
  0.070000,262.711660
  0.072000,260.260170
  0.074000,257.821930
  0.076000,255.326910
  0.078000,252.743880
  0.080000,250.104620
  0.082000,247.368770
  0.084000,244.530700
  0.086000,241.569240
  0.088000,238.485780
  0.090000,235.276500
  0.092000,231.934190
  0.094000,228.469960
  0.096000,224.885540
  0.098000,221.187900
  0.100000,217.387960
  0.102000,213.501250
  0.104000,209.535420
  0.106000,205.504630
  0.108000,201.414210
  0.110000,197.267120
  0.112000,193.067420
  0.114000,188.817730
  0.116000,184.515900
  0.118000,180.179380
  0.120000,175.818990
  0.122000,171.462980
  0.124000,167.144770
  0.126000,162.903640
  0.128000,158.782810
  0.130000,154.806110
  0.132000,150.984180
  0.134000,147.314540
  0.136000,143.779480
  0.138000,140.338460
  0.140000,136.948920
  0.142000,133.583120
  0.144000,130.212790
  0.146000,126.844360
  0.148000,123.481840
  0.150000,120.146060
  0.152000,116.866470
  0.154000,113.661100
  0.156000,110.543740
  0.158000,107.513210
  0.160000,104.560950
  0.162000,101.662070
  0.164000, 98.786610
  0.166000, 95.918850
  0.168000, 93.042290
  0.170000, 90.158790
  0.172000, 87.269050
  0.174000, 84.392330
  0.176000, 81.542040
  0.178000, 78.732320
  0.180000, 75.981750
  0.182000, 73.303000
  0.184000, 70.708570
  0.186000, 68.198890
  0.188000, 65.777710
  0.190000, 63.436670
  0.192000, 61.169750
  0.194000, 58.966870
  0.196000, 56.801270
  0.198000, 54.655760
  0.200000, 52.519350
  0.202000, 50.384440
  0.204000, 48.254530
  0.206000, 46.132420
  0.208000, 44.048670
  0.210000, 42.014980
  0.212000, 40.056350
  0.214000, 38.168850
  0.216000, 36.362390
  0.218000, 34.626940
  0.220000, 32.946300
  0.222000, 31.306610
  0.224000, 29.712250
  0.226000, 28.146940
  0.228000, 26.614920
  0.230000, 25.117990
  0.232000, 23.655950
  0.234000, 22.235910
  0.236000, 20.846500
  0.238000, 19.506170
  0.240000, 18.205910
  0.242000, 16.947170
  0.244000, 15.736510
  0.246000, 14.582410
  0.248000, 13.470380
  0.250000, 12.417630
  0.252000, 11.402520
  0.254000, 10.429760
  0.256000,  9.481490
  0.258000,  8.565280
  0.260000,  7.678580
  0.262000,  6.830010
  0.264000,  6.024450
  0.266000,  5.271020
  0.268000,  4.574190
  0.270000,  3.929310
  0.272000,  3.323330
  0.274000,  2.747040
  0.276000,  2.192370
  0.278000,  1.650780
  0.280000,  1.145450
  0.282000,  0.661540
  0.284000,  0.197970
  0.286000, -0.234430
  0.288000, -0.648810
  0.290000, -1.034600
  0.292000, -1.396580
  0.294000, -1.736640
  0.296000, -2.051470
  0.298000, -2.337810
  0.300000, -2.599560
  0.302000, -2.842110
  0.304000, -3.070710
  0.306000, -3.283490
  0.308000, -3.472090
  0.310000, -3.660150
  0.312000, -3.833150
  0.314000, -3.992530
  0.316000, -4.142830
  0.318000, -4.287130
  0.320000, -4.418540
  0.322000, -4.547030
  0.324000, -4.669710
  0.326000, -4.789700
  0.328000, -4.906480
  0.330000, -5.020200
  0.332000, -5.132660
  0.334000, -5.233720
  0.336000, -5.332200
  0.338000, -5.432350
  0.340000, -5.516710
  0.342000, -5.597500
  0.344000, -5.662860
  0.346000, -5.716200
  0.348000, -5.755260
  0.350000, -5.781860
  0.352000, -5.814430
  0.354000, -5.836830
  0.356000, -5.858950
  0.358000, -5.883380
  0.360000, -5.904560
  0.362000, -5.931410
  0.364000, -5.945770
  0.366000, -5.950000
  0.368000, -5.940650
  0.370000, -5.923390
  0.372000, -5.889630
  0.374000, -5.849740
  0.376000, -5.799510
  0.378000, -5.744210
  0.380000, -5.685500
  0.382000, -5.627140
  0.384000, -5.576140
  0.386000, -5.528050
  0.388000, -5.483410
  0.390000, -5.437050
  0.392000, -5.395710
  0.394000, -5.352810
  0.396000, -5.307050
  0.398000, -5.258830
  0.400000, -5.213750
  0.402000, -5.158770
  0.404000, -5.095350
  0.406000, -5.017910
  0.408000, -4.938590
  0.410000, -4.849870
  0.412000, -4.755060
  0.414000, -4.661410
  0.416000, -4.557860
  0.418000, -4.452700
  0.420000, -4.337240
  0.422000, -4.227290
  0.424000, -4.108810
  0.426000, -3.982030
  0.428000, -3.852350
  0.430000, -3.722910
  0.432000, -3.584920
  0.434000, -3.444730
  0.436000, -3.303300
  0.438000, -3.158060
  0.440000, -3.015470
  0.442000, -2.878100
  0.444000, -2.737410
  0.446000, -2.597330
  0.448000, -2.466720
  0.450000, -2.331840
  0.452000, -2.197810
  0.454000, -2.072320
  0.456000, -1.951140
  0.458000, -1.835840
  0.460000, -1.720060
  0.462000, -1.619460
  0.464000, -1.523120
  0.466000, -1.432600
  0.468000, -1.335120
  0.470000, -1.246990
  0.472000, -1.157480
  0.474000, -1.049740
  0.476000, -0.936430
  0.478000, -0.808150
  0.480000, -0.670380
  0.482000, -0.515960
  0.484000, -0.358620
  0.486000, -0.198360
  0.488000, -0.033000
  0.490000,  0.123590
  0.492000,  0.278490
  0.494000,  0.429080
  0.496000,  0.570650
  0.498000,  0.709320
  0.500000,  0.849760
  0.502000,  0.984170
  0.504000,  1.127530
  0.506000,  1.263370
  0.508000,  1.397590
  0.510000,  1.534480
  0.512000,  1.667680
  0.514000,  1.798230
  0.516000,  1.928390
  0.518000,  2.048430
  0.520000,  2.169010
  0.522000,  2.279840
  0.524000,  2.388010
  0.526000,  2.491750
  0.528000,  2.588930
  0.530000,  2.683990
  0.532000,  2.770360
  0.534000,  2.860620
  0.536000,  2.951430
  0.538000,  3.030610
  0.540000,  3.108620
  0.542000,  3.171440
  0.544000,  3.234000
  0.546000,  3.274880
  0.548000,  3.303340
  0.550000,  3.317000
  0.552000,  3.304590
  0.554000,  3.282040
  0.556000,  3.241280
  0.558000,  3.190640
  0.560000,  3.139250
  0.562000,  3.094530
  0.564000,  3.056220
  0.566000,  3.023830
  0.568000,  2.996670
  0.570000,  2.981110
  0.572000,  2.965850
  0.574000,  2.951550
  0.576000,  2.935160
  0.578000,  2.908400
  0.580000,  2.879370
  0.582000,  2.846890
  0.584000,  2.812110
  0.586000,  2.774460
  0.588000,  2.732470
  0.590000,  2.688600
  0.592000,  2.650220
  0.594000,  2.603330
  0.596000,  2.547420
  0.598000,  2.486990
  0.600000,  2.417030
  0.602000,  2.339230
  0.604000,  2.251970
  0.606000,  2.162260
  0.608000,  2.077150
  0.610000,  1.987160
  0.612000,  1.906450
  0.614000,  1.835940
  0.616000,  1.772450
  0.618000,  1.722710
  0.620000,  1.686550
  0.622000,  1.662160
  0.624000,  1.633330
  0.626000,  1.606540
  0.628000,  1.568290
  0.630000,  1.529080
  0.632000,  1.481310
  0.634000,  1.423470
  0.636000,  1.354760
  0.638000,  1.276770
  0.640000,  1.198140
  0.642000,  1.122180
  0.644000,  1.056590
  0.646000,  0.995820
  0.648000,  0.937610
  0.650000,  0.885950
  0.652000,  0.836380
  0.654000,  0.786210
  0.656000,  0.745070
  0.658000,  0.707410
  0.660000,  0.672660
  0.662000,  0.642880
  0.664000,  0.622580
  0.666000,  0.597790
  0.668000,  0.578440
  0.670000,  0.564890
  0.672000,  0.554690
  0.674000,  0.545950
  0.676000,  0.542190
  0.678000,  0.539130
  0.680000,  0.530140
  0.682000,  0.514150
  0.684000,  0.502740
  0.686000,  0.484880
  0.688000,  0.461150
  0.690000,  0.434240
  0.692000,  0.407970
  0.694000,  0.375630
  0.696000,  0.345980
  0.698000,  0.320940
  0.700000,  0.291100
  0.702000,  0.273260
  0.704000,  0.252640
  0.706000,  0.237280
  0.708000,  0.232990
  0.710000,  0.233630
  0.712000,  0.238650
  0.714000,  0.240880
  0.716000,  0.251210
  0.718000,  0.271660
  0.720000,  0.288090
  0.722000,  0.303190
  0.724000,  0.323350
  0.726000,  0.332970
  0.728000,  0.340200
  0.730000,  0.348090
  0.732000,  0.354180
  0.734000,  0.357440
  0.736000,  0.359390
  0.738000,  0.356020
  0.740000,  0.353130
  0.742000,  0.353770
  0.744000,  0.347360
  0.746000,  0.346090
  0.748000,  0.350200
  0.750000,  0.350390
  0.752000,  0.359950
  0.754000,  0.371980
  0.756000,  0.386630
  0.758000,  0.406250
  0.760000,  0.427900
  0.762000,  0.450000
  0.764000,  0.471260
  0.766000,  0.495310
  0.768000,  0.516210
  0.770000,  0.535690
  0.772000,  0.550580
  0.774000,  0.566420
  0.776000,  0.575240
  0.778000,  0.590810
  0.780000,  0.603090
  0.782000,  0.611610
  0.784000,  0.627120
  0.786000,  0.637100
  0.788000,  0.650970
  0.790000,  0.666630
  0.792000,  0.678610
  0.794000,  0.694160
  0.796000,  0.705790
  0.798000,  0.722160
  0.800000,  0.736440
  0.802000,  0.738010
  0.804000,  0.750170
  0.806000,  0.761350
  0.808000,  0.768530
  0.810000,  0.774760
  0.812000,  0.780150
  0.814000,  0.787190
  0.816000,  0.792910
  0.818000,  0.794220
  0.820000,  0.801820
  0.822000,  0.808600
  0.824000,  0.812050
  0.826000,  0.817730
  0.828000,  0.817270
  0.830000,  0.822620
  0.832000,  0.812260
  0.834000,  0.802690
  0.836000,  0.792420
  0.838000,  0.774350
  0.840000,  0.759650
  0.842000,  0.742590
  0.844000,  0.724970
  0.846000,  0.709210
  0.848000,  0.696280
  0.850000,  0.683300
  0.852000,  0.672170
  0.854000,  0.658420
  0.856000,  0.647270
  0.858000,  0.635840
  0.860000,  0.624710
  0.862000,  0.614430
  0.864000,  0.597930
  0.866000,  0.584790
  0.868000,  0.568400
  0.870000,  0.550690
  0.872000,  0.531180
  0.874000,  0.509440
  0.876000,  0.486360
  0.878000,  0.466450
  0.880000,  0.453800
  0.882000,  0.434550
  0.884000,  0.417600
  0.886000,  0.402970
  0.888000,  0.393080
  0.890000,  0.374940
  0.892000,  0.364060
  0.894000,  0.349750
  0.896000,  0.342740
  0.898000,  0.332700
  0.900000,  0.318220
  0.902000,  0.301500
  0.904000,  0.293190
  0.906000,  0.275380
  0.908000,  0.260100
  0.910000,  0.247070
  0.912000,  0.234510
  0.914000,  0.222720
  0.916000,  0.213350
  0.918000,  0.201860
  0.920000,  0.189940
  0.922000,  0.176800
  0.924000,  0.161170
  0.926000,  0.148760
  0.928000,  0.138820
  0.930000,  0.126770
  0.932000,  0.113510
  0.934000,  0.101060
  0.936000,  0.085980
  0.938000,  0.070870
  0.940000,  0.050060
  0.942000,  0.034330
  0.944000,  0.018700
  0.946000,  0.005230
  0.948000, -0.012120
  0.950000, -0.027620
  0.952000, -0.042550
  0.954000, -0.058290
  0.956000, -0.083140
  0.958000, -0.101870
  0.960000, -0.119260
  0.962000, -0.133550
  0.964000, -0.154350
  0.966000, -0.165860
  0.968000, -0.176740
  0.970000, -0.183280
  0.972000, -0.182220
  0.974000, -0.169920
  0.976000, -0.155240
  0.978000, -0.148790
  0.980000, -0.137940
  0.982000, -0.126600
  0.984000, -0.119530
  0.986000, -0.122580
  0.988000, -0.131610
  0.990000, -0.144110
  0.992000, -0.164260
  0.994000, -0.179550
  0.996000, -0.196350
  0.998000, -0.209970
  1.000000, -0.224390
