# z (nm)   (kJ/mol)
  0.068000,269.984260
  0.070000,266.368140
  0.072000,263.493810
  0.074000,260.853370
  0.076000,258.600780
  0.078000,256.144010
  0.080000,253.916060
  0.082000,251.612150
  0.084000,249.312490
  0.086000,246.943650
  0.088000,244.497330
  0.090000,241.921040
  0.092000,239.175460
  0.094000,236.205040
  0.096000,232.971480
  0.098000,229.435800
  0.100000,225.581350
  0.102000,221.422420
  0.104000,217.011630
  0.106000,212.449360
  0.108000,207.834210
  0.110000,203.259930
  0.112000,198.777950
  0.114000,194.410060
  0.116000,190.120670
  0.118000,185.848180
  0.120000,181.514970
  0.122000,177.089820
  0.124000,172.597870
  0.126000,168.144360
  0.128000,163.850950
  0.130000,159.793310
  0.132000,155.962360
  0.134000,152.307050
  0.136000,148.749580
  0.138000,145.233220
  0.140000,141.731080
  0.142000,138.237290
  0.144000,134.749900
  0.146000,131.258750
  0.148000,127.758260
  0.150000,124.248210
  0.152000,120.748900
  0.154000,117.274960
  0.156000,113.857200
  0.158000,110.524100
  0.160000,107.273640
  0.162000,104.117770
  0.164000,101.045990
  0.166000, 98.028650
  0.168000, 95.050770
  0.170000, 92.085380
  0.172000, 89.122130
  0.174000, 86.163370
  0.176000, 83.208970
  0.178000, 80.268940
  0.180000, 77.362640
  0.182000, 74.489160
  0.184000, 71.661660
  0.186000, 68.866080
  0.188000, 66.108180
  0.190000, 63.383020
  0.192000, 60.702390
  0.194000, 58.068560
  0.196000, 55.490520
  0.198000, 52.970590
  0.200000, 50.498640
  0.202000, 48.065260
  0.204000, 45.658420
  0.206000, 43.280800
  0.208000, 40.934910
  0.210000, 38.648280
  0.212000, 36.423160
  0.214000, 34.272310
  0.216000, 32.192170
  0.218000, 30.177610
  0.220000, 28.210160
  0.222000, 26.284040
  0.224000, 24.377040
  0.226000, 22.500140
  0.228000, 20.669960
  0.230000, 18.882630
  0.232000, 17.161200
  0.234000, 15.501540
  0.236000, 13.919520
  0.238000, 12.395550
  0.240000, 10.924070
  0.242000,  9.494770
  0.244000,  8.106070
  0.246000,  6.761020
  0.248000,  5.463750
  0.250000,  4.217240
  0.252000,  3.035040
  0.254000,  1.918490
  0.256000,  0.876770
  0.258000, -0.106370
  0.260000, -1.020520
  0.262000, -1.879490
  0.264000, -2.693080
  0.266000, -3.467120
  0.268000, -4.211180
  0.270000, -4.931920
  0.272000, -5.617200
  0.274000, -6.260540
  0.276000, -6.867030
  0.278000, -7.405620
  0.280000, -7.880950
  0.282000, -8.278370
  0.284000, -8.606880
  0.286000, -8.874160
  0.288000, -9.090920
  0.290000, -9.274290
  0.292000, -9.443220
  0.294000, -9.593280
  0.296000, -9.729120
  0.298000, -9.837200
  0.300000, -9.913960
  0.302000, -9.957570
  0.304000, -9.959410
  0.306000, -9.934150
  0.308000, -9.886760
  0.310000, -9.827590
  0.312000, -9.758920
  0.314000, -9.695490
  0.316000, -9.635020
  0.318000, -9.581920
  0.320000, -9.519940
  0.322000, -9.454360
  0.324000, -9.383260
  0.326000, -9.298500
  0.328000, -9.194150
  0.330000, -9.087270
  0.332000, -8.973940
  0.334000, -8.849940
  0.336000, -8.724220
  0.338000, -8.591870
  0.340000, -8.450240
  0.342000, -8.292130
  0.344000, -8.124160
  0.346000, -7.943210
  0.348000, -7.736780
  0.350000, -7.505180
  0.352000, -7.265670
  0.354000, -7.005730
  0.356000, -6.731660
  0.358000, -6.443670
  0.360000, -6.147110
  0.362000, -5.847410
  0.364000, -5.548440
  0.366000, -5.264630
  0.368000, -4.995250
  0.370000, -4.742320
  0.372000, -4.512460
  0.374000, -4.304470
  0.376000, -4.105670
  0.378000, -3.924990
  0.380000, -3.751200
  0.382000, -3.592450
  0.384000, -3.442380
  0.386000, -3.311260
  0.388000, -3.197660
  0.390000, -3.102100
  0.392000, -3.018070
  0.394000, -2.953770
  0.396000, -2.894250
  0.398000, -2.838490
  0.400000, -2.774270
  0.402000, -2.696890
  0.404000, -2.611920
  0.406000, -2.502570
  0.408000, -2.379700
  0.410000, -2.249940
  0.412000, -2.097530
  0.414000, -1.923830
  0.416000, -1.745090
  0.418000, -1.561140
  0.420000, -1.374310
  0.422000, -1.207930
  0.424000, -1.058330
  0.426000, -0.936300
  0.428000, -0.831500
  0.430000, -0.730450
  0.432000, -0.626320
  0.434000, -0.514740
  0.436000, -0.387580
  0.438000, -0.259930
  0.440000, -0.139750
  0.442000, -0.017710
  0.444000,  0.066360
  0.446000,  0.135570
  0.448000,  0.189520
  0.450000,  0.228980
  0.452000,  0.254280
  0.454000,  0.262820
  0.456000,  0.264160
  0.458000,  0.250540
  0.460000,  0.226070
  0.462000,  0.183060
  0.464000,  0.133310
  0.466000,  0.086030
  0.468000,  0.049090
  0.470000,  0.031090
  0.472000,  0.037620
  0.474000,  0.058900
  0.476000,  0.088730
  0.478000,  0.114730
  0.480000,  0.126430
  0.482000,  0.114670
  0.484000,  0.083200
  0.486000,  0.032230
  0.488000, -0.035560
  0.490000, -0.113100
  0.492000, -0.197590
  0.494000, -0.276270
  0.496000, -0.352430
  0.498000, -0.425270
  0.500000, -0.494240
  0.502000, -0.564690
  0.504000, -0.614210
  0.506000, -0.668790
  0.508000, -0.727330
  0.510000, -0.778200
  0.512000, -0.833060
  0.514000, -0.894330
  0.516000, -0.962250
  0.518000, -1.045010
  0.520000, -1.131590
  0.522000, -1.218680
  0.524000, -1.313720
  0.526000, -1.395910
  0.528000, -1.468480
  0.530000, -1.523350
  0.532000, -1.568820
  0.534000, -1.599810
  0.536000, -1.615260
  0.538000, -1.623160
  0.540000, -1.628010
  0.542000, -1.631990
  0.544000, -1.642330
  0.546000, -1.670720
  0.548000, -1.700840
  0.550000, -1.736550
  0.552000, -1.778190
  0.554000, -1.807560
  0.556000, -1.832130
  0.558000, -1.845350
  0.560000, -1.837140
  0.562000, -1.811280
  0.564000, -1.762940
  0.566000, -1.708750
  0.568000, -1.646700
  0.570000, -1.598700
  0.572000, -1.560700
  0.574000, -1.535660
  0.576000, -1.534210
  0.578000, -1.546090
  0.580000, -1.560870
  0.582000, -1.574510
  0.584000, -1.581230
  0.586000, -1.570270
  0.588000, -1.534510
  0.590000, -1.471580
  0.592000, -1.382880
  0.594000, -1.286550
  0.596000, -1.175520
  0.598000, -1.080830
  0.600000, -1.001380
  0.602000, -0.938750
  0.604000, -0.907350
  0.606000, -0.895250
  0.608000, -0.896020
  0.610000, -0.902570
  0.612000, -0.905030
  0.614000, -0.897060
  0.616000, -0.880120
  0.618000, -0.842800
  0.620000, -0.788710
  0.622000, -0.716110
  0.624000, -0.627760
  0.626000, -0.534600
  0.628000, -0.454370
  0.630000, -0.374750
  0.632000, -0.298380
  0.634000, -0.244610
  0.636000, -0.212140
  0.638000, -0.196080
  0.640000, -0.193170
  0.642000, -0.210560
  0.644000, -0.230420
  0.646000, -0.259850
  0.648000, -0.278410
  0.650000, -0.286420
  0.652000, -0.280860
  0.654000, -0.256360
  0.656000, -0.216390
  0.658000, -0.170960
  0.660000, -0.117440
  0.662000, -0.058550
  0.664000, -0.014690
  0.666000,  0.015050
  0.668000,  0.027180
  0.670000,  0.023040
  0.672000,  0.010580
  0.674000, -0.020260
  0.676000, -0.050510
  0.678000, -0.079330
  0.680000, -0.110520
  0.682000, -0.133500
  0.684000, -0.148880
  0.686000, -0.153460
  0.688000, -0.144950
  0.690000, -0.142300
  0.692000, -0.128510
  0.694000, -0.113190
  0.696000, -0.098670
  0.698000, -0.090540
  0.700000, -0.091640
  0.702000, -0.098980
  0.704000, -0.117060
  0.706000, -0.152120
  0.708000, -0.193600
  0.710000, -0.239430
  0.712000, -0.283510
  0.714000, -0.330130
  0.716000, -0.364670
  0.718000, -0.390870
  0.720000, -0.404880
  0.722000, -0.404500
  0.724000, -0.401040
  0.726000, -0.390890
  0.728000, -0.373890
  0.730000, -0.356160
  0.732000, -0.338530
  0.734000, -0.326560
  0.736000, -0.322290
  0.738000, -0.323220
  0.740000, -0.331750
  0.742000, -0.336340
  0.744000, -0.347050
  0.746000, -0.357290
  0.748000, -0.367320
  0.750000, -0.366780
  0.752000, -0.371870
  0.754000, -0.371700
  0.756000, -0.377690
  0.758000, -0.377890
  0.760000, -0.380800
  0.762000, -0.381630
  0.764000, -0.395320
  0.766000, -0.402260
  0.768000, -0.401920
  0.770000, -0.397050
  0.772000, -0.377160
  0.774000, -0.351370
  0.776000, -0.328090
  0.778000, -0.297930
  0.780000, -0.268270
  0.782000, -0.243940
  0.784000, -0.232230
  0.786000, -0.225970
  0.788000, -0.230600
  0.790000, -0.228680
  0.792000, -0.235250
  0.794000, -0.244170
  0.796000, -0.249090
  0.798000, -0.249280
  0.800000, -0.237600
  0.802000, -0.220250
  0.804000, -0.204720
  0.806000, -0.186520
  0.808000, -0.168580
  0.810000, -0.155000
  0.812000, -0.142590
  0.814000, -0.136840
  0.816000, -0.125070
  0.818000, -0.120970
  0.820000, -0.113690
  0.822000, -0.106100
  0.824000, -0.099580
  0.826000, -0.087130
  0.828000, -0.077890
  0.830000, -0.070610
  0.832000, -0.059450
  0.834000, -0.051700
  0.836000, -0.044220
  0.838000, -0.036160
  0.840000, -0.029510
  0.842000, -0.022230
  0.844000, -0.015070
  0.846000, -0.005970
  0.848000,  0.006060
  0.850000,  0.014180
  0.852000,  0.018540
  0.854000,  0.020460
  0.856000,  0.024450
  0.858000,  0.032190
  0.860000,  0.038410
  0.862000,  0.043570
  0.864000,  0.056490
  0.866000,  0.061410
  0.868000,  0.074590
  0.870000,  0.084860
  0.872000,  0.093130
  0.874000,  0.102850
  0.876000,  0.103980
  0.878000,  0.107040
  0.880000,  0.112590
  0.882000,  0.116770
  0.884000,  0.116660
  0.886000,  0.119640
  0.888000,  0.123740
  0.890000,  0.133710
  0.892000,  0.143290
  0.894000,  0.156220
  0.896000,  0.173200
  0.898000,  0.188540
  0.900000,  0.198040
  0.902000,  0.197750
  0.904000,  0.202640
  0.906000,  0.205630
  0.908000,  0.203380
  0.910000,  0.200240
  0.912000,  0.198870
  0.914000,  0.194460
  0.916000,  0.189850
  0.918000,  0.185980
  0.920000,  0.174800
  0.922000,  0.163470
  0.924000,  0.153870
  0.926000,  0.141530
  0.928000,  0.126550
  0.930000,  0.111670
  0.932000,  0.095820
  0.934000,  0.086950
  0.936000,  0.070800
  0.938000,  0.043490
  0.940000,  0.017630
  0.942000, -0.011020
  0.944000, -0.038200
  0.946000, -0.067560
  0.948000, -0.094240
  0.950000, -0.117620
  0.952000, -0.137720
  0.954000, -0.151090
  0.956000, -0.158620
  0.958000, -0.154640
  0.960000, -0.139590
  0.962000, -0.122400
  0.964000, -0.102260
  0.966000, -0.083290
  0.968000, -0.065140
  0.970000, -0.050660
  0.972000, -0.042710
  0.974000, -0.044560
  0.976000, -0.054280
  0.978000, -0.076770
  0.980000, -0.103980
  0.982000, -0.124200
  0.984000, -0.141450
  0.986000, -0.149550
  0.988000, -0.149450
  0.990000, -0.143190
  0.992000, -0.126950
  0.994000, -0.105690
  0.996000, -0.085270
  0.998000, -0.066900
  1.000000, -0.056380
