# z (nm)   (kJ/mol)
  0.128000,277.753220
  0.130000,273.881510
  0.132000,270.660270
  0.134000,267.877590
  0.136000,265.205430
  0.138000,262.509000
  0.140000,259.687470
  0.142000,256.847780
  0.144000,253.952770
  0.146000,250.980470
  0.148000,247.895110
  0.150000,244.694770
  0.152000,241.356100
  0.154000,237.872120
  0.156000,234.231270
  0.158000,230.438500
  0.160000,226.495200
  0.162000,222.414810
  0.164000,218.220670
  0.166000,213.933640
  0.168000,209.575680
  0.170000,205.175960
  0.172000,200.752100
  0.174000,196.323350
  0.176000,191.906490
  0.178000,187.513440
  0.180000,183.162020
  0.182000,178.865680
  0.184000,174.644630
  0.186000,170.505590
  0.188000,166.460910
  0.190000,162.516140
  0.192000,158.667280
  0.194000,154.911380
  0.196000,151.245450
  0.198000,147.661460
  0.200000,144.149930
  0.202000,140.704370
  0.204000,137.321130
  0.206000,133.985650
  0.208000,130.702930
  0.210000,127.461930
  0.212000,124.276130
  0.214000,121.151020
  0.216000,118.087090
  0.218000,115.090510
  0.220000,112.149030
  0.222000,109.251800
  0.224000,106.358610
  0.226000,103.459260
  0.228000,100.527940
  0.230000, 97.566060
  0.232000, 94.596080
  0.234000, 91.650410
  0.236000, 88.772300
  0.238000, 85.994700
  0.240000, 83.333970
  0.242000, 80.777390
  0.244000, 78.308150
  0.246000, 75.884250
  0.248000, 73.488510
  0.250000, 71.109230
  0.252000, 68.731860
  0.254000, 66.353560
  0.256000, 63.988930
  0.258000, 61.656460
  0.260000, 59.351860
  0.262000, 57.096690
  0.264000, 54.911880
  0.266000, 52.794590
  0.268000, 50.766040
  0.270000, 48.815010
  0.272000, 46.929830
  0.274000, 45.105870
  0.276000, 43.326720
  0.278000, 41.584530
  0.280000, 39.871520
  0.282000, 38.178570
  0.284000, 36.506890
  0.286000, 34.852850
  0.288000, 33.222180
  0.290000, 31.621790
  0.292000, 30.060910
  0.294000, 28.548070
  0.296000, 27.086030
  0.298000, 25.689320
  0.300000, 24.354190
  0.302000, 23.082530
  0.304000, 21.863150
  0.306000, 20.696930
  0.308000, 19.565910
  0.310000, 18.454670
  0.312000, 17.357120
  0.314000, 16.271730
  0.316000, 15.204800
  0.318000, 14.162460
  0.320000, 13.152000
  0.322000, 12.181950
  0.324000, 11.259220
  0.326000, 10.384580
  0.328000,  9.566740
  0.330000,  8.785990
  0.332000,  8.044630
  0.334000,  7.333130
  0.336000,  6.653060
  0.338000,  5.990020
  0.340000,  5.353790
  0.342000,  4.743160
  0.344000,  4.162200
  0.346000,  3.614600
  0.348000,  3.095180
  0.350000,  2.611510
  0.352000,  2.165930
  0.354000,  1.746740
  0.356000,  1.347950
  0.358000,  0.974600
  0.360000,  0.616940
  0.362000,  0.272510
  0.364000, -0.060930
  0.366000, -0.381100
  0.368000, -0.686070
  0.370000, -0.976630
  0.372000, -1.247860
  0.374000, -1.501600
  0.376000, -1.732240
  0.378000, -1.946990
  0.380000, -2.130910
  0.382000, -2.296620
  0.384000, -2.449170
  0.386000, -2.583540
  0.388000, -2.707300
  0.390000, -2.823320
  0.392000, -2.930500
  0.394000, -3.030190
  0.396000, -3.125920
  0.398000, -3.217750
  0.400000, -3.301320
  0.402000, -3.378620
  0.404000, -3.441600
  0.406000, -3.502070
  0.408000, -3.559250
  0.410000, -3.605190
  0.412000, -3.647630
  0.414000, -3.682040
  0.416000, -3.700750
  0.418000, -3.719480
  0.420000, -3.726090
  0.422000, -3.719780
  0.424000, -3.716040
  0.426000, -3.705450
  0.428000, -3.688920
  0.430000, -3.670220
  0.432000, -3.651680
  0.434000, -3.633660
  0.436000, -3.616780
  0.438000, -3.599750
  0.440000, -3.588730
  0.442000, -3.582920
  0.444000, -3.584990
  0.446000, -3.593400
  0.448000, -3.602330
  0.450000, -3.614180
  0.452000, -3.619620
  0.454000, -3.625030
  0.456000, -3.614780
  0.458000, -3.599110
  0.460000, -3.568260
  0.462000, -3.522840
  0.464000, -3.463020
  0.466000, -3.382530
  0.468000, -3.298210
  0.470000, -3.202160
  0.472000, -3.104180
  0.474000, -3.005960
  0.476000, -2.912350
  0.478000, -2.816560
  0.480000, -2.719720
  0.482000, -2.626820
  0.484000, -2.537450
  0.486000, -2.443710
  0.488000, -2.341430
  0.490000, -2.231120
  0.492000, -2.109040
  0.494000, -1.975230
  0.496000, -1.836880
  0.498000, -1.693340
  0.500000, -1.544680
  0.502000, -1.393090
  0.504000, -1.243780
  0.506000, -1.104590
  0.508000, -0.967810
  0.510000, -0.841700
  0.512000, -0.722710
  0.514000, -0.614960
  0.516000, -0.515740
  0.518000, -0.422730
  0.520000, -0.337830
  0.522000, -0.242100
  0.524000, -0.155050
  0.526000, -0.059600
  0.528000,  0.041940
  0.530000,  0.143450
  0.532000,  0.248460
  0.534000,  0.347600
  0.536000,  0.455070
  0.538000,  0.549440
  0.540000,  0.631460
  0.542000,  0.705130
  0.544000,  0.773480
  0.546000,  0.837220
  0.548000,  0.884850
  0.550000,  0.924200
  0.552000,  0.957690
  0.554000,  0.987200
  0.556000,  1.014310
  0.558000,  1.042920
  0.560000,  1.073110
  0.562000,  1.103910
  0.564000,  1.142900
  0.566000,  1.177340
  0.568000,  1.208570
  0.570000,  1.238360
  0.572000,  1.259900
  0.574000,  1.278320
  0.576000,  1.294310
  0.578000,  1.288700
  0.580000,  1.287120
  0.582000,  1.278460
  0.584000,  1.260760
  0.586000,  1.248310
  0.588000,  1.232180
  0.590000,  1.216880
  0.592000,  1.202880
  0.594000,  1.188270
  0.596000,  1.167590
  0.598000,  1.144080
  0.600000,  1.113890
  0.602000,  1.079470
  0.604000,  1.040990
  0.606000,  0.996720
  0.608000,  0.948410
  0.610000,  0.904650
  0.612000,  0.867390
  0.614000,  0.838360
  0.616000,  0.813670
  0.618000,  0.792750
  0.620000,  0.778450
  0.622000,  0.757620
  0.624000,  0.736420
  0.626000,  0.715090
  0.628000,  0.690660
  0.630000,  0.652660
  0.632000,  0.610250
  0.634000,  0.554710
  0.636000,  0.495540
  0.638000,  0.433390
  0.640000,  0.368680
  0.642000,  0.305510
  0.644000,  0.250140
  0.646000,  0.202920
  0.648000,  0.163090
  0.650000,  0.130710
  0.652000,  0.105970
  0.654000,  0.087770
  0.656000,  0.066920
  0.658000,  0.051780
  0.660000,  0.040600
  0.662000,  0.028920
  0.664000,  0.016940
  0.666000,  0.009350
  0.668000, -0.001900
  0.670000, -0.017910
  0.672000, -0.028140
  0.674000, -0.046370
  0.676000, -0.061250
  0.678000, -0.078400
  0.680000, -0.100440
  0.682000, -0.122050
  0.684000, -0.141090
  0.686000, -0.160560
  0.688000, -0.180410
  0.690000, -0.200810
  0.692000, -0.214980
  0.694000, -0.232810
  0.696000, -0.253120
  0.698000, -0.266280
  0.700000, -0.274130
  0.702000, -0.286100
  0.704000, -0.283460
  0.706000, -0.280550
  0.708000, -0.273260
  0.710000, -0.257890
  0.712000, -0.241530
  0.714000, -0.218720
  0.716000, -0.192690
  0.718000, -0.167230
  0.720000, -0.139310
  0.722000, -0.112530
  0.724000, -0.090600
  0.726000, -0.073230
  0.728000, -0.059920
  0.730000, -0.053210
  0.732000, -0.044860
  0.734000, -0.038660
  0.736000, -0.037970
  0.738000, -0.036220
  0.740000, -0.034600
  0.742000, -0.031270
  0.744000, -0.021060
  0.746000, -0.010110
  0.748000,  0.003250
  0.750000,  0.018340
  0.752000,  0.032310
  0.754000,  0.051260
  0.756000,  0.077590
  0.758000,  0.096920
  0.760000,  0.121570
  0.762000,  0.149410
  0.764000,  0.178880
  0.766000,  0.209370
  0.768000,  0.242240
  0.770000,  0.264750
  0.772000,  0.296130
  0.774000,  0.322680
  0.776000,  0.356960
  0.778000,  0.389670
  0.780000,  0.414380
  0.782000,  0.437710
  0.784000,  0.459510
  0.786000,  0.477770
  0.788000,  0.489330
  0.790000,  0.516650
  0.792000,  0.527450
  0.794000,  0.538690
  0.796000,  0.555870
  0.798000,  0.574470
  0.800000,  0.589320
  0.802000,  0.608110
  0.804000,  0.625510
  0.806000,  0.643020
  0.808000,  0.662650
  0.810000,  0.676470
  0.812000,  0.693640
  0.814000,  0.705910
  0.816000,  0.710250
  0.818000,  0.716510
  0.820000,  0.723490
  0.822000,  0.736550
  0.824000,  0.754350
  0.826000,  0.769930
  0.828000,  0.792610
  0.830000,  0.817610
  0.832000,  0.843340
  0.834000,  0.875150
  0.836000,  0.900150
  0.838000,  0.922190
  0.840000,  0.939760
  0.842000,  0.951730
  0.844000,  0.956030
  0.846000,  0.953650
  0.848000,  0.942560
  0.850000,  0.926930
  0.852000,  0.913690
  0.854000,  0.897200
  0.856000,  0.883610
  0.858000,  0.870180
  0.860000,  0.861990
  0.862000,  0.856170
  0.864000,  0.849860
  0.866000,  0.844930
  0.868000,  0.841040
  0.870000,  0.837260
  0.872000,  0.832490
  0.874000,  0.824290
  0.876000,  0.813720
  0.878000,  0.796840
  0.880000,  0.775750
  0.882000,  0.750690
  0.884000,  0.722990
  0.886000,  0.688480
  0.888000,  0.653040
  0.890000,  0.618430
  0.892000,  0.589380
  0.894000,  0.561530
  0.896000,  0.530670
  0.898000,  0.504330
  0.900000,  0.484090
  0.902000,  0.464560
  0.904000,  0.442100
  0.906000,  0.419640
  0.908000,  0.398760
  0.910000,  0.371560
  0.912000,  0.340290
  0.914000,  0.307440
  0.916000,  0.267720
  0.918000,  0.235240
  0.920000,  0.199300
  0.922000,  0.158450
  0.924000,  0.125530
  0.926000,  0.091880
  0.928000,  0.061790
  0.930000,  0.030410
  0.932000,  0.007160
  0.934000, -0.013340
  0.936000, -0.028520
  0.938000, -0.048290
  0.940000, -0.062140
  0.942000, -0.077790
  0.944000, -0.083650
  0.946000, -0.080770
  0.948000, -0.073770
  0.950000, -0.064990
  0.952000, -0.053420
  0.954000, -0.039220
  0.956000, -0.026780
  0.958000, -0.020790
  0.960000, -0.026200
  0.962000, -0.043980
  0.964000, -0.072200
  0.966000, -0.110680
  0.968000, -0.161060
  0.970000, -0.216140
  0.972000, -0.266160
  0.974000, -0.314190
  0.976000, -0.340170
  0.978000, -0.347180
  0.980000, -0.336560
  0.982000, -0.308670
  0.984000, -0.264200
  0.986000, -0.209800
  0.988000, -0.153500
  0.990000, -0.096430
  0.992000, -0.046460
  0.994000, -0.002390
  0.996000,  0.016330
  0.998000,  0.026920
  1.000000,  0.024420
