# z (nm)   (kJ/mol)
  0.098000,269.878500
  0.100000,267.741170
  0.102000,265.651730
  0.104000,263.368640
  0.106000,261.134230
  0.108000,258.944020
  0.110000,256.736160
  0.112000,254.497670
  0.114000,252.220440
  0.116000,249.907930
  0.118000,247.488500
  0.120000,244.978200
  0.122000,242.316330
  0.124000,239.510300
  0.126000,236.533080
  0.128000,233.400180
  0.130000,230.092420
  0.132000,226.616970
  0.134000,222.976220
  0.136000,219.165990
  0.138000,215.181720
  0.140000,211.019800
  0.142000,206.684240
  0.144000,202.181120
  0.146000,197.519900
  0.148000,192.742230
  0.150000,187.874710
  0.152000,182.955110
  0.154000,178.027910
  0.156000,173.128710
  0.158000,168.299040
  0.160000,163.578180
  0.162000,159.012510
  0.164000,154.624530
  0.166000,150.424240
  0.168000,146.385250
  0.170000,142.472530
  0.172000,138.630530
  0.174000,134.820130
  0.176000,131.042410
  0.178000,127.324760
  0.180000,123.718450
  0.182000,120.271810
  0.184000,117.004530
  0.186000,113.891180
  0.188000,110.877010
  0.190000,107.885690
  0.192000,104.838260
  0.194000,101.689190
  0.196000, 98.429590
  0.198000, 95.104390
  0.200000, 91.792320
  0.202000, 88.576730
  0.204000, 85.527830
  0.206000, 82.670990
  0.208000, 79.970430
  0.210000, 77.374440
  0.212000, 74.813600
  0.214000, 72.245490
  0.216000, 69.651520
  0.218000, 67.057240
  0.220000, 64.501270
  0.222000, 62.021880
  0.224000, 59.645370
  0.226000, 57.370670
  0.228000, 55.192840
  0.230000, 53.057930
  0.232000, 50.953530
  0.234000, 48.865860
  0.236000, 46.788760
  0.238000, 44.718490
  0.240000, 42.672890
  0.242000, 40.662050
  0.244000, 38.682850
  0.246000, 36.756350
  0.248000, 34.894010
  0.250000, 33.095590
  0.252000, 31.380520
  0.254000, 29.726430
  0.256000, 28.133680
  0.258000, 26.595370
  0.260000, 25.097400
  0.262000, 23.646510
  0.264000, 22.238210
  0.266000, 20.887770
  0.268000, 19.575600
  0.270000, 18.312750
  0.272000, 17.103480
  0.274000, 15.937540
  0.276000, 14.810440
  0.278000, 13.731480
  0.280000, 12.699120
  0.282000, 11.723060
  0.284000, 10.791740
  0.286000,  9.898900
  0.288000,  9.054340
  0.290000,  8.244850
  0.292000,  7.461170
  0.294000,  6.715300
  0.296000,  5.998880
  0.298000,  5.310500
  0.300000,  4.655420
  0.302000,  4.040440
  0.304000,  3.466440
  0.306000,  2.929870
  0.308000,  2.411990
  0.310000,  1.918870
  0.312000,  1.445080
  0.314000,  0.996830
  0.316000,  0.577460
  0.318000,  0.179520
  0.320000, -0.171640
  0.322000, -0.478580
  0.324000, -0.741560
  0.326000, -0.970510
  0.328000, -1.167890
  0.330000, -1.332850
  0.332000, -1.511570
  0.334000, -1.692090
  0.336000, -1.871100
  0.338000, -2.041860
  0.340000, -2.204780
  0.342000, -2.336120
  0.344000, -2.434740
  0.346000, -2.499480
  0.348000, -2.549230
  0.350000, -2.597490
  0.352000, -2.660100
  0.354000, -2.747080
  0.356000, -2.840730
  0.358000, -2.947530
  0.360000, -3.046570
  0.362000, -3.138170
  0.364000, -3.201080
  0.366000, -3.248720
  0.368000, -3.293350
  0.370000, -3.326500
  0.372000, -3.354070
  0.374000, -3.379110
  0.376000, -3.417570
  0.378000, -3.474660
  0.380000, -3.544180
  0.382000, -3.630210
  0.384000, -3.723330
  0.386000, -3.830930
  0.388000, -3.936410
  0.390000, -4.026770
  0.392000, -4.115850
  0.394000, -4.193020
  0.396000, -4.274920
  0.398000, -4.342880
  0.400000, -4.432730
  0.402000, -4.534500
  0.404000, -4.647300
  0.406000, -4.771240
  0.408000, -4.883490
  0.410000, -4.987050
  0.412000, -5.084150
  0.414000, -5.179470
  0.416000, -5.275800
  0.418000, -5.376860
  0.420000, -5.488290
  0.422000, -5.605670
  0.424000, -5.728170
  0.426000, -5.831810
  0.428000, -5.901150
  0.430000, -5.917110
  0.432000, -5.879010
  0.434000, -5.847950
  0.436000, -5.925900
  0.438000, -6.233670
  0.440000, -6.732950
  0.442000, -7.201410
  0.444000, -7.314030
  0.446000, -7.016220
  0.448000, -6.546280
  0.450000, -6.227510
  0.452000, -6.182450
  0.454000, -6.318920
  0.456000, -6.510830
  0.458000, -6.655520
  0.460000, -6.728880
  0.462000, -6.731410
  0.464000, -6.682990
  0.466000, -6.618630
  0.468000, -6.544580
  0.470000, -6.469470
  0.472000, -6.410560
  0.474000, -6.354020
  0.476000, -6.303660
  0.478000, -6.253170
  0.480000, -6.198000
  0.482000, -6.147750
  0.484000, -6.087240
  0.486000, -6.025520
  0.488000, -5.975740
  0.490000, -5.925620
  0.492000, -5.878610
  0.494000, -5.832950
  0.496000, -5.787720
  0.498000, -5.733550
  0.500000, -5.667340
  0.502000, -5.596040
  0.504000, -5.512810
  0.506000, -5.415990
  0.508000, -5.319070
  0.510000, -5.211690
  0.512000, -5.100750
  0.514000, -4.990700
  0.516000, -4.889330
  0.518000, -4.803830
  0.520000, -4.728970
  0.522000, -4.668410
  0.524000, -4.607770
  0.526000, -4.545100
  0.528000, -4.479290
  0.530000, -4.408350
  0.532000, -4.338480
  0.534000, -4.265410
  0.536000, -4.194120
  0.538000, -4.117530
  0.540000, -4.043510
  0.542000, -3.968280
  0.544000, -3.884180
  0.546000, -3.794800
  0.548000, -3.712950
  0.550000, -3.658540
  0.552000, -3.624920
  0.554000, -3.611730
  0.556000, -3.609190
  0.558000, -3.598350
  0.560000, -3.565770
  0.562000, -3.514160
  0.564000, -3.437150
  0.566000, -3.348650
  0.568000, -3.251030
  0.570000, -3.157520
  0.572000, -3.084600
  0.574000, -3.036630
  0.576000, -3.010000
  0.578000, -3.010010
  0.580000, -3.026890
  0.582000, -3.059100
  0.584000, -3.093200
  0.586000, -3.111560
  0.588000, -3.114440
  0.590000, -3.089450
  0.592000, -3.040700
  0.594000, -2.966690
  0.596000, -2.872680
  0.598000, -2.774590
  0.600000, -2.684440
  0.602000, -2.611970
  0.604000, -2.571490
  0.606000, -2.546730
  0.608000, -2.536850
  0.610000, -2.542360
  0.612000, -2.540260
  0.614000, -2.529760
  0.616000, -2.507050
  0.618000, -2.469300
  0.620000, -2.418260
  0.622000, -2.354090
  0.624000, -2.280520
  0.626000, -2.196660
  0.628000, -2.104270
  0.630000, -2.018390
  0.632000, -1.931290
  0.634000, -1.850100
  0.636000, -1.758720
  0.638000, -1.663780
  0.640000, -1.571200
  0.642000, -1.483140
  0.644000, -1.407530
  0.646000, -1.339300
  0.648000, -1.284370
  0.650000, -1.249850
  0.652000, -1.227840
  0.654000, -1.217010
  0.656000, -1.205080
  0.658000, -1.195540
  0.660000, -1.170850
  0.662000, -1.133900
  0.664000, -1.088250
  0.666000, -1.020590
  0.668000, -0.945810
  0.670000, -0.872160
  0.672000, -0.806320
  0.674000, -0.757050
  0.676000, -0.723800
  0.678000, -0.707170
  0.680000, -0.700980
  0.682000, -0.706320
  0.684000, -0.716470
  0.686000, -0.730360
  0.688000, -0.734640
  0.690000, -0.735770
  0.692000, -0.733170
  0.694000, -0.722200
  0.696000, -0.705090
  0.698000, -0.688770
  0.700000, -0.667380
  0.702000, -0.651440
  0.704000, -0.638400
  0.706000, -0.631920
  0.708000, -0.625940
  0.710000, -0.629300
  0.712000, -0.629010
  0.714000, -0.625900
  0.716000, -0.621540
  0.718000, -0.616500
  0.720000, -0.605360
  0.722000, -0.591150
  0.724000, -0.585040
  0.726000, -0.580290
  0.728000, -0.579730
  0.730000, -0.584120
  0.732000, -0.593690
  0.734000, -0.607300
  0.736000, -0.619080
  0.738000, -0.628500
  0.740000, -0.629700
  0.742000, -0.630750
  0.744000, -0.625330
  0.746000, -0.612450
  0.748000, -0.594790
  0.750000, -0.571550
  0.752000, -0.548000
  0.754000, -0.523900
  0.756000, -0.497060
  0.758000, -0.474560
  0.760000, -0.453810
  0.762000, -0.442770
  0.764000, -0.433030
  0.766000, -0.436780
  0.768000, -0.439510
  0.770000, -0.443380
  0.772000, -0.441660
  0.774000, -0.441280
  0.776000, -0.430970
  0.778000, -0.407450
  0.780000, -0.374810
  0.782000, -0.333760
  0.784000, -0.277260
  0.786000, -0.225770
  0.788000, -0.179700
  0.790000, -0.145820
  0.792000, -0.124080
  0.794000, -0.119460
  0.796000, -0.126040
  0.798000, -0.147070
  0.800000, -0.177570
  0.802000, -0.202250
  0.804000, -0.224630
  0.806000, -0.231140
  0.808000, -0.227390
  0.810000, -0.210070
  0.812000, -0.183640
  0.814000, -0.145650
  0.816000, -0.111450
  0.818000, -0.074320
  0.820000, -0.038340
  0.822000, -0.010800
  0.824000,  0.014530
  0.826000,  0.032740
  0.828000,  0.048230
  0.830000,  0.059350
  0.832000,  0.069950
  0.834000,  0.086420
  0.836000,  0.104680
  0.838000,  0.126490
  0.840000,  0.137270
  0.842000,  0.146150
  0.844000,  0.148490
  0.846000,  0.145520
  0.848000,  0.137520
  0.850000,  0.120550
  0.852000,  0.098220
  0.854000,  0.067540
  0.856000,  0.037980
  0.858000,  0.008050
  0.860000, -0.018890
  0.862000, -0.041930
  0.864000, -0.047760
  0.866000, -0.046220
  0.868000, -0.030420
  0.870000, -0.005680
  0.872000,  0.031950
  0.874000,  0.078900
  0.876000,  0.130180
  0.878000,  0.176270
  0.880000,  0.211840
  0.882000,  0.232300
  0.884000,  0.235130
  0.886000,  0.229900
  0.888000,  0.216620
  0.890000,  0.192520
  0.892000,  0.168990
  0.894000,  0.141880
  0.896000,  0.126810
  0.898000,  0.112260
  0.900000,  0.108960
  0.902000,  0.108290
  0.904000,  0.115690
  0.906000,  0.121610
  0.908000,  0.131880
  0.910000,  0.139280
  0.912000,  0.152610
  0.914000,  0.159570
  0.916000,  0.161510
  0.918000,  0.169000
  0.920000,  0.175900
  0.922000,  0.175020
  0.924000,  0.171840
  0.926000,  0.161270
  0.928000,  0.146320
  0.930000,  0.127870
  0.932000,  0.109430
  0.934000,  0.083600
  0.936000,  0.064860
  0.938000,  0.050600
  0.940000,  0.040100
  0.942000,  0.028920
  0.944000,  0.020410
  0.946000,  0.009200
  0.948000, -0.003520
  0.950000, -0.019290
  0.952000, -0.039580
  0.954000, -0.064900
  0.956000, -0.086650
  0.958000, -0.107910
  0.960000, -0.125760
  0.962000, -0.141360
  0.964000, -0.143830
  0.966000, -0.141380
  0.968000, -0.129980
  0.970000, -0.111940
  0.972000, -0.095320
  0.974000, -0.079470
  0.976000, -0.072600
  0.978000, -0.072250
  0.980000, -0.093330
  0.982000, -0.120960
  0.984000, -0.150330
  0.986000, -0.174610
  0.988000, -0.182270
  0.990000, -0.172520
  0.992000, -0.143070
  0.994000, -0.098700
  0.996000, -0.053740
  0.998000, -0.017650
  1.000000,  0.018100
