# z (nm)   (kJ/mol)
  0.0740  254.41828
  0.0760  252.23006
  0.0780  250.08174
  0.0800  247.73734
  0.0820  245.61116
  0.0840  243.43281
  0.0860  241.26159
  0.0880  239.00844
  0.0900  236.73037
  0.0920  234.39946
  0.0940  232.02732
  0.0960  229.57431
  0.0980  227.04514
  0.1000  224.40782
  0.1020  221.64700
  0.1040  218.76145
  0.1060  215.74121
  0.1080  212.59074
  0.1100  209.29921
  0.1120  205.87256
  0.1140  202.31278
  0.1160  198.62545
  0.1180  194.81392
  0.1200  190.87814
  0.1220  186.82675
  0.1240  182.66745
  0.1260  178.41889
  0.1280  174.11360
  0.1300  169.79676
  0.1320  165.52806
  0.1340  161.35798
  0.1360  157.34283
  0.1380  153.50537
  0.1400  149.84392
  0.1420  146.32998
  0.1440  142.90660
  0.1460  139.52802
  0.1480  136.15620
  0.1500  132.77608
  0.1520  129.39989
  0.1540  126.05180
  0.1560  122.75838
  0.1580  119.54000
  0.1600  116.41035
  0.1620  113.35762
  0.1640  110.36127
  0.1660  107.38513
  0.1680  104.38221
  0.1700  101.32404
  0.1720   98.20661
  0.1740   95.07274
  0.1760   91.97216
  0.1780   88.97776
  0.1800   86.13575
  0.1820   83.46338
  0.1840   80.94089
  0.1860   78.51420
  0.1880   76.11647
  0.1900   73.68432
  0.1920   71.18593
  0.1940   68.61208
  0.1960   65.99842
  0.1980   63.36916
  0.2000   60.78147
  0.2020   58.26194
  0.2040   55.83601
  0.2060   53.53036
  0.2080   51.33004
  0.2100   49.25375
  0.2120   47.27892
  0.2140   45.39776
  0.2160   43.58433
  0.2180   41.79473
  0.2200   39.98499
  0.2220   38.10003
  0.2240   36.13912
  0.2260   34.13429
  0.2280   32.17019
  0.2300   30.30176
  0.2320   28.58999
  0.2340   27.03914
  0.2360   25.59766
  0.2380   24.21544
  0.2400   22.84977
  0.2420   21.47495
  0.2440   20.11810
  0.2460   18.80778
  0.2480   17.54740
  0.2500   16.34494
  0.2520   15.19266
  0.2540   14.07168
  0.2560   12.98292
  0.2580   11.92086
  0.2600   10.89946
  0.2620    9.92198
  0.2640    9.00070
  0.2660    8.14962
  0.2680    7.36646
  0.2700    6.65993
  0.2720    6.00601
  0.2740    5.40186
  0.2760    4.80846
  0.2780    4.21647
  0.2800    3.63004
  0.2820    3.03515
  0.2840    2.45112
  0.2860    1.88912
  0.2880    1.35394
  0.2900    0.86114
  0.2920    0.42498
  0.2940    0.03468
  0.2960   -0.29830
  0.2980   -0.58957
  0.3000   -0.85183
  0.3020   -1.11806
  0.3040   -1.38822
  0.3060   -1.67302
  0.3080   -1.95875
  0.3100   -2.23137
  0.3120   -2.48204
  0.3140   -2.70246
  0.3160   -2.89549
  0.3180   -3.06157
  0.3200   -3.20740
  0.3220   -3.34208
  0.3240   -3.46612
  0.3260   -3.59083
  0.3280   -3.71043
  0.3300   -3.81636
  0.3320   -3.90949
  0.3340   -3.98815
  0.3360   -4.05372
  0.3380   -4.10342
  0.3400   -4.13397
  0.3420   -4.14968
  0.3440   -4.15601
  0.3460   -4.13696
  0.3480   -4.09785
  0.3500   -4.03820
  0.3520   -3.96036
  0.3540   -3.87777
  0.3560   -3.79298
  0.3580   -3.72245
  0.3600   -3.67409
  0.3620   -3.65194
  0.3640   -3.66515
  0.3660   -3.69092
  0.3680   -3.72243
  0.3700   -3.73516
  0.3720   -3.72258
  0.3740   -3.68611
  0.3760   -3.63510
  0.3780   -3.59255
  0.3800   -3.58011
  0.3820   -3.60334
  0.3840   -3.67535
  0.3860   -3.78990
  0.3880   -3.93697
  0.3900   -4.09204
  0.3920   -4.24297
  0.3940   -4.37731
  0.3960   -4.47424
  0.3980   -4.54189
  0.4000   -4.57677
  0.4020   -4.57720
  0.4040   -4.57177
  0.4060   -4.56350
  0.4080   -4.54800
  0.4100   -4.54379
  0.4120   -4.56070
  0.4140   -4.58884
  0.4160   -4.63656
  0.4180   -4.69740
  0.4200   -4.75625
  0.4220   -4.80268
  0.4240   -4.82047
  0.4260   -4.80601
  0.4280   -4.74117
  0.4300   -4.63934
  0.4320   -4.50941
  0.4340   -4.36190
  0.4360   -4.20403
  0.4380   -4.05782
  0.4400   -3.92666
  0.4420   -3.80263
  0.4440   -3.69299
  0.4460   -3.58173
  0.4480   -3.47173
  0.4500   -3.33938
  0.4520   -3.18328
  0.4540   -3.00774
  0.4560   -2.80879
  0.4580   -2.58205
  0.4600   -2.36213
  0.4620   -2.13417
  0.4640   -1.90807
  0.4660   -1.69063
  0.4680   -1.48257
  0.4700   -1.27434
  0.4720   -1.08278
  0.4740   -0.90520
  0.4760   -0.73401
  0.4780   -0.58864
  0.4800   -0.45940
  0.4820   -0.34929
  0.4840   -0.24729
  0.4860   -0.15257
  0.4880   -0.07057
  0.4900   -0.00322
  0.4920    0.06098
  0.4940    0.12076
  0.4960    0.17321
  0.4980    0.22542
  0.5000    0.28595
  0.5020    0.34891
  0.5040    0.41060
  0.5060    0.47577
  0.5080    0.53602
  0.5100    0.57213
  0.5120    0.59442
  0.5140    0.59089
  0.5160    0.56768
  0.5180    0.52665
  0.5200    0.47105
  0.5220    0.42030
  0.5240    0.36666
  0.5260    0.31214
  0.5280    0.25702
  0.5300    0.19630
  0.5320    0.12250
  0.5340    0.04606
  0.5360   -0.04698
  0.5380   -0.15177
  0.5400   -0.26335
  0.5420   -0.39033
  0.5440   -0.51141
  0.5460   -0.64150
  0.5480   -0.76740
  0.5500   -0.87282
  0.5520   -0.97199
  0.5540   -1.06702
  0.5560   -1.14349
  0.5580   -1.21194
  0.5600   -1.27358
  0.5620   -1.33513
  0.5640   -1.39148
  0.5660   -1.45807
  0.5680   -1.53776
  0.5700   -1.62695
  0.5720   -1.72854
  0.5740   -1.84910
  0.5760   -1.96643
  0.5780   -2.07334
  0.5800   -2.15440
  0.5820   -2.19284
  0.5840   -2.19149
  0.5860   -2.16663
  0.5880   -2.13392
  0.5900   -2.11136
  0.5920   -2.12626
  0.5940   -2.18714
  0.5960   -2.28288
  0.5980   -2.40078
  0.6000   -2.51270
  0.6020   -2.59565
  0.6040   -2.61903
  0.6060   -2.58031
  0.6080   -2.49947
  0.6100   -2.38940
  0.6120   -2.28231
  0.6140   -2.20396
  0.6160   -2.15894
  0.6180   -2.16294
  0.6200   -2.19184
  0.6220   -2.24359
  0.6240   -2.30595
  0.6260   -2.37033
  0.6280   -2.42217
  0.6300   -2.45960
  0.6320   -2.46449
  0.6340   -2.44800
  0.6360   -2.41056
  0.6380   -2.32609
  0.6400   -2.20128
  0.6420   -2.05920
  0.6440   -1.90219
  0.6460   -1.76062
  0.6480   -1.65731
  0.6500   -1.62500
  0.6520   -1.66131
  0.6540   -1.77662
  0.6560   -1.92376
  0.6580   -2.04405
  0.6600   -2.09089
  0.6620   -2.02609
  0.6640   -1.85596
  0.6660   -1.61627
  0.6680   -1.35895
  0.6700   -1.15537
  0.6720   -1.02950
  0.6740   -0.98937
  0.6760   -1.01667
  0.6780   -1.09019
  0.6800   -1.16854
  0.6820   -1.23094
  0.6840   -1.25951
  0.6860   -1.23642
  0.6880   -1.17831
  0.6900   -1.09442
  0.6920   -0.98424
  0.6940   -0.86838
  0.6960   -0.75725
  0.6980   -0.64553
  0.7000   -0.55287
  0.7020   -0.48649
  0.7040   -0.44331
  0.7060   -0.41889
  0.7080   -0.41079
  0.7100   -0.41773
  0.7120   -0.44461
  0.7140   -0.46485
  0.7160   -0.48225
  0.7180   -0.48967
  0.7200   -0.47997
  0.7220   -0.46005
  0.7240   -0.42710
  0.7260   -0.38797
  0.7280   -0.34496
  0.7300   -0.30353
  0.7320   -0.26392
  0.7340   -0.23855
  0.7360   -0.22581
  0.7380   -0.22216
  0.7400   -0.22518
  0.7420   -0.22686
  0.7440   -0.23155
  0.7460   -0.23235
  0.7480   -0.22333
  0.7500   -0.21249
  0.7520   -0.19518
  0.7540   -0.17760
  0.7560   -0.15595
  0.7580   -0.13628
  0.7600   -0.12348
  0.7620   -0.11770
  0.7640   -0.12030
  0.7660   -0.12594
  0.7680   -0.13381
  0.7700   -0.15037
  0.7720   -0.16477
  0.7740   -0.16923
  0.7760   -0.18197
  0.7780   -0.18674
  0.7800   -0.18220
  0.7820   -0.17417
  0.7840   -0.16071
  0.7860   -0.14224
  0.7880   -0.12452
  0.7900   -0.11340
  0.7920   -0.10556
  0.7940   -0.10595
  0.7960   -0.12142
  0.7980   -0.13154
  0.8000   -0.15986
  0.8020   -0.18781
  0.8040   -0.21795
  0.8060   -0.24811
  0.8080   -0.27554
  0.8100   -0.30382
  0.8120   -0.32020
  0.8140   -0.33386
  0.8160   -0.33784
  0.8180   -0.34046
  0.8200   -0.32827
  0.8220   -0.31223
  0.8240   -0.29725
  0.8260   -0.27976
  0.8280   -0.25972
  0.8300   -0.24671
  0.8320   -0.24093
  0.8340   -0.24323
  0.8360   -0.25620
  0.8380   -0.28410
  0.8400   -0.31720
  0.8420   -0.35303
  0.8440   -0.39202
  0.8460   -0.42326
  0.8480   -0.44173
  0.8500   -0.45134
  0.8520   -0.45326
  0.8540   -0.44369
  0.8560   -0.42353
  0.8580   -0.40391
  0.8600   -0.39740
  0.8620   -0.38877
  0.8640   -0.39285
  0.8660   -0.40536
  0.8680   -0.41948
  0.8700   -0.43694
  0.8720   -0.45023
  0.8740   -0.45817
  0.8760   -0.45602
  0.8780   -0.44123
  0.8800   -0.41437
  0.8820   -0.38534
  0.8840   -0.35785
  0.8860   -0.32173
  0.8880   -0.28797
  0.8900   -0.26320
  0.8920   -0.24131
  0.8940   -0.22845
  0.8960   -0.22498
  0.8980   -0.22296
  0.9000   -0.23381
  0.9020   -0.24399
  0.9040   -0.25867
  0.9060   -0.27937
  0.9080   -0.29864
  0.9100   -0.31184
  0.9120   -0.32184
  0.9140   -0.32666
  0.9160   -0.31630
  0.9180   -0.29901
  0.9200   -0.27600
  0.9220   -0.24247
  0.9240   -0.20017
  0.9260   -0.15387
  0.9280   -0.11332
  0.9300   -0.07376
  0.9320   -0.03932
  0.9340   -0.01354
  0.9360    0.00502
  0.9380    0.01146
  0.9400    0.01098
  0.9420    0.00124
  0.9440    0.00140
  0.9460   -0.00390
  0.9480   -0.00419
  0.9500    0.00545
  0.9520    0.01210
  0.9540    0.03552
  0.9560    0.06879
  0.9580    0.09778
  0.9600    0.13208
  0.9620    0.16285
  0.9640    0.17809
  0.9660    0.19503
  0.9680    0.19810
  0.9700    0.19400
  0.9720    0.18706
  0.9740    0.17296
  0.9760    0.16033
  0.9780    0.14896
  0.9800    0.13969
  0.9820    0.13496
  0.9840    0.13990
  0.9860    0.15112
  0.9880    0.16184
  0.9900    0.17479
  0.9920    0.18683
  0.9940    0.19263
  0.9960    0.18606
  0.9980    0.17268
  1.0000    0.15717
