# z (nm)   (kJ/mol)
  0.100000,253.754640
  0.102000,251.024000
  0.104000,248.293860
  0.106000,245.340720
  0.108000,242.732210
  0.110000,240.090320
  0.112000,237.434170
  0.114000,234.706250
  0.116000,231.883990
  0.118000,228.950860
  0.120000,225.899030
  0.122000,222.707000
  0.124000,219.373400
  0.126000,215.898010
  0.128000,212.280430
  0.130000,208.541000
  0.132000,204.687560
  0.134000,200.737670
  0.136000,196.709810
  0.138000,192.618060
  0.140000,188.475980
  0.142000,184.286390
  0.144000,180.063920
  0.146000,175.823300
  0.148000,171.567200
  0.150000,167.311520
  0.152000,163.080750
  0.154000,158.918770
  0.156000,154.887600
  0.158000,151.055940
  0.160000,147.483000
  0.162000,144.190640
  0.164000,141.155780
  0.166000,138.302720
  0.168000,135.531840
  0.170000,132.761530
  0.172000,129.948080
  0.174000,127.071430
  0.176000,124.151910
  0.178000,121.214790
  0.180000,118.281080
  0.182000,115.375900
  0.184000,112.509450
  0.186000,109.692020
  0.188000,106.911870
  0.190000,104.170050
  0.192000,101.438270
  0.194000, 98.704730
  0.196000, 95.954590
  0.198000, 93.183780
  0.200000, 90.397530
  0.202000, 87.643810
  0.204000, 84.961520
  0.206000, 82.397550
  0.208000, 79.980440
  0.210000, 77.694780
  0.212000, 75.526750
  0.214000, 73.421990
  0.216000, 71.328660
  0.218000, 69.223520
  0.220000, 67.095600
  0.222000, 64.942580
  0.224000, 62.803170
  0.226000, 60.677680
  0.228000, 58.588490
  0.230000, 56.553860
  0.232000, 54.581750
  0.234000, 52.664860
  0.236000, 50.809640
  0.238000, 49.001350
  0.240000, 47.225360
  0.242000, 45.468450
  0.244000, 43.725360
  0.246000, 41.997310
  0.248000, 40.267900
  0.250000, 38.545060
  0.252000, 36.831830
  0.254000, 35.138770
  0.256000, 33.474010
  0.258000, 31.867320
  0.260000, 30.314300
  0.262000, 28.837190
  0.264000, 27.434580
  0.266000, 26.097220
  0.268000, 24.802330
  0.270000, 23.535110
  0.272000, 22.260440
  0.274000, 20.971840
  0.276000, 19.670600
  0.278000, 18.387570
  0.280000, 17.144000
  0.282000, 15.948180
  0.284000, 14.823070
  0.286000, 13.746250
  0.288000, 12.723430
  0.290000, 11.748270
  0.292000, 10.806870
  0.294000,  9.899370
  0.296000,  9.044080
  0.298000,  8.231360
  0.300000,  7.457800
  0.302000,  6.720200
  0.304000,  6.004230
  0.306000,  5.304020
  0.308000,  4.601740
  0.310000,  3.924340
  0.312000,  3.276350
  0.314000,  2.669180
  0.316000,  2.105690
  0.318000,  1.595600
  0.320000,  1.130380
  0.322000,  0.712480
  0.324000,  0.310160
  0.326000, -0.066760
  0.328000, -0.434900
  0.330000, -0.791410
  0.332000, -1.140270
  0.334000, -1.464090
  0.336000, -1.758240
  0.338000, -2.020800
  0.340000, -2.244190
  0.342000, -2.437930
  0.344000, -2.594020
  0.346000, -2.726640
  0.348000, -2.859440
  0.350000, -2.995630
  0.352000, -3.136070
  0.354000, -3.277900
  0.356000, -3.405470
  0.358000, -3.514770
  0.360000, -3.583190
  0.362000, -3.611330
  0.364000, -3.601670
  0.366000, -3.557160
  0.368000, -3.498360
  0.370000, -3.432200
  0.372000, -3.377370
  0.374000, -3.333340
  0.376000, -3.294850
  0.378000, -3.258290
  0.380000, -3.209820
  0.382000, -3.149250
  0.384000, -3.066760
  0.386000, -2.969940
  0.388000, -2.877590
  0.390000, -2.785410
  0.392000, -2.705690
  0.394000, -2.623320
  0.396000, -2.552670
  0.398000, -2.477340
  0.400000, -2.403810
  0.402000, -2.327140
  0.404000, -2.252200
  0.406000, -2.174030
  0.408000, -2.098280
  0.410000, -2.023730
  0.412000, -1.967900
  0.414000, -1.927310
  0.416000, -1.894740
  0.418000, -1.871030
  0.420000, -1.863790
  0.422000, -1.866010
  0.424000, -1.869160
  0.426000, -1.876700
  0.428000, -1.888930
  0.430000, -1.908560
  0.432000, -1.935370
  0.434000, -1.974660
  0.436000, -2.020180
  0.438000, -2.076860
  0.440000, -2.141010
  0.442000, -2.205700
  0.444000, -2.261750
  0.446000, -2.294910
  0.448000, -2.325250
  0.450000, -2.332750
  0.452000, -2.324940
  0.454000, -2.308280
  0.456000, -2.287850
  0.458000, -2.255960
  0.460000, -2.216010
  0.462000, -2.167250
  0.464000, -2.102720
  0.466000, -2.025470
  0.468000, -1.920450
  0.470000, -1.805990
  0.472000, -1.680180
  0.474000, -1.539870
  0.476000, -1.392910
  0.478000, -1.240790
  0.480000, -1.085530
  0.482000, -0.928480
  0.484000, -0.760650
  0.486000, -0.586220
  0.488000, -0.398300
  0.490000, -0.221760
  0.492000, -0.046200
  0.494000,  0.123170
  0.496000,  0.286880
  0.498000,  0.430220
  0.500000,  0.573660
  0.502000,  0.705630
  0.504000,  0.831690
  0.506000,  0.940420
  0.508000,  1.051570
  0.510000,  1.148750
  0.512000,  1.227900
  0.514000,  1.303490
  0.516000,  1.364680
  0.518000,  1.405830
  0.520000,  1.438270
  0.522000,  1.462440
  0.524000,  1.475290
  0.526000,  1.479790
  0.528000,  1.483120
  0.530000,  1.491730
  0.532000,  1.497690
  0.534000,  1.498510
  0.536000,  1.510070
  0.538000,  1.514020
  0.540000,  1.502770
  0.542000,  1.473690
  0.544000,  1.426040
  0.546000,  1.363950
  0.548000,  1.279260
  0.550000,  1.184210
  0.552000,  1.086910
  0.554000,  0.985960
  0.556000,  0.894070
  0.558000,  0.801290
  0.560000,  0.705820
  0.562000,  0.601750
  0.564000,  0.504660
  0.566000,  0.403860
  0.568000,  0.311960
  0.570000,  0.229620
  0.572000,  0.156010
  0.574000,  0.092700
  0.576000,  0.041760
  0.578000, -0.005130
  0.580000, -0.041020
  0.582000, -0.085920
  0.584000, -0.133660
  0.586000, -0.196600
  0.588000, -0.276260
  0.590000, -0.360340
  0.592000, -0.455170
  0.594000, -0.547570
  0.596000, -0.643520
  0.598000, -0.726910
  0.600000, -0.795760
  0.602000, -0.846230
  0.604000, -0.888840
  0.606000, -0.915860
  0.608000, -0.933350
  0.610000, -0.942630
  0.612000, -0.947400
  0.614000, -0.962790
  0.616000, -0.986210
  0.618000, -1.017470
  0.620000, -1.052800
  0.622000, -1.091800
  0.624000, -1.139730
  0.626000, -1.182140
  0.628000, -1.218010
  0.630000, -1.252250
  0.632000, -1.265650
  0.634000, -1.276020
  0.636000, -1.276900
  0.638000, -1.268950
  0.640000, -1.259270
  0.642000, -1.256840
  0.644000, -1.252980
  0.646000, -1.254500
  0.648000, -1.268100
  0.650000, -1.272870
  0.652000, -1.272360
  0.654000, -1.268900
  0.656000, -1.246330
  0.658000, -1.216830
  0.660000, -1.171510
  0.662000, -1.125110
  0.664000, -1.070100
  0.666000, -1.004400
  0.668000, -0.950050
  0.670000, -0.896060
  0.672000, -0.851030
  0.674000, -0.803240
  0.676000, -0.770940
  0.678000, -0.742280
  0.680000, -0.716970
  0.682000, -0.692060
  0.684000, -0.666990
  0.686000, -0.631120
  0.688000, -0.599210
  0.690000, -0.558910
  0.692000, -0.512320
  0.694000, -0.465810
  0.696000, -0.416220
  0.698000, -0.372120
  0.700000, -0.328660
  0.702000, -0.292900
  0.704000, -0.260630
  0.706000, -0.230200
  0.708000, -0.203010
  0.710000, -0.177160
  0.712000, -0.159290
  0.714000, -0.131360
  0.716000, -0.110520
  0.718000, -0.090560
  0.720000, -0.077170
  0.722000, -0.074330
  0.724000, -0.063680
  0.726000, -0.059580
  0.728000, -0.062650
  0.730000, -0.065700
  0.732000, -0.068220
  0.734000, -0.068750
  0.736000, -0.056070
  0.738000, -0.048530
  0.740000, -0.035330
  0.742000, -0.020230
  0.744000, -0.000710
  0.746000,  0.021990
  0.748000,  0.042240
  0.750000,  0.058880
  0.752000,  0.074750
  0.754000,  0.078690
  0.756000,  0.083350
  0.758000,  0.079110
  0.760000,  0.069580
  0.762000,  0.058680
  0.764000,  0.042270
  0.766000,  0.028540
  0.768000,  0.012230
  0.770000,  0.000050
  0.772000, -0.003660
  0.774000, -0.005730
  0.776000,  0.004450
  0.778000,  0.017900
  0.780000,  0.046520
  0.782000,  0.077070
  0.784000,  0.116070
  0.786000,  0.143670
  0.788000,  0.175800
  0.790000,  0.199670
  0.792000,  0.213830
  0.794000,  0.225240
  0.796000,  0.230700
  0.798000,  0.239030
  0.800000,  0.251410
  0.802000,  0.262240
  0.804000,  0.276650
  0.806000,  0.290780
  0.808000,  0.304650
  0.810000,  0.316750
  0.812000,  0.316050
  0.814000,  0.304750
  0.816000,  0.286910
  0.818000,  0.258200
  0.820000,  0.219750
  0.822000,  0.180360
  0.824000,  0.135890
  0.826000,  0.099450
  0.828000,  0.072810
  0.830000,  0.050160
  0.832000,  0.038640
  0.834000,  0.034440
  0.836000,  0.040240
  0.838000,  0.045200
  0.840000,  0.052480
  0.842000,  0.053760
  0.844000,  0.058830
  0.846000,  0.063950
  0.848000,  0.062010
  0.850000,  0.059840
  0.852000,  0.055450
  0.854000,  0.043590
  0.856000,  0.027160
  0.858000,  0.015270
  0.860000, -0.005730
  0.862000, -0.022980
  0.864000, -0.041250
  0.866000, -0.058980
  0.868000, -0.068340
  0.870000, -0.080590
  0.872000, -0.073330
  0.874000, -0.065560
  0.876000, -0.056610
  0.878000, -0.049460
  0.880000, -0.032560
  0.882000, -0.019800
  0.884000, -0.007710
  0.886000,  0.011590
  0.888000,  0.039650
  0.890000,  0.055570
  0.892000,  0.072060
  0.894000,  0.087100
  0.896000,  0.097500
  0.898000,  0.097160
  0.900000,  0.083680
  0.902000,  0.060020
  0.904000,  0.025300
  0.906000, -0.021830
  0.908000, -0.073890
  0.910000, -0.118930
  0.912000, -0.151970
  0.914000, -0.171080
  0.916000, -0.166790
  0.918000, -0.150990
  0.920000, -0.116330
  0.922000, -0.075430
  0.924000, -0.019980
  0.926000,  0.010760
  0.928000,  0.034550
  0.930000,  0.048250
  0.932000,  0.041680
  0.934000,  0.021520
  0.936000, -0.003650
  0.938000, -0.031500
  0.940000, -0.056630
  0.942000, -0.087970
  0.944000, -0.114240
  0.946000, -0.131680
  0.948000, -0.140850
  0.950000, -0.146540
  0.952000, -0.143230
  0.954000, -0.130010
  0.956000, -0.114760
  0.958000, -0.097170
  0.960000, -0.075350
  0.962000, -0.048670
  0.964000, -0.026760
  0.966000,  0.004010
  0.968000,  0.035490
  0.970000,  0.053440
  0.972000,  0.069570
  0.974000,  0.086260
  0.976000,  0.101330
  0.978000,  0.108750
  0.980000,  0.111410
  0.982000,  0.118390
  0.984000,  0.117260
  0.986000,  0.121050
  0.988000,  0.128510
  0.990000,  0.137440
  0.992000,  0.152440
  0.994000,  0.169080
  0.996000,  0.196160
  0.998000,  0.217560
  1.000000,  0.246020
