# z (nm)   (kJ/mol)
  0.148000,252.256260
  0.150000,247.832110
  0.152000,245.132320
  0.154000,242.655250
  0.156000,240.225930
  0.158000,237.676120
  0.160000,235.155270
  0.162000,232.560050
  0.164000,229.926720
  0.166000,227.198220
  0.168000,224.365950
  0.170000,221.402500
  0.172000,218.282360
  0.174000,214.987680
  0.176000,211.504120
  0.178000,207.825070
  0.180000,203.947050
  0.182000,199.898530
  0.184000,195.712180
  0.186000,191.442870
  0.188000,187.140490
  0.190000,182.854380
  0.192000,178.623720
  0.194000,174.477310
  0.196000,170.433720
  0.198000,166.490580
  0.200000,162.639160
  0.202000,158.860280
  0.204000,155.129820
  0.206000,151.438040
  0.208000,147.780950
  0.210000,144.173410
  0.212000,140.627750
  0.214000,137.153800
  0.216000,133.749480
  0.218000,130.397080
  0.220000,127.066200
  0.222000,123.728440
  0.224000,120.374160
  0.226000,117.008680
  0.228000,113.666360
  0.230000,110.398920
  0.232000,107.248170
  0.234000,104.243990
  0.236000,101.389330
  0.238000, 98.645210
  0.240000, 95.961510
  0.242000, 93.285070
  0.244000, 90.594370
  0.246000, 87.886940
  0.248000, 85.177440
  0.250000, 82.482950
  0.252000, 79.790010
  0.254000, 77.101740
  0.256000, 74.440890
  0.258000, 71.848170
  0.260000, 69.401860
  0.262000, 67.142290
  0.264000, 65.061910
  0.266000, 63.079880
  0.268000, 61.104670
  0.270000, 59.056220
  0.272000, 56.921730
  0.274000, 54.752760
  0.276000, 52.627840
  0.278000, 50.623330
  0.280000, 48.788720
  0.282000, 47.093130
  0.284000, 45.476700
  0.286000, 43.868380
  0.288000, 42.226870
  0.290000, 40.565540
  0.292000, 38.929740
  0.294000, 37.337190
  0.296000, 35.772040
  0.298000, 34.208750
  0.300000, 32.633470
  0.302000, 31.062270
  0.304000, 29.522350
  0.306000, 28.054850
  0.308000, 26.669020
  0.310000, 25.352160
  0.312000, 24.086810
  0.314000, 22.848470
  0.316000, 21.632650
  0.318000, 20.428970
  0.320000, 19.238300
  0.322000, 18.050630
  0.324000, 16.863770
  0.326000, 15.685690
  0.328000, 14.526570
  0.330000, 13.402720
  0.332000, 12.329540
  0.334000, 11.301250
  0.336000, 10.320720
  0.338000,  9.395200
  0.340000,  8.512130
  0.342000,  7.658740
  0.344000,  6.829460
  0.346000,  6.021090
  0.348000,  5.230690
  0.350000,  4.468420
  0.352000,  3.740770
  0.354000,  3.045760
  0.356000,  2.389420
  0.358000,  1.776910
  0.360000,  1.208940
  0.362000,  0.683660
  0.364000,  0.186710
  0.366000, -0.285590
  0.368000, -0.753080
  0.370000, -1.221440
  0.372000, -1.694260
  0.374000, -2.163430
  0.376000, -2.619820
  0.378000, -3.042280
  0.380000, -3.422370
  0.382000, -3.762370
  0.384000, -4.071700
  0.386000, -4.365250
  0.388000, -4.673640
  0.390000, -4.997560
  0.392000, -5.337380
  0.394000, -5.691230
  0.396000, -6.038440
  0.398000, -6.381890
  0.400000, -6.708390
  0.402000, -6.998850
  0.404000, -7.254910
  0.406000, -7.468380
  0.408000, -7.663740
  0.410000, -7.834940
  0.412000, -8.009310
  0.414000, -8.190840
  0.416000, -8.377450
  0.418000, -8.560140
  0.420000, -8.718480
  0.422000, -8.848200
  0.424000, -8.943620
  0.426000, -9.020320
  0.428000, -9.083890
  0.430000, -9.134460
  0.432000, -9.176060
  0.434000, -9.200290
  0.436000, -9.211360
  0.438000, -9.213790
  0.440000, -9.218420
  0.442000, -9.225900
  0.444000, -9.233260
  0.446000, -9.246230
  0.448000, -9.261680
  0.450000, -9.267890
  0.452000, -9.259310
  0.454000, -9.254040
  0.456000, -9.258780
  0.458000, -9.266020
  0.460000, -9.276140
  0.462000, -9.246560
  0.464000, -9.164390
  0.466000, -9.011500
  0.468000, -8.822020
  0.470000, -8.616200
  0.472000, -8.442700
  0.474000, -8.309450
  0.476000, -8.215220
  0.478000, -8.133330
  0.480000, -8.044410
  0.482000, -7.907320
  0.484000, -7.723890
  0.486000, -7.508400
  0.488000, -7.259450
  0.490000, -7.007350
  0.492000, -6.756150
  0.494000, -6.494300
  0.496000, -6.235100
  0.498000, -5.975400
  0.500000, -5.720770
  0.502000, -5.473690
  0.504000, -5.227480
  0.506000, -4.981550
  0.508000, -4.728350
  0.510000, -4.462440
  0.512000, -4.184160
  0.514000, -3.900400
  0.516000, -3.613970
  0.518000, -3.337560
  0.520000, -3.081750
  0.522000, -2.850700
  0.524000, -2.637520
  0.526000, -2.441130
  0.528000, -2.260180
  0.530000, -2.087290
  0.532000, -1.906670
  0.534000, -1.729440
  0.536000, -1.538650
  0.538000, -1.351580
  0.540000, -1.174680
  0.542000, -1.014100
  0.544000, -0.877750
  0.546000, -0.767360
  0.548000, -0.684480
  0.550000, -0.630640
  0.552000, -0.599580
  0.554000, -0.588410
  0.556000, -0.581860
  0.558000, -0.577350
  0.560000, -0.573580
  0.562000, -0.579570
  0.564000, -0.598740
  0.566000, -0.618420
  0.568000, -0.633400
  0.570000, -0.633320
  0.572000, -0.608520
  0.574000, -0.560880
  0.576000, -0.494320
  0.578000, -0.436790
  0.580000, -0.402860
  0.582000, -0.401960
  0.584000, -0.437890
  0.586000, -0.510120
  0.588000, -0.594360
  0.590000, -0.667760
  0.592000, -0.721780
  0.594000, -0.740330
  0.596000, -0.746430
  0.598000, -0.740730
  0.600000, -0.735710
  0.602000, -0.739510
  0.604000, -0.755220
  0.606000, -0.776310
  0.608000, -0.792580
  0.610000, -0.810560
  0.612000, -0.830570
  0.614000, -0.845990
  0.616000, -0.861170
  0.618000, -0.871840
  0.620000, -0.890530
  0.622000, -0.916170
  0.624000, -0.943420
  0.626000, -0.961900
  0.628000, -0.981200
  0.630000, -0.976130
  0.632000, -0.957630
  0.634000, -0.919280
  0.636000, -0.865950
  0.638000, -0.801210
  0.640000, -0.729400
  0.642000, -0.670580
  0.644000, -0.617430
  0.646000, -0.583640
  0.648000, -0.563430
  0.650000, -0.554280
  0.652000, -0.552220
  0.654000, -0.550100
  0.656000, -0.544060
  0.658000, -0.527940
  0.660000, -0.493120
  0.662000, -0.450440
  0.664000, -0.402040
  0.666000, -0.354150
  0.668000, -0.302510
  0.670000, -0.262890
  0.672000, -0.245530
  0.674000, -0.235550
  0.676000, -0.241260
  0.678000, -0.260070
  0.680000, -0.276020
  0.682000, -0.285650
  0.684000, -0.286780
  0.686000, -0.278740
  0.688000, -0.252240
  0.690000, -0.219510
  0.692000, -0.176650
  0.694000, -0.143990
  0.696000, -0.121390
  0.698000, -0.111230
  0.700000, -0.115610
  0.702000, -0.129090
  0.704000, -0.162230
  0.706000, -0.193110
  0.708000, -0.226660
  0.710000, -0.261320
  0.712000, -0.291440
  0.714000, -0.317770
  0.716000, -0.336020
  0.718000, -0.342650
  0.720000, -0.345600
  0.722000, -0.338890
  0.724000, -0.332430
  0.726000, -0.327430
  0.728000, -0.312680
  0.730000, -0.303690
  0.732000, -0.301790
  0.734000, -0.303540
  0.736000, -0.307160
  0.738000, -0.324750
  0.740000, -0.351500
  0.742000, -0.376780
  0.744000, -0.399440
  0.746000, -0.424400
  0.748000, -0.443820
  0.750000, -0.451850
  0.752000, -0.452250
  0.754000, -0.444560
  0.756000, -0.435210
  0.758000, -0.425690
  0.760000, -0.425870
  0.762000, -0.438070
  0.764000, -0.465130
  0.766000, -0.497580
  0.768000, -0.548400
  0.770000, -0.604660
  0.772000, -0.656000
  0.774000, -0.701070
  0.776000, -0.732920
  0.778000, -0.741860
  0.780000, -0.743790
  0.782000, -0.732850
  0.784000, -0.703550
  0.786000, -0.679690
  0.788000, -0.651810
  0.790000, -0.641340
  0.792000, -0.646280
  0.794000, -0.668310
  0.796000, -0.701400
  0.798000, -0.739600
  0.800000, -0.789250
  0.802000, -0.832870
  0.804000, -0.866550
  0.806000, -0.882460
  0.808000, -0.888050
  0.810000, -0.872000
  0.812000, -0.839860
  0.814000, -0.799210
  0.816000, -0.751680
  0.818000, -0.709430
  0.820000, -0.670770
  0.822000, -0.641830
  0.824000, -0.625380
  0.826000, -0.611680
  0.828000, -0.602530
  0.830000, -0.581620
  0.832000, -0.557560
  0.834000, -0.527010
  0.836000, -0.493260
  0.838000, -0.472380
  0.840000, -0.457660
  0.842000, -0.448860
  0.844000, -0.433590
  0.846000, -0.406650
  0.848000, -0.358870
  0.850000, -0.296970
  0.852000, -0.224030
  0.854000, -0.158210
  0.856000, -0.097000
  0.858000, -0.049930
  0.860000, -0.018660
  0.862000, -0.001360
  0.864000, -0.006220
  0.866000, -0.018070
  0.868000, -0.050450
  0.870000, -0.077750
  0.872000, -0.101700
  0.874000, -0.121490
  0.876000, -0.125260
  0.878000, -0.122190
  0.880000, -0.110260
  0.882000, -0.096280
  0.884000, -0.080680
  0.886000, -0.063740
  0.888000, -0.059030
  0.890000, -0.053690
  0.892000, -0.055150
  0.894000, -0.058700
  0.896000, -0.058380
  0.898000, -0.058450
  0.900000, -0.052840
  0.902000, -0.059610
  0.904000, -0.058440
  0.906000, -0.057400
  0.908000, -0.066560
  0.910000, -0.067760
  0.912000, -0.070410
  0.914000, -0.078670
  0.916000, -0.089180
  0.918000, -0.099460
  0.920000, -0.100150
  0.922000, -0.103850
  0.924000, -0.097310
  0.926000, -0.086380
  0.928000, -0.073860
  0.930000, -0.047020
  0.932000, -0.023270
  0.934000,  0.026690
  0.936000,  0.069610
  0.938000,  0.121310
  0.940000,  0.174300
  0.942000,  0.217810
  0.944000,  0.237910
  0.946000,  0.233190
  0.948000,  0.211310
  0.950000,  0.174780
  0.952000,  0.124810
  0.954000,  0.083350
  0.956000,  0.046640
  0.958000,  0.033550
  0.960000,  0.031610
  0.962000,  0.052330
  0.964000,  0.080440
  0.966000,  0.111690
  0.968000,  0.138710
  0.970000,  0.148610
  0.972000,  0.136550
  0.974000,  0.112450
  0.976000,  0.074800
  0.978000,  0.027000
  0.980000, -0.017080
  0.982000, -0.064340
  0.984000, -0.118090
  0.986000, -0.169740
  0.988000, -0.222560
  0.990000, -0.254810
  0.992000, -0.257840
  0.994000, -0.216920
  0.996000, -0.136710
  0.998000, -0.049490
  1.000000,  0.017460
