# z (nm)   (kJ/mol)
  0.118000,257.364340
  0.120000,255.249520
  0.122000,253.191400
  0.124000,250.853850
  0.126000,248.850650
  0.128000,253.374780
  0.130000,249.573310
  0.132000,246.791120
  0.134000,244.264090
  0.136000,241.801160
  0.138000,239.395250
  0.140000,236.935540
  0.142000,234.451030
  0.144000,231.899830
  0.146000,229.219180
  0.148000,226.440120
  0.150000,223.524250
  0.152000,220.442780
  0.154000,217.195980
  0.156000,213.782680
  0.158000,210.207530
  0.160000,206.475410
  0.162000,202.605210
  0.164000,198.596860
  0.166000,194.449540
  0.168000,190.151590
  0.170000,185.694350
  0.172000,181.082840
  0.174000,176.345370
  0.176000,171.542640
  0.178000,166.756270
  0.180000,162.077070
  0.182000,157.584760
  0.184000,153.302640
  0.186000,149.213390
  0.188000,145.278740
  0.190000,141.452340
  0.192000,137.682210
  0.194000,133.911310
  0.196000,130.101530
  0.198000,126.248060
  0.200000,122.384350
  0.202000,118.566050
  0.204000,114.832140
  0.206000,111.164680
  0.208000,107.519260
  0.210000,103.866630
  0.212000,100.236830
  0.214000, 96.708140
  0.216000, 93.345880
  0.218000, 90.142440
  0.220000, 87.027840
  0.222000, 83.905250
  0.224000, 80.721110
  0.226000, 77.470080
  0.228000, 74.192480
  0.230000, 70.959960
  0.232000, 67.855370
  0.234000, 64.940000
  0.236000, 62.213930
  0.238000, 59.645100
  0.240000, 57.174750
  0.242000, 54.763060
  0.244000, 52.371130
  0.246000, 50.007860
  0.248000, 47.689190
  0.250000, 45.420920
  0.252000, 43.207140
  0.254000, 41.032630
  0.256000, 38.898440
  0.258000, 36.788710
  0.260000, 34.722580
  0.262000, 32.704320
  0.264000, 30.749800
  0.266000, 28.876700
  0.268000, 27.095560
  0.270000, 25.403620
  0.272000, 23.799780
  0.274000, 22.257810
  0.276000, 20.752780
  0.278000, 19.260270
  0.280000, 17.786900
  0.282000, 16.341900
  0.284000, 14.953340
  0.286000, 13.638550
  0.288000, 12.414330
  0.290000, 11.275160
  0.292000, 10.209110
  0.294000,  9.195480
  0.296000,  8.213710
  0.298000,  7.269770
  0.300000,  6.349010
  0.302000,  5.486030
  0.304000,  4.675390
  0.306000,  3.934650
  0.308000,  3.243430
  0.310000,  2.598580
  0.312000,  1.980030
  0.314000,  1.370710
  0.316000,  0.789480
  0.318000,  0.234350
  0.320000, -0.279210
  0.322000, -0.721690
  0.324000, -1.125710
  0.326000, -1.510490
  0.328000, -1.890640
  0.330000, -2.281840
  0.332000, -2.678530
  0.334000, -3.061680
  0.336000, -3.441190
  0.338000, -3.815810
  0.340000, -4.163450
  0.342000, -4.477700
  0.344000, -4.748680
  0.346000, -4.986020
  0.348000, -5.203540
  0.350000, -5.438620
  0.352000, -5.703110
  0.354000, -5.994620
  0.356000, -6.297390
  0.358000, -6.582140
  0.360000, -6.827930
  0.362000, -7.018950
  0.364000, -7.167030
  0.366000, -7.301640
  0.368000, -7.444560
  0.370000, -7.605060
  0.372000, -7.772520
  0.374000, -7.947940
  0.376000, -8.117650
  0.378000, -8.276520
  0.380000, -8.417360
  0.382000, -8.531740
  0.384000, -8.611800
  0.386000, -8.684290
  0.388000, -8.746650
  0.390000, -8.805320
  0.392000, -8.852050
  0.394000, -8.899180
  0.396000, -8.936620
  0.398000, -8.957670
  0.400000, -8.959510
  0.402000, -8.934970
  0.404000, -8.890370
  0.406000, -8.819780
  0.408000, -8.735670
  0.410000, -8.640590
  0.412000, -8.545390
  0.414000, -8.443610
  0.416000, -8.341750
  0.418000, -8.223420
  0.420000, -8.091830
  0.422000, -7.949100
  0.424000, -7.795120
  0.426000, -7.634810
  0.428000, -7.461220
  0.430000, -7.285260
  0.432000, -7.095140
  0.434000, -6.914260
  0.436000, -6.723700
  0.438000, -6.538600
  0.440000, -6.377100
  0.442000, -6.234330
  0.444000, -6.121270
  0.446000, -6.028120
  0.448000, -5.949470
  0.450000, -5.862640
  0.452000, -5.759460
  0.454000, -5.636060
  0.456000, -5.478300
  0.458000, -5.309760
  0.460000, -5.154210
  0.462000, -5.010060
  0.464000, -4.897420
  0.466000, -4.825020
  0.468000, -4.779330
  0.470000, -4.756510
  0.472000, -4.737950
  0.474000, -4.727910
  0.476000, -4.710220
  0.478000, -4.690120
  0.480000, -4.663970
  0.482000, -4.635170
  0.484000, -4.605160
  0.486000, -4.562810
  0.488000, -4.524750
  0.490000, -4.493960
  0.492000, -4.464320
  0.494000, -4.442260
  0.496000, -4.426010
  0.498000, -4.422910
  0.500000, -4.425290
  0.502000, -4.429700
  0.504000, -4.440940
  0.506000, -4.444340
  0.508000, -4.440110
  0.510000, -4.424700
  0.512000, -4.389430
  0.514000, -4.345390
  0.516000, -4.277890
  0.518000, -4.201210
  0.520000, -4.113890
  0.522000, -4.023100
  0.524000, -3.929810
  0.526000, -3.855390
  0.528000, -3.779470
  0.530000, -3.720960
  0.532000, -3.660320
  0.534000, -3.592200
  0.536000, -3.514950
  0.538000, -3.419440
  0.540000, -3.300070
  0.542000, -3.167160
  0.544000, -3.023020
  0.546000, -2.879970
  0.548000, -2.742530
  0.550000, -2.603100
  0.552000, -2.475370
  0.554000, -2.347400
  0.556000, -2.222020
  0.558000, -2.092750
  0.560000, -1.959150
  0.562000, -1.821510
  0.564000, -1.688710
  0.566000, -1.563160
  0.568000, -1.433020
  0.570000, -1.303080
  0.572000, -1.164180
  0.574000, -1.015560
  0.576000, -0.856700
  0.578000, -0.697820
  0.580000, -0.541630
  0.582000, -0.386360
  0.584000, -0.236630
  0.586000, -0.083740
  0.588000,  0.057140
  0.590000,  0.193070
  0.592000,  0.324640
  0.594000,  0.425900
  0.596000,  0.518480
  0.598000,  0.597650
  0.600000,  0.658010
  0.602000,  0.708650
  0.604000,  0.748120
  0.606000,  0.786190
  0.608000,  0.820440
  0.610000,  0.855490
  0.612000,  0.887740
  0.614000,  0.920650
  0.616000,  0.946570
  0.618000,  0.966510
  0.620000,  0.982410
  0.622000,  0.993990
  0.624000,  0.995330
  0.626000,  0.995180
  0.628000,  0.991820
  0.630000,  0.980140
  0.632000,  0.954710
  0.634000,  0.914920
  0.636000,  0.869470
  0.638000,  0.819910
  0.640000,  0.784280
  0.642000,  0.756080
  0.644000,  0.743200
  0.646000,  0.732210
  0.648000,  0.723620
  0.650000,  0.710250
  0.652000,  0.681720
  0.654000,  0.642940
  0.656000,  0.595500
  0.658000,  0.551300
  0.660000,  0.511080
  0.662000,  0.465430
  0.664000,  0.428540
  0.666000,  0.398690
  0.668000,  0.372370
  0.670000,  0.354760
  0.672000,  0.339600
  0.674000,  0.333020
  0.676000,  0.329530
  0.678000,  0.327830
  0.680000,  0.324570
  0.682000,  0.329630
  0.684000,  0.333830
  0.686000,  0.348090
  0.688000,  0.355660
  0.690000,  0.349690
  0.692000,  0.337440
  0.694000,  0.317600
  0.696000,  0.288870
  0.698000,  0.264870
  0.700000,  0.242000
  0.702000,  0.219660
  0.704000,  0.202350
  0.706000,  0.196690
  0.708000,  0.197720
  0.710000,  0.201280
  0.712000,  0.201960
  0.714000,  0.195270
  0.716000,  0.181760
  0.718000,  0.169100
  0.720000,  0.146240
  0.722000,  0.122020
  0.724000,  0.096680
  0.726000,  0.075130
  0.728000,  0.053970
  0.730000,  0.036070
  0.732000,  0.024050
  0.734000,  0.011100
  0.736000, -0.002380
  0.738000, -0.016650
  0.740000, -0.015490
  0.742000, -0.014500
  0.744000,  0.000660
  0.746000,  0.023230
  0.748000,  0.052750
  0.750000,  0.082910
  0.752000,  0.108380
  0.754000,  0.119120
  0.756000,  0.113100
  0.758000,  0.088290
  0.760000,  0.050870
  0.762000,  0.009600
  0.764000, -0.030590
  0.766000, -0.055470
  0.768000, -0.048340
  0.770000, -0.028060
  0.772000,  0.023960
  0.774000,  0.099080
  0.776000,  0.173900
  0.778000,  0.242780
  0.780000,  0.293630
  0.782000,  0.327270
  0.784000,  0.344130
  0.786000,  0.347500
  0.788000,  0.342730
  0.790000,  0.332760
  0.792000,  0.325180
  0.794000,  0.328730
  0.796000,  0.341080
  0.798000,  0.353120
  0.800000,  0.364610
  0.802000,  0.377490
  0.804000,  0.374200
  0.806000,  0.367120
  0.808000,  0.350600
  0.810000,  0.322910
  0.812000,  0.299640
  0.814000,  0.278170
  0.816000,  0.259380
  0.818000,  0.251610
  0.820000,  0.248890
  0.822000,  0.253070
  0.824000,  0.265550
  0.826000,  0.284180
  0.828000,  0.300540
  0.830000,  0.321070
  0.832000,  0.345660
  0.834000,  0.362710
  0.836000,  0.380930
  0.838000,  0.395630
  0.840000,  0.410800
  0.842000,  0.417860
  0.844000,  0.421840
  0.846000,  0.428290
  0.848000,  0.440940
  0.850000,  0.458050
  0.852000,  0.472100
  0.854000,  0.483850
  0.856000,  0.500630
  0.858000,  0.508290
  0.860000,  0.509510
  0.862000,  0.507740
  0.864000,  0.512780
  0.866000,  0.512750
  0.868000,  0.509920
  0.870000,  0.502390
  0.872000,  0.499510
  0.874000,  0.490870
  0.876000,  0.483540
  0.878000,  0.482440
  0.880000,  0.474580
  0.882000,  0.467750
  0.884000,  0.457980
  0.886000,  0.447830
  0.888000,  0.427460
  0.890000,  0.395320
  0.892000,  0.365540
  0.894000,  0.340230
  0.896000,  0.305100
  0.898000,  0.281250
  0.900000,  0.268200
  0.902000,  0.266570
  0.904000,  0.272270
  0.906000,  0.291340
  0.908000,  0.310340
  0.910000,  0.332620
  0.912000,  0.353560
  0.914000,  0.368280
  0.916000,  0.366970
  0.918000,  0.356120
  0.920000,  0.330890
  0.922000,  0.296200
  0.924000,  0.250410
  0.926000,  0.209060
  0.928000,  0.178550
  0.930000,  0.157700
  0.932000,  0.144030
  0.934000,  0.144560
  0.936000,  0.142540
  0.938000,  0.131490
  0.940000,  0.111900
  0.942000,  0.081470
  0.944000,  0.044020
  0.946000,  0.009160
  0.948000, -0.020620
  0.950000, -0.040860
  0.952000, -0.060930
  0.954000, -0.070160
  0.956000, -0.076290
  0.958000, -0.080480
  0.960000, -0.091500
  0.962000, -0.123500
  0.964000, -0.152230
  0.966000, -0.179270
  0.968000, -0.198040
  0.970000, -0.211210
  0.972000, -0.214410
  0.974000, -0.215280
  0.976000, -0.210110
  0.978000, -0.207610
  0.980000, -0.208150
  0.982000, -0.212880
  0.984000, -0.221540
  0.986000, -0.234330
  0.988000, -0.246500
  0.990000, -0.265500
  0.992000, -0.284310
  0.994000, -0.309660
  0.996000, -0.324060
  0.998000, -0.343210
  1.000000, -0.347410
