# PMF between COM of SHID and Gold slab.
# 
# SHID
# z (nm)   (kJ/mol)
  0.163200,246.203100
  0.166400,238.742700
  0.169600,230.226400
  0.172800,220.625600
  0.176000,209.988800
  0.179200,198.501800
  0.182400,186.487800
  0.185600,174.338800
  0.188800,162.402800
  0.192000,150.992800
  0.195200,140.188800
  0.198400,130.015800
  0.201600,120.827800
  0.204800,112.740800
  0.208000,105.431800
  0.211200, 98.613800
  0.214400, 91.904800
  0.217600, 85.092800
  0.220800, 78.369800
  0.224000, 71.878800
  0.227200, 65.585800
  0.230400, 59.374800
  0.233600, 53.120800
  0.236800, 46.902800
  0.240000, 40.822800
  0.243200, 34.755800
  0.246400, 28.532800
  0.249600, 22.208800
  0.252800, 15.996800
  0.256000, 10.043800
  0.259200,  4.327800
  0.262400, -1.101200
  0.265600, -6.105200
  0.268800,-10.536200
  0.272000,-14.374200
  0.275200,-17.722200
  0.278400,-20.697200
  0.281600,-23.331200
  0.284800,-25.555200
  0.288000,-27.321200
  0.291200,-28.702200
  0.294400,-29.859200
  0.297600,-30.915200
  0.300800,-31.910200
  0.304000,-32.856200
  0.307200,-33.728200
  0.310400,-34.513200
  0.313600,-35.235200
  0.316800,-35.933200
  0.320000,-36.606200
  0.323200,-37.215200
  0.326400,-37.659200
  0.329600,-37.910200
  0.332800,-38.008200
  0.336000,-37.977200
  0.339200,-37.781200
  0.342400,-37.406200
  0.345600,-36.868200
  0.348800,-36.256200
  0.352000,-35.638200
  0.355200,-35.048200
  0.358400,-34.477200
  0.361600,-33.929200
  0.364800,-33.384200
  0.368000,-32.800200
  0.371200,-32.119200
  0.374400,-31.362200
  0.377600,-30.635200
  0.380800,-30.003200
  0.384000,-29.456200
  0.387200,-28.973200
  0.390400,-28.516200
  0.393600,-28.074200
  0.396800,-27.640200
  0.400000,-27.260200
  0.403200,-26.879200
  0.406400,-26.405200
  0.409600,-25.793200
  0.412800,-25.080200
  0.416000,-24.367200
  0.419200,-23.755200
  0.422400,-23.231200
  0.425600,-22.668200
  0.428800,-21.999200
  0.432000,-21.328200
  0.435200,-20.776200
  0.438400,-20.377200
  0.441600,-20.124200
  0.444800,-19.976200
  0.448000,-19.897200
  0.451200,-19.891200
  0.454400,-19.976200
  0.457600,-20.116200
  0.460800,-20.252200
  0.464000,-20.344200
  0.467200,-20.411200
  0.470400,-20.431200
  0.473600,-20.414200
  0.476800,-20.382200
  0.480000,-20.351200
  0.483200,-20.283200
  0.486400,-20.119200
  0.489600,-19.911200
  0.492800,-19.728200
  0.496000,-19.571200
  0.499200,-19.362200
  0.502400,-19.079200
  0.505600,-18.784200
  0.508800,-18.517200
  0.512000,-18.217200
  0.515200,-17.834200
  0.518400,-17.383200
  0.521600,-16.893200
  0.524800,-16.424200
  0.528000,-15.988200
  0.531200,-15.540200
  0.534400,-15.013200
  0.537600,-14.393200
  0.540800,-13.719200
  0.544000,-13.033200
  0.547200,-12.369200
  0.550400,-11.738200
  0.553600,-11.105200
  0.556800,-10.410200
  0.560000, -9.659200
  0.563200, -8.965200
  0.566400, -8.460200
  0.569600, -8.188200
  0.572800, -8.035200
  0.576000, -7.888200
  0.579200, -7.758200
  0.582400, -7.723200
  0.585600, -7.814200
  0.588800, -7.959200
  0.592000, -8.073200
  0.595200, -8.127200
  0.598400, -8.122200
  0.601600, -8.087200
  0.604800, -8.040200
  0.608000, -7.994200
  0.611200, -7.945200
  0.614400, -7.886200
  0.617600, -7.811200
  0.620800, -7.732200
  0.624000, -7.658200
  0.627200, -7.565200
  0.630400, -7.448200
  0.633600, -7.309200
  0.636800, -7.167200
  0.640000, -7.060200
  0.643200, -6.996200
  0.646400, -6.961200
  0.649600, -6.921200
  0.652800, -6.840200
  0.656000, -6.699200
  0.659200, -6.523200
  0.662400, -6.353200
  0.665600, -6.201200
  0.668800, -6.062200
  0.672000, -5.926200
  0.675200, -5.769200
  0.678400, -5.600200
  0.681600, -5.429200
  0.684800, -5.239200
  0.688000, -5.036200
  0.691200, -4.832200
  0.694400, -4.632200
  0.697600, -4.453200
  0.700800, -4.291200
  0.704000, -4.141200
  0.707200, -3.996200
  0.710400, -3.842200
  0.713600, -3.687200
  0.716800, -3.534200
  0.720000, -3.399200
  0.723200, -3.300200
  0.726400, -3.239200
  0.729600, -3.195200
  0.732800, -3.163200
  0.736000, -3.126200
  0.739200, -3.070200
  0.742400, -2.996200
  0.745600, -2.922200
  0.748800, -2.853200
  0.752000, -2.789200
  0.755200, -2.736200
  0.758400, -2.680200
  0.761600, -2.616200
  0.764800, -2.548200
  0.768000, -2.468200
  0.771200, -2.386200
  0.774400, -2.294200
  0.777600, -2.207200
  0.780800, -2.114200
  0.784000, -2.013200
  0.787200, -1.912200
  0.790400, -1.822200
  0.793600, -1.744200
  0.796800, -1.668200
  0.800000, -1.584200
  0.803200, -1.480200
  0.806400, -1.359200
  0.809600, -1.229200
  0.812800, -1.112200
  0.816000, -1.025200
  0.819200, -0.981200
  0.822400, -0.963200
  0.825600, -0.943200
  0.828800, -0.884200
  0.832000, -0.780200
  0.835200, -0.629200
  0.838400, -0.471200
  0.841600, -0.339200
  0.844800, -0.257200
  0.848000, -0.230200
  0.851200, -0.235200
  0.854400, -0.241200
  0.857600, -0.234200
  0.860800, -0.195200
  0.864000, -0.135200
  0.867200, -0.055200
  0.870400,  0.021800
  0.873600,  0.080800
  0.876800,  0.104800
  0.880000,  0.108800
  0.883200,  0.101800
  0.886400,  0.088800
  0.889600,  0.089800
  0.892800,  0.112800
  0.896000,  0.148800
  0.899200,  0.179800
  0.902400,  0.195800
  0.905600,  0.185800
  0.908800,  0.157800
  0.912000,  0.134800
  0.915200,  0.136800
  0.918400,  0.167800
  0.921600,  0.212800
  0.924800,  0.246800
  0.928000,  0.256800
  0.931200,  0.223800
  0.934400,  0.171800
  0.937600,  0.117800
  0.940800,  0.077800
  0.944000,  0.083800
  0.947200,  0.127800
  0.950400,  0.196800
  0.953600,  0.254800
  0.956800,  0.276800
  0.960000,  0.264800
  0.963200,  0.213800
  0.966400,  0.170800
  0.969600,  0.144800
  0.972800,  0.161800
  0.976000,  0.216800
  0.979200,  0.291800
  0.982400,  0.348800
  0.985600,  0.361800
  0.988800,  0.326800
  0.992000,  0.264800
  0.995200,  0.204800
  0.998400,  0.179800
  1.001600,  0.192800
  1.004800,  0.224800
  1.008000,  0.261800
  1.011200,  0.294800
  1.014400,  0.315800
  1.017600,  0.329800
  1.020800,  0.336800
  1.024000,  0.328800
  1.027200,  0.322800
  1.030400,  0.322800
  1.033600,  0.336800
  1.036800,  0.368800
  1.040000,  0.403800
  1.043200,  0.433800
  1.046400,  0.453800
  1.049600,  0.461800
  1.052800,  0.460800
  1.056000,  0.466800
  1.059200,  0.475800
  1.062400,  0.499800
  1.065600,  0.537800
  1.068800,  0.580800
  1.072000,  0.609800
  1.075200,  0.628800
  1.078400,  0.643800
  1.081600,  0.656800
  1.084800,  0.664800
  1.088000,  0.663800
  1.091200,  0.653800
  1.094400,  0.653800
  1.097600,  0.688800
  1.100800,  0.746800
  1.104000,  0.792800
  1.107200,  0.779800
  1.110400,  0.723800
  1.113600,  0.663800
  1.116800,  0.657800
  1.120000,  0.704800
  1.123200,  0.780800
  1.126400,  0.834800
  1.129600,  0.834800
  1.132800,  0.778800
  1.136000,  0.694800
  1.139200,  0.614800
  1.142400,  0.564800
  1.145600,  0.563800
  1.148800,  0.611800
  1.152000,  0.691800
  1.155200,  0.773800
  1.158400,  0.831800
  1.161600,  0.830800
  1.164800,  0.738800
  1.168000,  0.591800
  1.171200,  0.505800
  1.174400,  0.562800
  1.177600,  0.733800
  1.180800,  0.913800
  1.184000,  1.004800
  1.187200,  1.005800
  1.190400,  0.948800
  1.193600,  0.888800
  1.196800,  0.854800
  1.200000,  0.868800
  1.203200,  0.928800
  1.206400,  0.986800
  1.209600,  1.022800
  1.212800,  1.014800
  1.216000,  0.968800
  1.219200,  0.893800
  1.222400,  0.815800
  1.225600,  0.750800
  1.228800,  0.711800
  1.232000,  0.705800
  1.235200,  0.743800
  1.238400,  0.800800
  1.241600,  0.829800
  1.244800,  0.795800
  1.248000,  0.706800
  1.251200,  0.603800
  1.254400,  0.532800
  1.257600,  0.525800
  1.260800,  0.572800
  1.264000,  0.645800
  1.267200,  0.709800
  1.270400,  0.735800
  1.273600,  0.699800
  1.276800,  0.619800
  1.280000,  0.536800
  1.283200,  0.512800
  1.286400,  0.561800
  1.289600,  0.648800
  1.292800,  0.723800
  1.296000,  0.752800
  1.299200,  0.738800
  1.302400,  0.696800
  1.305600,  0.644800
  1.308800,  0.595800
  1.312000,  0.564800
  1.315200,  0.540800
  1.318400,  0.521800
  1.321600,  0.506800
  1.324800,  0.522800
  1.328000,  0.562800
  1.331200,  0.589800
  1.334400,  0.577800
  1.337600,  0.526800
  1.340800,  0.467800
  1.344000,  0.424800
  1.347200,  0.388800
  1.350400,  0.372800
  1.353600,  0.381800
  1.356800,  0.420800
  1.360000,  0.481800
  1.363200,  0.518800
  1.366400,  0.502800
  1.369600,  0.438800
  1.372800,  0.354800
  1.376000,  0.300800
  1.379200,  0.281800
  1.382400,  0.290800
  1.385600,  0.301800
  1.388800,  0.286800
  1.392000,  0.232800
  1.395200,  0.168800
  1.398400,  0.111800
  1.401600,  0.094800
  1.404800,  0.126800
  1.408000,  0.192800
  1.411200,  0.249800
  1.414400,  0.256800
  1.417600,  0.193800
  1.420800,  0.080800
  1.424000, -0.019200
  1.427200, -0.038200
  1.430400,  0.028800
  1.433600,  0.145800
  1.436800,  0.247800
  1.440000,  0.303800
  1.443200,  0.292800
  1.446400,  0.227800
  1.449600,  0.147800
  1.452800,  0.086800
  1.456000,  0.056800
  1.459200,  0.047800
  1.462400,  0.040800
  1.465600,  0.037800
  1.468800,  0.052800
  1.472000,  0.110800
  1.475200,  0.178800
  1.478400,  0.222800
  1.481600,  0.202800
  1.484800,  0.134800
  1.488000,  0.064800
  1.491200,  0.025800
  1.494400, -0.002200
  1.497600, -0.033200
  1.500800, -0.062200
  1.504000, -0.039200
  1.507200,  0.027800
  1.510400,  0.093800
  1.513600,  0.105800
  1.516800,  0.054800
  1.520000, -0.023200
  1.523200, -0.080200
  1.526400, -0.089200
  1.529600, -0.058200
  1.532800, -0.022200
  1.536000, -0.005200
  1.539200, -0.006200
  1.542400, -0.006200
  1.545600,  0.006800
  1.548800,  0.017800
  1.552000, -0.016200
  1.555200, -0.091200
  1.558400, -0.158200
  1.561600, -0.169200
  1.564800, -0.129200
  1.568000, -0.078200
  1.571200, -0.082200
  1.574400, -0.143200
  1.577600, -0.218200
  1.580800, -0.225200
  1.584000, -0.155200
  1.587200, -0.061200
  1.590400, -0.024200
  1.593600, -0.051200
  1.596800, -0.095200
  1.600000, -0.113200
