# PMF between COM of SILE and Gold slab.
# 
# SILE
# z (nm)   (kJ/mol)
  0.201600,244.958160
  0.204800,235.177360
  0.208000,224.159360
  0.211200,211.918260
  0.214400,198.513260
  0.217600,184.171260
  0.220800,169.429260
  0.224000,155.050260
  0.227200,142.145260
  0.230400,131.454260
  0.233600,121.879260
  0.236800,112.188260
  0.240000,102.393260
  0.243200, 92.910260
  0.246400, 84.827260
  0.249600, 77.875260
  0.252800, 71.055260
  0.256000, 64.160260
  0.259200, 57.366260
  0.262400, 50.892260
  0.265600, 44.578260
  0.268800, 38.271260
  0.272000, 32.083260
  0.275200, 26.101260
  0.278400, 20.253260
  0.281600, 14.505260
  0.284800,  8.982260
  0.288000,  3.903260
  0.291200, -0.669740
  0.294400, -4.778740
  0.297600, -8.360740
  0.300800,-11.197740
  0.304000,-13.422740
  0.307200,-15.214740
  0.310400,-16.559740
  0.313600,-17.584740
  0.316800,-18.464740
  0.320000,-19.233740
  0.323200,-19.827740
  0.326400,-20.275740
  0.329600,-20.710740
  0.332800,-21.230740
  0.336000,-21.860740
  0.339200,-22.521740
  0.342400,-23.121740
  0.345600,-23.621740
  0.348800,-24.079740
  0.352000,-24.438740
  0.355200,-24.495740
  0.358400,-24.246740
  0.361600,-23.927740
  0.364800,-23.614740
  0.368000,-23.227740
  0.371200,-22.857740
  0.374400,-22.684740
  0.377600,-22.630740
  0.380800,-22.523740
  0.384000,-22.361740
  0.387200,-22.205740
  0.390400,-22.049740
  0.393600,-21.841740
  0.396800,-21.646740
  0.400000,-21.577740
  0.403200,-21.652740
  0.406400,-21.732740
  0.409600,-21.765740
  0.412800,-21.847740
  0.416000,-22.030740
  0.419200,-22.253740
  0.422400,-22.471740
  0.425600,-22.741740
  0.428800,-23.103740
  0.432000,-23.502740
  0.435200,-23.830740
  0.438400,-23.993740
  0.441600,-23.986740
  0.444800,-23.872740
  0.448000,-23.676740
  0.451200,-23.347740
  0.454400,-22.843740
  0.457600,-22.153740
  0.460800,-21.341740
  0.464000,-20.473740
  0.467200,-19.566740
  0.470400,-18.652740
  0.473600,-17.756740
  0.476800,-16.882740
  0.480000,-16.014740
  0.483200,-15.182740
  0.486400,-14.455740
  0.489600,-13.887740
  0.492800,-13.470740
  0.496000,-13.147740
  0.499200,-12.876740
  0.502400,-12.661740
  0.505600,-12.528740
  0.508800,-12.461740
  0.512000,-12.414740
  0.515200,-12.368740
  0.518400,-12.318740
  0.521600,-12.254740
  0.524800,-12.129740
  0.528000,-11.894740
  0.531200,-11.577740
  0.534400,-11.219740
  0.537600,-10.883740
  0.540800,-10.556740
  0.544000,-10.196740
  0.547200, -9.787740
  0.550400, -9.334740
  0.553600, -8.841740
  0.556800, -8.291740
  0.560000, -7.706740
  0.563200, -7.117740
  0.566400, -6.581740
  0.569600, -6.115740
  0.572800, -5.699740
  0.576000, -5.307740
  0.579200, -4.950740
  0.582400, -4.670740
  0.585600, -4.511740
  0.588800, -4.486740
  0.592000, -4.568740
  0.595200, -4.694740
  0.598400, -4.802740
  0.601600, -4.887740
  0.604800, -4.977740
  0.608000, -5.106740
  0.611200, -5.291740
  0.614400, -5.514740
  0.617600, -5.736740
  0.620800, -5.919740
  0.624000, -6.043740
  0.627200, -6.129740
  0.630400, -6.198740
  0.633600, -6.271740
  0.636800, -6.334740
  0.640000, -6.387740
  0.643200, -6.425740
  0.646400, -6.452740
  0.649600, -6.474740
  0.652800, -6.484740
  0.656000, -6.480740
  0.659200, -6.459740
  0.662400, -6.434740
  0.665600, -6.408740
  0.668800, -6.378740
  0.672000, -6.329740
  0.675200, -6.246740
  0.678400, -6.134740
  0.681600, -6.008740
  0.684800, -5.890740
  0.688000, -5.795740
  0.691200, -5.717740
  0.694400, -5.656740
  0.697600, -5.599740
  0.700800, -5.515740
  0.704000, -5.399740
  0.707200, -5.239740
  0.710400, -5.058740
  0.713600, -4.877740
  0.716800, -4.727740
  0.720000, -4.619740
  0.723200, -4.556740
  0.726400, -4.509740
  0.729600, -4.450740
  0.732800, -4.356740
  0.736000, -4.213740
  0.739200, -4.049740
  0.742400, -3.876740
  0.745600, -3.712740
  0.748800, -3.571740
  0.752000, -3.443740
  0.755200, -3.334740
  0.758400, -3.242740
  0.761600, -3.166740
  0.764800, -3.098740
  0.768000, -3.025740
  0.771200, -2.933740
  0.774400, -2.809740
  0.777600, -2.653740
  0.780800, -2.468740
  0.784000, -2.281740
  0.787200, -2.127740
  0.790400, -2.031740
  0.793600, -1.992740
  0.796800, -1.957740
  0.800000, -1.877740
  0.803200, -1.712740
  0.806400, -1.507740
  0.809600, -1.315740
  0.812800, -1.188740
  0.816000, -1.108740
  0.819200, -1.063740
  0.822400, -1.015740
  0.825600, -0.961740
  0.828800, -0.897740
  0.832000, -0.826740
  0.835200, -0.751740
  0.838400, -0.678740
  0.841600, -0.609740
  0.844800, -0.551740
  0.848000, -0.497740
  0.851200, -0.438740
  0.854400, -0.371740
  0.857600, -0.301740
  0.860800, -0.235740
  0.864000, -0.182740
  0.867200, -0.138740
  0.870400, -0.109740
  0.873600, -0.093740
  0.876800, -0.093740
  0.880000, -0.108740
  0.883200, -0.124740
  0.886400, -0.137740
  0.889600, -0.140740
  0.892800, -0.133740
  0.896000, -0.130740
  0.899200, -0.149740
  0.902400, -0.198740
  0.905600, -0.266740
  0.908800, -0.334740
  0.912000, -0.391740
  0.915200, -0.445740
  0.918400, -0.494740
  0.921600, -0.531740
  0.924800, -0.551740
  0.928000, -0.553740
  0.931200, -0.553740
  0.934400, -0.566740
  0.937600, -0.612740
  0.940800, -0.682740
  0.944000, -0.759740
  0.947200, -0.820740
  0.950400, -0.851740
  0.953600, -0.848740
  0.956800, -0.835740
  0.960000, -0.816740
  0.963200, -0.817740
  0.966400, -0.848740
  0.969600, -0.909740
  0.972800, -0.982740
  0.976000, -1.063740
  0.979200, -1.127740
  0.982400, -1.167740
  0.985600, -1.171740
  0.988800, -1.149740
  0.992000, -1.122740
  0.995200, -1.099740
  0.998400, -1.103740
  1.001600, -1.123740
  1.004800, -1.157740
  1.008000, -1.173740
  1.011200, -1.165740
  1.014400, -1.125740
  1.017600, -1.073740
  1.020800, -1.022740
  1.024000, -0.981740
  1.027200, -0.949740
  1.030400, -0.930740
  1.033600, -0.923740
  1.036800, -0.922740
  1.040000, -0.927740
  1.043200, -0.926740
  1.046400, -0.920740
  1.049600, -0.905740
  1.052800, -0.874740
  1.056000, -0.832740
  1.059200, -0.793740
  1.062400, -0.762740
  1.065600, -0.740740
  1.068800, -0.723740
  1.072000, -0.711740
  1.075200, -0.692740
  1.078400, -0.659740
  1.081600, -0.633740
  1.084800, -0.609740
  1.088000, -0.600740
  1.091200, -0.603740
  1.094400, -0.610740
  1.097600, -0.620740
  1.100800, -0.618740
  1.104000, -0.588740
  1.107200, -0.538740
  1.110400, -0.466740
  1.113600, -0.387740
  1.116800, -0.319740
  1.120000, -0.276740
  1.123200, -0.259740
  1.126400, -0.267740
  1.129600, -0.295740
  1.132800, -0.346740
  1.136000, -0.402740
  1.139200, -0.438740
  1.142400, -0.440740
  1.145600, -0.397740
  1.148800, -0.326740
  1.152000, -0.258740
  1.155200, -0.225740
  1.158400, -0.232740
  1.161600, -0.281740
  1.164800, -0.330740
  1.168000, -0.344740
  1.171200, -0.314740
  1.174400, -0.281740
  1.177600, -0.290740
  1.180800, -0.349740
  1.184000, -0.407740
  1.187200, -0.414740
  1.190400, -0.338740
  1.193600, -0.257740
  1.196800, -0.215740
  1.200000, -0.245740
  1.203200, -0.318740
  1.206400, -0.375740
  1.209600, -0.397740
  1.212800, -0.378740
  1.216000, -0.349740
  1.219200, -0.335740
  1.222400, -0.348740
  1.225600, -0.373740
  1.228800, -0.380740
  1.232000, -0.364740
  1.235200, -0.339740
  1.238400, -0.321740
  1.241600, -0.339740
  1.244800, -0.377740
  1.248000, -0.423740
  1.251200, -0.456740
  1.254400, -0.467740
  1.257600, -0.467740
  1.260800, -0.458740
  1.264000, -0.459740
  1.267200, -0.474740
  1.270400, -0.497740
  1.273600, -0.513740
  1.276800, -0.518740
  1.280000, -0.496740
  1.283200, -0.467740
  1.286400, -0.439740
  1.289600, -0.411740
  1.292800, -0.392740
  1.296000, -0.381740
  1.299200, -0.376740
  1.302400, -0.393740
  1.305600, -0.413740
  1.308800, -0.436740
  1.312000, -0.446740
  1.315200, -0.436740
  1.318400, -0.408740
  1.321600, -0.375740
  1.324800, -0.350740
  1.328000, -0.335740
  1.331200, -0.319740
  1.334400, -0.311740
  1.337600, -0.323740
  1.340800, -0.356740
  1.344000, -0.394740
  1.347200, -0.404740
  1.350400, -0.367740
  1.353600, -0.306740
  1.356800, -0.257740
  1.360000, -0.239740
  1.363200, -0.258740
  1.366400, -0.294740
  1.369600, -0.328740
  1.372800, -0.343740
  1.376000, -0.321740
  1.379200, -0.274740
  1.382400, -0.215740
  1.385600, -0.160740
  1.388800, -0.125740
  1.392000, -0.100740
  1.395200, -0.078740
  1.398400, -0.057740
  1.401600, -0.041740
  1.404800, -0.033740
  1.408000, -0.029740
  1.411200, -0.027740
  1.414400, -0.026740
  1.417600, -0.038740
  1.420800, -0.063740
  1.424000, -0.098740
  1.427200, -0.134740
  1.430400, -0.154740
  1.433600, -0.153740
  1.436800, -0.131740
  1.440000, -0.096740
  1.443200, -0.065740
  1.446400, -0.050740
  1.449600, -0.058740
  1.452800, -0.070740
  1.456000, -0.075740
  1.459200, -0.075740
  1.462400, -0.077740
  1.465600, -0.096740
  1.468800, -0.130740
  1.472000, -0.152740
  1.475200, -0.141740
  1.478400, -0.112740
  1.481600, -0.092740
  1.484800, -0.110740
  1.488000, -0.162740
  1.491200, -0.207740
  1.494400, -0.203740
  1.497600, -0.150740
  1.500800, -0.078740
  1.504000, -0.020740
  1.507200, -0.003740
  1.510400, -0.020740
  1.513600, -0.039740
  1.516800, -0.036740
  1.520000, -0.004740
  1.523200,  0.041260
  1.526400,  0.088260
  1.529600,  0.121260
  1.532800,  0.133260
  1.536000,  0.128260
  1.539200,  0.118260
  1.542400,  0.120260
  1.545600,  0.140260
  1.548800,  0.167260
  1.552000,  0.179260
  1.555200,  0.169260
  1.558400,  0.141260
  1.561600,  0.099260
  1.564800,  0.067260
  1.568000,  0.068260
  1.571200,  0.073260
  1.574400,  0.040260
  1.577600, -0.002740
  1.580800, -0.025740
  1.584000, -0.018740
  1.587200,  0.008260
  1.590400,  0.041260
  1.593600,  0.087260
  1.596800,  0.121260
  1.600000,  0.136260
