# PMF between COM of SPHE and Gold slab.
# 
# SPHE
# z (nm)   (kJ/mol)
  0.140800,246.415100
  0.144000,238.558400
  0.147200,229.227400
  0.150400,218.216300
  0.153600,205.447800
  0.156800,191.257600
  0.160000,176.487600
  0.163200,161.888600
  0.166400,147.604600
  0.169600,133.736600
  0.172800,120.615600
  0.176000,108.157600
  0.179200, 96.194600
  0.182400, 85.491600
  0.185600, 76.191600
  0.188800, 67.114600
  0.192000, 57.614600
  0.195200, 47.717600
  0.198400, 37.963600
  0.201600, 28.821600
  0.204800, 19.960600
  0.208000, 11.324600
  0.211200,  3.231600
  0.214400, -4.211400
  0.217600,-11.038400
  0.220800,-17.114400
  0.224000,-22.430400
  0.227200,-27.164400
  0.230400,-31.405400
  0.233600,-35.076400
  0.236800,-38.124400
  0.240000,-40.584400
  0.243200,-42.699400
  0.246400,-44.715400
  0.249600,-46.602400
  0.252800,-48.186400
  0.256000,-49.364400
  0.259200,-50.192400
  0.262400,-50.827400
  0.265600,-51.364400
  0.268800,-51.772400
  0.272000,-52.005400
  0.275200,-52.094400
  0.278400,-52.123400
  0.281600,-52.144400
  0.284800,-52.179400
  0.288000,-52.247400
  0.291200,-52.333400
  0.294400,-52.412400
  0.297600,-52.482400
  0.300800,-52.556400
  0.304000,-52.576400
  0.307200,-52.440400
  0.310400,-52.151400
  0.313600,-51.900400
  0.316800,-51.825400
  0.320000,-51.823400
  0.323200,-51.628400
  0.326400,-51.197400
  0.329600,-50.679400
  0.332800,-50.183400
  0.336000,-49.657400
  0.339200,-49.046400
  0.342400,-48.408400
  0.345600,-47.928400
  0.348800,-47.705400
  0.352000,-47.653400
  0.355200,-47.610400
  0.358400,-47.525400
  0.361600,-47.491400
  0.364800,-47.523400
  0.368000,-47.499400
  0.371200,-47.351400
  0.374400,-47.203400
  0.377600,-47.151400
  0.380800,-47.192400
  0.384000,-47.261400
  0.387200,-47.303400
  0.390400,-47.315400
  0.393600,-47.330400
  0.396800,-47.333400
  0.400000,-47.252400
  0.403200,-47.006400
  0.406400,-46.596400
  0.409600,-46.067400
  0.412800,-45.441400
  0.416000,-44.708400
  0.419200,-43.923400
  0.422400,-43.194400
  0.425600,-42.642400
  0.428800,-42.316400
  0.432000,-42.196400
  0.435200,-42.233400
  0.438400,-42.407400
  0.441600,-42.710400
  0.444800,-43.082400
  0.448000,-43.462400
  0.451200,-43.785400
  0.454400,-44.027400
  0.457600,-44.162400
  0.460800,-44.160400
  0.464000,-44.036400
  0.467200,-43.805400
  0.470400,-43.414400
  0.473600,-42.804400
  0.476800,-41.950400
  0.480000,-40.938400
  0.483200,-39.871400
  0.486400,-38.794400
  0.489600,-37.639400
  0.492800,-36.345400
  0.496000,-34.925400
  0.499200,-33.471400
  0.502400,-32.031400
  0.505600,-30.631400
  0.508800,-29.244400
  0.512000,-27.861400
  0.515200,-26.556400
  0.518400,-25.435400
  0.521600,-24.511400
  0.524800,-23.688400
  0.528000,-22.901400
  0.531200,-22.165400
  0.534400,-21.535400
  0.537600,-21.005400
  0.540800,-20.529400
  0.544000,-20.040400
  0.547200,-19.483400
  0.550400,-18.880400
  0.553600,-18.266400
  0.556800,-17.682400
  0.560000,-17.129400
  0.563200,-16.554400
  0.566400,-15.904400
  0.569600,-15.169400
  0.572800,-14.379400
  0.576000,-13.590400
  0.579200,-12.820400
  0.582400,-12.066400
  0.585600,-11.343400
  0.588800,-10.673400
  0.592000,-10.101400
  0.595200, -9.650400
  0.598400, -9.302400
  0.601600, -9.034400
  0.604800, -8.811400
  0.608000, -8.610400
  0.611200, -8.417400
  0.614400, -8.240400
  0.617600, -8.103400
  0.620800, -8.012400
  0.624000, -7.951400
  0.627200, -7.894400
  0.630400, -7.827400
  0.633600, -7.733400
  0.636800, -7.618400
  0.640000, -7.476400
  0.643200, -7.347400
  0.646400, -7.255400
  0.649600, -7.198400
  0.652800, -7.153400
  0.656000, -7.100400
  0.659200, -7.015400
  0.662400, -6.896400
  0.665600, -6.757400
  0.668800, -6.611400
  0.672000, -6.463400
  0.675200, -6.303400
  0.678400, -6.127400
  0.681600, -5.926400
  0.684800, -5.729400
  0.688000, -5.547400
  0.691200, -5.386400
  0.694400, -5.242400
  0.697600, -5.105400
  0.700800, -4.963400
  0.704000, -4.776400
  0.707200, -4.545400
  0.710400, -4.282400
  0.713600, -4.025400
  0.716800, -3.807400
  0.720000, -3.631400
  0.723200, -3.486400
  0.726400, -3.362400
  0.729600, -3.222400
  0.732800, -3.053400
  0.736000, -2.884400
  0.739200, -2.732400
  0.742400, -2.600400
  0.745600, -2.472400
  0.748800, -2.343400
  0.752000, -2.227400
  0.755200, -2.143400
  0.758400, -2.102400
  0.761600, -2.098400
  0.764800, -2.095400
  0.768000, -2.057400
  0.771200, -1.971400
  0.774400, -1.831400
  0.777600, -1.682400
  0.780800, -1.558400
  0.784000, -1.515400
  0.787200, -1.551400
  0.790400, -1.635400
  0.793600, -1.698400
  0.796800, -1.706400
  0.800000, -1.653400
  0.803200, -1.584400
  0.806400, -1.539400
  0.809600, -1.511400
  0.812800, -1.487400
  0.816000, -1.450400
  0.819200, -1.391400
  0.822400, -1.308400
  0.825600, -1.229400
  0.828800, -1.161400
  0.832000, -1.122400
  0.835200, -1.125400
  0.838400, -1.156400
  0.841600, -1.191400
  0.844800, -1.194400
  0.848000, -1.144400
  0.851200, -1.043400
  0.854400, -0.919400
  0.857600, -0.810400
  0.860800, -0.754400
  0.864000, -0.755400
  0.867200, -0.786400
  0.870400, -0.812400
  0.873600, -0.793400
  0.876800, -0.727400
  0.880000, -0.638400
  0.883200, -0.570400
  0.886400, -0.527400
  0.889600, -0.495400
  0.892800, -0.462400
  0.896000, -0.411400
  0.899200, -0.345400
  0.902400, -0.280400
  0.905600, -0.234400
  0.908800, -0.208400
  0.912000, -0.194400
  0.915200, -0.165400
  0.918400, -0.111400
  0.921600, -0.036400
  0.924800,  0.055600
  0.928000,  0.129600
  0.931200,  0.170600
  0.934400,  0.179600
  0.937600,  0.170600
  0.940800,  0.166600
  0.944000,  0.176600
  0.947200,  0.202600
  0.950400,  0.245600
  0.953600,  0.295600
  0.956800,  0.335600
  0.960000,  0.354600
  0.963200,  0.353600
  0.966400,  0.315600
  0.969600,  0.259600
  0.972800,  0.214600
  0.976000,  0.204600
  0.979200,  0.243600
  0.982400,  0.313600
  0.985600,  0.387600
  0.988800,  0.437600
  0.992000,  0.449600
  0.995200,  0.424600
  0.998400,  0.380600
  1.001600,  0.344600
  1.004800,  0.332600
  1.008000,  0.346600
  1.011200,  0.366600
  1.014400,  0.368600
  1.017600,  0.350600
  1.020800,  0.319600
  1.024000,  0.294600
  1.027200,  0.281600
  1.030400,  0.288600
  1.033600,  0.318600
  1.036800,  0.360600
  1.040000,  0.393600
  1.043200,  0.396600
  1.046400,  0.356600
  1.049600,  0.287600
  1.052800,  0.214600
  1.056000,  0.184600
  1.059200,  0.208600
  1.062400,  0.250600
  1.065600,  0.254600
  1.068800,  0.182600
  1.072000,  0.076600
  1.075200,  0.004600
  1.078400,  0.031600
  1.081600,  0.126600
  1.084800,  0.207600
  1.088000,  0.223600
  1.091200,  0.173600
  1.094400,  0.117600
  1.097600,  0.084600
  1.100800,  0.089600
  1.104000,  0.121600
  1.107200,  0.150600
  1.110400,  0.150600
  1.113600,  0.117600
  1.116800,  0.082600
  1.120000,  0.060600
  1.123200,  0.047600
  1.126400,  0.037600
  1.129600,  0.023600
  1.132800,  0.016600
  1.136000,  0.003600
  1.139200, -0.011400
  1.142400, -0.010400
  1.145600,  0.023600
  1.148800,  0.083600
  1.152000,  0.129600
  1.155200,  0.139600
  1.158400,  0.122600
  1.161600,  0.107600
  1.164800,  0.109600
  1.168000,  0.131600
  1.171200,  0.162600
  1.174400,  0.197600
  1.177600,  0.242600
  1.180800,  0.273600
  1.184000,  0.285600
  1.187200,  0.281600
  1.190400,  0.287600
  1.193600,  0.291600
  1.196800,  0.294600
  1.200000,  0.278600
  1.203200,  0.264600
  1.206400,  0.262600
  1.209600,  0.280600
  1.212800,  0.308600
  1.216000,  0.331600
  1.219200,  0.333600
  1.222400,  0.321600
  1.225600,  0.300600
  1.228800,  0.277600
  1.232000,  0.256600
  1.235200,  0.250600
  1.238400,  0.258600
  1.241600,  0.293600
  1.244800,  0.349600
  1.248000,  0.415600
  1.251200,  0.471600
  1.254400,  0.508600
  1.257600,  0.513600
  1.260800,  0.488600
  1.264000,  0.443600
  1.267200,  0.392600
  1.270400,  0.348600
  1.273600,  0.332600
  1.276800,  0.340600
  1.280000,  0.348600
  1.283200,  0.347600
  1.286400,  0.340600
  1.289600,  0.355600
  1.292800,  0.404600
  1.296000,  0.458600
  1.299200,  0.468600
  1.302400,  0.416600
  1.305600,  0.321600
  1.308800,  0.223600
  1.312000,  0.146600
  1.315200,  0.094600
  1.318400,  0.081600
  1.321600,  0.094600
  1.324800,  0.134600
  1.328000,  0.157600
  1.331200,  0.140600
  1.334400,  0.086600
  1.337600,  0.007600
  1.340800, -0.050400
  1.344000, -0.061400
  1.347200, -0.037400
  1.350400, -0.000400
  1.353600,  0.013600
  1.356800, -0.003400
  1.360000, -0.042400
  1.363200, -0.074400
  1.366400, -0.075400
  1.369600, -0.039400
  1.372800,  0.009600
  1.376000,  0.042600
  1.379200,  0.026600
  1.382400, -0.017400
  1.385600, -0.056400
  1.388800, -0.066400
  1.392000, -0.060400
  1.395200, -0.050400
  1.398400, -0.048400
  1.401600, -0.052400
  1.404800, -0.059400
  1.408000, -0.068400
  1.411200, -0.094400
  1.414400, -0.150400
  1.417600, -0.221400
  1.420800, -0.243400
  1.424000, -0.204400
  1.427200, -0.155400
  1.430400, -0.150400
  1.433600, -0.207400
  1.436800, -0.275400
  1.440000, -0.312400
  1.443200, -0.316400
  1.446400, -0.291400
  1.449600, -0.257400
  1.452800, -0.240400
  1.456000, -0.237400
  1.459200, -0.249400
  1.462400, -0.266400
  1.465600, -0.265400
  1.468800, -0.228400
  1.472000, -0.168400
  1.475200, -0.113400
  1.478400, -0.089400
  1.481600, -0.102400
  1.484800, -0.113400
  1.488000, -0.080400
  1.491200, -0.020400
  1.494400,  0.021600
  1.497600,  0.029600
  1.500800,  0.011600
  1.504000, -0.014400
  1.507200, -0.030400
  1.510400, -0.040400
  1.513600, -0.032400
  1.516800,  0.001600
  1.520000,  0.043600
  1.523200,  0.073600
  1.526400,  0.087600
  1.529600,  0.103600
  1.532800,  0.113600
  1.536000,  0.111600
  1.539200,  0.094600
  1.542400,  0.086600
  1.545600,  0.115600
  1.548800,  0.174600
  1.552000,  0.201600
  1.555200,  0.179600
  1.558400,  0.135600
  1.561600,  0.126600
  1.564800,  0.146600
  1.568000,  0.185600
  1.571200,  0.193600
  1.574400,  0.157600
  1.577600,  0.097600
  1.580800,  0.052600
  1.584000,  0.041600
  1.587200,  0.058600
  1.590400,  0.097600
  1.593600,  0.125600
  1.596800,  0.144600
  1.600000,  0.143600
