# z (nm)   (kJ/mol)
  0.0860  266.88807
  0.0880  264.52154
  0.0900  261.68789
  0.0920  259.10310
  0.0940  256.65019
  0.0960  254.02163
  0.0980  251.50846
  0.1000  248.98038
  0.1020  246.39342
  0.1040  243.73225
  0.1060  240.99103
  0.1080  238.17882
  0.1100  235.26111
  0.1120  232.23261
  0.1140  229.08074
  0.1160  225.79707
  0.1180  222.38456
  0.1200  218.83723
  0.1220  215.15702
  0.1240  211.34808
  0.1260  207.41745
  0.1280  203.36203
  0.1300  199.19986
  0.1320  194.93542
  0.1340  190.58698
  0.1360  186.16793
  0.1380  181.70160
  0.1400  177.21689
  0.1420  172.73659
  0.1440  168.29154
  0.1460  163.89100
  0.1480  159.55143
  0.1500  155.27976
  0.1520  151.08033
  0.1540  146.95084
  0.1560  142.89778
  0.1580  138.92830
  0.1600  135.04275
  0.1620  131.23598
  0.1640  127.51088
  0.1660  123.85503
  0.1680  120.26169
  0.1700  116.71942
  0.1720  113.22137
  0.1740  109.75067
  0.1760  106.30683
  0.1780  102.87205
  0.1800   99.43467
  0.1820   95.99691
  0.1840   92.56767
  0.1860   89.17350
  0.1880   85.84877
  0.1900   82.61566
  0.1920   79.48854
  0.1940   76.47073
  0.1960   73.53532
  0.1980   70.66585
  0.2000   67.82816
  0.2020   64.99575
  0.2040   62.14988
  0.2060   59.29123
  0.2080   56.43857
  0.2100   53.61257
  0.2120   50.84364
  0.2140   48.16396
  0.2160   45.57491
  0.2180   43.08222
  0.2200   40.68053
  0.2220   38.34892
  0.2240   36.06961
  0.2260   33.82085
  0.2280   31.59587
  0.2300   29.38753
  0.2320   27.19422
  0.2340   25.02934
  0.2360   22.90378
  0.2380   20.82900
  0.2400   18.82650
  0.2420   16.90716
  0.2440   15.06365
  0.2460   13.28341
  0.2480   11.56569
  0.2500    9.88764
  0.2520    8.23705
  0.2540    6.62809
  0.2560    5.05487
  0.2580    3.52442
  0.2600    2.03781
  0.2620    0.60061
  0.2640   -0.77831
  0.2660   -2.10679
  0.2680   -3.38201
  0.2700   -4.60312
  0.2720   -5.77166
  0.2740   -6.88714
  0.2760   -7.95901
  0.2780   -8.97857
  0.2800   -9.95948
  0.2820  -10.89458
  0.2840  -11.79304
  0.2860  -12.65097
  0.2880  -13.46004
  0.2900  -14.22466
  0.2920  -14.94158
  0.2940  -15.60224
  0.2960  -16.20702
  0.2980  -16.75870
  0.3000  -17.25852
  0.3020  -17.70898
  0.3040  -18.13109
  0.3060  -18.52732
  0.3080  -18.89586
  0.3100  -19.24823
  0.3120  -19.58172
  0.3140  -19.88548
  0.3160  -20.14941
  0.3180  -20.35796
  0.3200  -20.50705
  0.3220  -20.60113
  0.3240  -20.63784
  0.3260  -20.61117
  0.3280  -20.55119
  0.3300  -20.46205
  0.3320  -20.35696
  0.3340  -20.24894
  0.3360  -20.12445
  0.3380  -19.99211
  0.3400  -19.82791
  0.3420  -19.62540
  0.3440  -19.39275
  0.3460  -19.10842
  0.3480  -18.78617
  0.3500  -18.43956
  0.3520  -18.07599
  0.3540  -17.70549
  0.3560  -17.33549
  0.3580  -16.97181
  0.3600  -16.61155
  0.3620  -16.25485
  0.3640  -15.89982
  0.3660  -15.53757
  0.3680  -15.16476
  0.3700  -14.79044
  0.3720  -14.39529
  0.3740  -14.00052
  0.3760  -13.61879
  0.3780  -13.25305
  0.3800  -12.90712
  0.3820  -12.60307
  0.3840  -12.32679
  0.3860  -12.07664
  0.3880  -11.85039
  0.3900  -11.62826
  0.3920  -11.41636
  0.3940  -11.22432
  0.3960  -11.04492
  0.3980  -10.88652
  0.4000  -10.75845
  0.4020  -10.65760
  0.4040  -10.58000
  0.4060  -10.52399
  0.4080  -10.47996
  0.4100  -10.43885
  0.4120  -10.38599
  0.4140  -10.33139
  0.4160  -10.27132
  0.4180  -10.20723
  0.4200  -10.14281
  0.4220  -10.08192
  0.4240  -10.05151
  0.4260  -10.04404
  0.4280  -10.06041
  0.4300  -10.09072
  0.4320  -10.13473
  0.4340  -10.18618
  0.4360  -10.24014
  0.4380  -10.27792
  0.4400  -10.30181
  0.4420  -10.30707
  0.4440  -10.29796
  0.4460  -10.28256
  0.4480  -10.26148
  0.4500  -10.24783
  0.4520  -10.23973
  0.4540  -10.24686
  0.4560  -10.26105
  0.4580  -10.27056
  0.4600  -10.27422
  0.4620  -10.26213
  0.4640  -10.24555
  0.4660  -10.22076
  0.4680  -10.18265
  0.4700  -10.14377
  0.4720  -10.10378
  0.4740  -10.05637
  0.4760  -10.00683
  0.4780   -9.94152
  0.4800   -9.87209
  0.4820   -9.78014
  0.4840   -9.68708
  0.4860   -9.58347
  0.4880   -9.47590
  0.4900   -9.36747
  0.4920   -9.26064
  0.4940   -9.15843
  0.4960   -9.05798
  0.4980   -8.95477
  0.5000   -8.85431
  0.5020   -8.74549
  0.5040   -8.64290
  0.5060   -8.53376
  0.5080   -8.43041
  0.5100   -8.33173
  0.5120   -8.23373
  0.5140   -8.14277
  0.5160   -8.04376
  0.5180   -7.93717
  0.5200   -7.82965
  0.5220   -7.72942
  0.5240   -7.62519
  0.5260   -7.52849
  0.5280   -7.44349
  0.5300   -7.38278
  0.5320   -7.33005
  0.5340   -7.28229
  0.5360   -7.23378
  0.5380   -7.18005
  0.5400   -7.11672
  0.5420   -7.05711
  0.5440   -6.98928
  0.5460   -6.92732
  0.5480   -6.86471
  0.5500   -6.80460
  0.5520   -6.73848
  0.5540   -6.67948
  0.5560   -6.60412
  0.5580   -6.52024
  0.5600   -6.43163
  0.5620   -6.34184
  0.5640   -6.24732
  0.5660   -6.15540
  0.5680   -6.06850
  0.5700   -5.97798
  0.5720   -5.89169
  0.5740   -5.80704
  0.5760   -5.72093
  0.5780   -5.63637
  0.5800   -5.54677
  0.5820   -5.45716
  0.5840   -5.36228
  0.5860   -5.26442
  0.5880   -5.16638
  0.5900   -5.06636
  0.5920   -4.96369
  0.5940   -4.85662
  0.5960   -4.74521
  0.5980   -4.62784
  0.6000   -4.50441
  0.6020   -4.37293
  0.6040   -4.22459
  0.6060   -4.06769
  0.6080   -3.91033
  0.6100   -3.75624
  0.6120   -3.60839
  0.6140   -3.46566
  0.6160   -3.33699
  0.6180   -3.21511
  0.6200   -3.09971
  0.6220   -2.98611
  0.6240   -2.87382
  0.6260   -2.75442
  0.6280   -2.62908
  0.6300   -2.49975
  0.6320   -2.36226
  0.6340   -2.22574
  0.6360   -2.07405
  0.6380   -1.92069
  0.6400   -1.76484
  0.6420   -1.61004
  0.6440   -1.45534
  0.6460   -1.30721
  0.6480   -1.17381
  0.6500   -1.04516
  0.6520   -0.92850
  0.6540   -0.82484
  0.6560   -0.71878
  0.6580   -0.61671
  0.6600   -0.51502
  0.6620   -0.40716
  0.6640   -0.29037
  0.6660   -0.17673
  0.6680   -0.06557
  0.6700    0.04563
  0.6720    0.14028
  0.6740    0.21405
  0.6760    0.27575
  0.6780    0.32813
  0.6800    0.36445
  0.6820    0.39687
  0.6840    0.43033
  0.6860    0.46548
  0.6880    0.49944
  0.6900    0.53714
  0.6920    0.58163
  0.6940    0.62349
  0.6960    0.66877
  0.6980    0.71043
  0.7000    0.74317
  0.7020    0.77365
  0.7040    0.79445
  0.7060    0.79945
  0.7080    0.79076
  0.7100    0.77174
  0.7120    0.74242
  0.7140    0.70429
  0.7160    0.65702
  0.7180    0.61065
  0.7200    0.55710
  0.7220    0.49821
  0.7240    0.44300
  0.7260    0.39466
  0.7280    0.35601
  0.7300    0.31835
  0.7320    0.28395
  0.7340    0.25702
  0.7360    0.23536
  0.7380    0.21655
  0.7400    0.20448
  0.7420    0.19205
  0.7440    0.18439
  0.7460    0.16827
  0.7480    0.14589
  0.7500    0.11016
  0.7520    0.05016
  0.7540   -0.02355
  0.7560   -0.11596
  0.7580   -0.21683
  0.7600   -0.31133
  0.7620   -0.38959
  0.7640   -0.44381
  0.7660   -0.47928
  0.7680   -0.49016
  0.7700   -0.49118
  0.7720   -0.48759
  0.7740   -0.48630
  0.7760   -0.49510
  0.7780   -0.50896
  0.7800   -0.53249
  0.7820   -0.56636
  0.7840   -0.60313
  0.7860   -0.64624
  0.7880   -0.68948
  0.7900   -0.73146
  0.7920   -0.77488
  0.7940   -0.81105
  0.7960   -0.83857
  0.7980   -0.84749
  0.8000   -0.84550
  0.8020   -0.83201
  0.8040   -0.81283
  0.8060   -0.79025
  0.8080   -0.76609
  0.8100   -0.75563
  0.8120   -0.74813
  0.8140   -0.75223
  0.8160   -0.75856
  0.8180   -0.77526
  0.8200   -0.79318
  0.8220   -0.81390
  0.8240   -0.83287
  0.8260   -0.85257
  0.8280   -0.86425
  0.8300   -0.87863
  0.8320   -0.88475
  0.8340   -0.88823
  0.8360   -0.89780
  0.8380   -0.89994
  0.8400   -0.89359
  0.8420   -0.87556
  0.8440   -0.85728
  0.8460   -0.83020
  0.8480   -0.80619
  0.8500   -0.78904
  0.8520   -0.77906
  0.8540   -0.77492
  0.8560   -0.77558
  0.8580   -0.77964
  0.8600   -0.78526
  0.8620   -0.78959
  0.8640   -0.78700
  0.8660   -0.77869
  0.8680   -0.76806
  0.8700   -0.75540
  0.8720   -0.74024
  0.8740   -0.72929
  0.8760   -0.71381
  0.8780   -0.69684
  0.8800   -0.68415
  0.8820   -0.66191
  0.8840   -0.64704
  0.8860   -0.62621
  0.8880   -0.60983
  0.8900   -0.58895
  0.8920   -0.57065
  0.8940   -0.54993
  0.8960   -0.52298
  0.8980   -0.49363
  0.9000   -0.46998
  0.9020   -0.44101
  0.9040   -0.41148
  0.9060   -0.38034
  0.9080   -0.35593
  0.9100   -0.33761
  0.9120   -0.31918
  0.9140   -0.29497
  0.9160   -0.27495
  0.9180   -0.25213
  0.9200   -0.21935
  0.9220   -0.18093
  0.9240   -0.14649
  0.9260   -0.11485
  0.9280   -0.08650
  0.9300   -0.06387
  0.9320   -0.04388
  0.9340   -0.04412
  0.9360   -0.03503
  0.9380   -0.04048
  0.9400   -0.04629
  0.9420   -0.04415
  0.9440   -0.03527
  0.9460   -0.01745
  0.9480    0.00152
  0.9500    0.02661
  0.9520    0.05184
  0.9540    0.07537
  0.9560    0.09922
  0.9580    0.11806
  0.9600    0.13245
  0.9620    0.13866
  0.9640    0.14634
  0.9660    0.14813
  0.9680    0.15222
  0.9700    0.15770
  0.9720    0.15386
  0.9740    0.15456
  0.9760    0.16147
  0.9780    0.17166
  0.9800    0.18290
  0.9820    0.20018
  0.9840    0.21415
  0.9860    0.22557
  0.9880    0.22664
  0.9900    0.22429
  0.9920    0.21226
  0.9940    0.21035
  0.9960    0.20300
  0.9980    0.19556
  1.0000    0.20168
