# z (nm)   (kJ/mol)
  0.427000, 55.190100
  0.429000, 54.098900
  0.431000, 52.990300
  0.433000, 51.799900
  0.435000, 50.574000
  0.437000, 49.386400
  0.439000, 48.181600
  0.441000, 46.917100
  0.443000, 45.679000
  0.445000, 44.438300
  0.447000, 43.187700
  0.449000, 41.931400
  0.451000, 40.682800
  0.453000, 39.445000
  0.455000, 38.199600
  0.457000, 36.964600
  0.459000, 35.749100
  0.461000, 34.552300
  0.463000, 33.382300
  0.465000, 32.232500
  0.467000, 31.103000
  0.469000, 30.003500
  0.471000, 28.929400
  0.473000, 27.878300
  0.475000, 26.861100
  0.477000, 25.873600
  0.479000, 24.915900
  0.481000, 23.991600
  0.483000, 23.101800
  0.485000, 22.244600
  0.487000, 21.418900
  0.489000, 20.626400
  0.491000, 19.865100
  0.493000, 19.137400
  0.495000, 18.439800
  0.497000, 17.771300
  0.499000, 17.133500
  0.501000, 16.526700
  0.503000, 15.945000
  0.505000, 15.387700
  0.507000, 14.859600
  0.509000, 14.355700
  0.511000, 13.873000
  0.513000, 13.414400
  0.515000, 12.979200
  0.517000, 12.564500
  0.519000, 12.170800
  0.521000, 11.795100
  0.523000, 11.437500
  0.525000, 11.100000
  0.527000, 10.780300
  0.529000, 10.476500
  0.531000, 10.187400
  0.533000,  9.912100
  0.535000,  9.650300
  0.537000,  9.402600
  0.539000,  9.170300
  0.541000,  8.952400
  0.543000,  8.745400
  0.545000,  8.550200
  0.547000,  8.366300
  0.549000,  8.191900
  0.551000,  8.028200
  0.553000,  7.875700
  0.555000,  7.731500
  0.557000,  7.590700
  0.559000,  7.457200
  0.561000,  7.333100
  0.563000,  7.211600
  0.565000,  7.095500
  0.567000,  6.985000
  0.569000,  6.876400
  0.571000,  6.770600
  0.573000,  6.667000
  0.575000,  6.564400
  0.577000,  6.461100
  0.579000,  6.357600
  0.581000,  6.252300
  0.583000,  6.143400
  0.585000,  6.032500
  0.587000,  5.918500
  0.589000,  5.800800
  0.591000,  5.680000
  0.593000,  5.555700
  0.595000,  5.427400
  0.597000,  5.295300
  0.599000,  5.159800
  0.601000,  5.020500
  0.603000,  4.877000
  0.605000,  4.730300
  0.607000,  4.580500
  0.609000,  4.428100
  0.611000,  4.272800
  0.613000,  4.114200
  0.615000,  3.954300
  0.617000,  3.792700
  0.619000,  3.629200
  0.621000,  3.465100
  0.623000,  3.299900
  0.625000,  3.134900
  0.627000,  2.971100
  0.629000,  2.807800
  0.631000,  2.644800
  0.633000,  2.482800
  0.635000,  2.323400
  0.637000,  2.165800
  0.639000,  2.010300
  0.641000,  1.857800
  0.643000,  1.708200
  0.645000,  1.562200
  0.647000,  1.420100
  0.649000,  1.281600
  0.651000,  1.147200
  0.653000,  1.016900
  0.655000,  0.891400
  0.657000,  0.771000
  0.659000,  0.655800
  0.661000,  0.545400
  0.663000,  0.440300
  0.665000,  0.340600
  0.667000,  0.245900
  0.669000,  0.156400
  0.671000,  0.072300
  0.673000, -0.006000
  0.675000, -0.078900
  0.677000, -0.146600
  0.679000, -0.209200
  0.681000, -0.266600
  0.683000, -0.318600
  0.685000, -0.365700
  0.687000, -0.408000
  0.689000, -0.445500
  0.691000, -0.478200
  0.693000, -0.506800
  0.695000, -0.531200
  0.697000, -0.551100
  0.699000, -0.567000
  0.701000, -0.578900
  0.703000, -0.586900
  0.705000, -0.591500
  0.707000, -0.592800
  0.709000, -0.591300
  0.711000, -0.587200
  0.713000, -0.580300
  0.715000, -0.570800
  0.717000, -0.559000
  0.719000, -0.545300
  0.721000, -0.529800
  0.723000, -0.512600
  0.725000, -0.493800
  0.727000, -0.473600
  0.729000, -0.452200
  0.731000, -0.430000
  0.733000, -0.406900
  0.735000, -0.383000
  0.737000, -0.358500
  0.739000, -0.333600
  0.741000, -0.308300
  0.743000, -0.282600
  0.745000, -0.256800
  0.747000, -0.231000
  0.749000, -0.205200
  0.751000, -0.179600
  0.753000, -0.154300
  0.755000, -0.129000
  0.757000, -0.104100
  0.759000, -0.079600
  0.761000, -0.055500
  0.763000, -0.031900
  0.765000, -0.008700
  0.767000,  0.014100
  0.769000,  0.036100
  0.771000,  0.057600
  0.773000,  0.078600
  0.775000,  0.098900
  0.777000,  0.118800
  0.779000,  0.138200
  0.781000,  0.157100
  0.783000,  0.175500
  0.785000,  0.193500
  0.787000,  0.211000
  0.789000,  0.227900
  0.791000,  0.244500
  0.793000,  0.260600
  0.795000,  0.276400
  0.797000,  0.291900
  0.799000,  0.307000
  0.801000,  0.322000
  0.803000,  0.336800
  0.805000,  0.351200
  0.807000,  0.365500
  0.809000,  0.379500
  0.811000,  0.393300
  0.813000,  0.407000
  0.815000,  0.420500
  0.817000,  0.434300
  0.819000,  0.448100
  0.821000,  0.461800
  0.823000,  0.475600
  0.825000,  0.489400
  0.827000,  0.503400
  0.829000,  0.517500
  0.831000,  0.531700
  0.833000,  0.546000
  0.835000,  0.560400
  0.837000,  0.574900
  0.839000,  0.589500
  0.841000,  0.604400
  0.843000,  0.619400
  0.845000,  0.634500
  0.847000,  0.649500
  0.849000,  0.664700
  0.851000,  0.680000
  0.853000,  0.695500
  0.855000,  0.711000
  0.857000,  0.726400
  0.859000,  0.741800
  0.861000,  0.757100
  0.863000,  0.772400
  0.865000,  0.787600
  0.867000,  0.802600
  0.869000,  0.817400
  0.871000,  0.832000
  0.873000,  0.846200
  0.875000,  0.860100
  0.877000,  0.873800
  0.879000,  0.887100
  0.881000,  0.899700
  0.883000,  0.911900
  0.885000,  0.923800
  0.887000,  0.935000
  0.889000,  0.945500
  0.891000,  0.955300
  0.893000,  0.964400
  0.895000,  0.972800
  0.897000,  0.980400
  0.899000,  0.987300
  0.901000,  0.993200
  0.903000,  0.998200
  0.905000,  1.002300
  0.907000,  1.005400
  0.909000,  1.007500
  0.911000,  1.008700
  0.913000,  1.009000
  0.915000,  1.008100
  0.917000,  1.006100
  0.919000,  1.003100
  0.921000,  0.998900
  0.923000,  0.993500
  0.925000,  0.987200
  0.927000,  0.979800
  0.929000,  0.971300
  0.931000,  0.961600
  0.933000,  0.951000
  0.935000,  0.939200
  0.937000,  0.926200
  0.939000,  0.912300
  0.941000,  0.897300
  0.943000,  0.881400
  0.945000,  0.864600
  0.947000,  0.846800
  0.949000,  0.827900
  0.951000,  0.808200
  0.953000,  0.787700
  0.955000,  0.766300
  0.957000,  0.744100
  0.959000,  0.721400
  0.961000,  0.698000
  0.963000,  0.674100
  0.965000,  0.649500
  0.967000,  0.624600
  0.969000,  0.599300
  0.971000,  0.573400
  0.973000,  0.547300
  0.975000,  0.520900
  0.977000,  0.494200
  0.979000,  0.467500
  0.981000,  0.440700
  0.983000,  0.414000
  0.985000,  0.387400
  0.987000,  0.360900
  0.989000,  0.334400
  0.991000,  0.308200
  0.993000,  0.282300
  0.995000,  0.256800
  0.997000,  0.231600
  0.999000,  0.206700
  1.001000,  0.182300
  1.003000,  0.158500
  1.005000,  0.135300
  1.007000,  0.112800
  1.009000,  0.090900
  1.011000,  0.069500
  1.013000,  0.048800
  1.015000,  0.028900
  1.017000,  0.009700
  1.019000, -0.008700
  1.021000, -0.026400
  1.023000, -0.043200
  1.025000, -0.059100
  1.027000, -0.074300
  1.029000, -0.088700
  1.031000, -0.102300
  1.033000, -0.115000
  1.035000, -0.126900
  1.037000, -0.138100
  1.039000, -0.148400
  1.041000, -0.157900
  1.043000, -0.166600
  1.045000, -0.174500
  1.047000, -0.181600
  1.049000, -0.187900
  1.051000, -0.193300
  1.053000, -0.198100
  1.055000, -0.202100
  1.057000, -0.205600
  1.059000, -0.208300
  1.061000, -0.210300
  1.063000, -0.211700
  1.065000, -0.212400
  1.067000, -0.212400
  1.069000, -0.211900
  1.071000, -0.210700
  1.073000, -0.209000
  1.075000, -0.206800
  1.077000, -0.204100
  1.079000, -0.200900
  1.081000, -0.197200
  1.083000, -0.192800
  1.085000, -0.188000
  1.087000, -0.182900
  1.089000, -0.177400
  1.091000, -0.171300
  1.093000, -0.164900
  1.095000, -0.158100
  1.097000, -0.151000
  1.099000, -0.143600
  1.101000, -0.135800
  1.103000, -0.127700
  1.105000, -0.119400
  1.107000, -0.110900
  1.109000, -0.102000
  1.111000, -0.092900
  1.113000, -0.083700
  1.115000, -0.074300
  1.117000, -0.064800
  1.119000, -0.055000
  1.121000, -0.045100
  1.123000, -0.035200
  1.125000, -0.025300
  1.127000, -0.015500
  1.129000, -0.005500
  1.131000,  0.004500
  1.133000,  0.014400
  1.135000,  0.024100
  1.137000,  0.033700
  1.139000,  0.043100
  1.141000,  0.052500
  1.143000,  0.061700
  1.145000,  0.070800
  1.147000,  0.079700
  1.149000,  0.088400
  1.151000,  0.096800
  1.153000,  0.104800
  1.155000,  0.112600
  1.157000,  0.120100
  1.159000,  0.127400
  1.161000,  0.134300
  1.163000,  0.141000
  1.165000,  0.147500
  1.167000,  0.153600
  1.169000,  0.159200
  1.171000,  0.164400
  1.173000,  0.169200
  1.175000,  0.173600
  1.177000,  0.177600
  1.179000,  0.181300
  1.181000,  0.184600
  1.183000,  0.187300
  1.185000,  0.189600
  1.187000,  0.191600
  1.189000,  0.193200
  1.191000,  0.194400
  1.193000,  0.195200
  1.195000,  0.195700
  1.197000,  0.195800
  1.199000,  0.195500
  1.201000,  0.194800
  1.203000,  0.193800
  1.205000,  0.192400
  1.207000,  0.190700
  1.209000,  0.188700
  1.211000,  0.186200
  1.213000,  0.183500
  1.215000,  0.180600
  1.217000,  0.177400
  1.219000,  0.173900
  1.221000,  0.170200
  1.223000,  0.166100
  1.225000,  0.162000
  1.227000,  0.157700
  1.229000,  0.153100
  1.231000,  0.148400
  1.233000,  0.143600
  1.235000,  0.138700
  1.237000,  0.133600
  1.239000,  0.128500
  1.241000,  0.123200
  1.243000,  0.117700
  1.245000,  0.112300
  1.247000,  0.106900
  1.249000,  0.101600
  1.251000,  0.096300
  1.253000,  0.091000
  1.255000,  0.085800
  1.257000,  0.080600
  1.259000,  0.075600
  1.261000,  0.070500
  1.263000,  0.065300
  1.265000,  0.060400
  1.267000,  0.055700
  1.269000,  0.051000
  1.271000,  0.046400
  1.273000,  0.042100
  1.275000,  0.037800
  1.277000,  0.033700
  1.279000,  0.029800
  1.281000,  0.026000
  1.283000,  0.022400
  1.285000,  0.018900
  1.287000,  0.015400
  1.289000,  0.012200
  1.291000,  0.009000
  1.293000,  0.005900
  1.295000,  0.002800
  1.297000, -0.000300
  1.299000, -0.003400
  1.301000, -0.006300
  1.303000, -0.009100
  1.305000, -0.011900
  1.307000, -0.014800
  1.309000, -0.017700
  1.311000, -0.020700
  1.313000, -0.023900
  1.315000, -0.027000
  1.317000, -0.030200
  1.319000, -0.033700
  1.321000, -0.037400
  1.323000, -0.041200
  1.325000, -0.045200
  1.327000, -0.049400
  1.329000, -0.053800
  1.331000, -0.058400
  1.333000, -0.063400
  1.335000, -0.068500
  1.337000, -0.073800
  1.339000, -0.079300
  1.341000, -0.085100
  1.343000, -0.090800
  1.345000, -0.096900
  1.347000, -0.103100
  1.349000, -0.109300
  1.351000, -0.115300
  1.353000, -0.121300
  1.355000, -0.127600
  1.357000, -0.133800
  1.359000, -0.140000
  1.361000, -0.145700
  1.363000, -0.150900
  1.365000, -0.156000
  1.367000, -0.160700
  1.369000, -0.164800
  1.371000, -0.168500
  1.373000, -0.171500
  1.375000, -0.174300
  1.377000, -0.176100
  1.379000, -0.176800
  1.381000, -0.176900
  1.383000, -0.176100
  1.385000, -0.174000
  1.387000, -0.170500
  1.389000, -0.166000
  1.391000, -0.160200
  1.393000, -0.152700
  1.395000, -0.144200
  1.397000, -0.134400
  1.399000, -0.123300
