# z (nm)   (kJ/mol)
  0.515000, 32.189800
  0.517000, 31.055600
  0.519000, 29.916300
  0.521000, 28.783100
  0.523000, 27.665200
  0.525000, 26.554600
  0.527000, 25.438400
  0.529000, 24.315900
  0.531000, 23.205800
  0.533000, 22.120300
  0.535000, 21.059600
  0.537000, 20.011000
  0.539000, 18.979000
  0.541000, 17.968500
  0.543000, 16.980100
  0.545000, 16.023700
  0.547000, 15.094600
  0.549000, 14.195000
  0.551000, 13.325100
  0.553000, 12.479300
  0.555000, 11.660600
  0.557000, 10.869200
  0.559000, 10.105100
  0.561000,  9.368900
  0.563000,  8.661300
  0.565000,  7.980000
  0.567000,  7.325100
  0.569000,  6.694900
  0.571000,  6.087700
  0.573000,  5.502800
  0.575000,  4.941000
  0.577000,  4.404700
  0.579000,  3.890200
  0.581000,  3.395400
  0.583000,  2.920300
  0.585000,  2.469000
  0.587000,  2.037000
  0.589000,  1.619700
  0.591000,  1.221000
  0.593000,  0.838900
  0.595000,  0.473600
  0.597000,  0.122000
  0.599000, -0.218000
  0.601000, -0.539600
  0.603000, -0.845200
  0.605000, -1.137200
  0.607000, -1.417100
  0.609000, -1.683800
  0.611000, -1.938400
  0.613000, -2.178500
  0.615000, -2.403500
  0.617000, -2.616300
  0.619000, -2.816700
  0.621000, -3.002600
  0.623000, -3.171600
  0.625000, -3.328600
  0.627000, -3.472000
  0.629000, -3.603400
  0.631000, -3.724700
  0.633000, -3.834400
  0.635000, -3.933100
  0.637000, -4.019100
  0.639000, -4.097400
  0.641000, -4.168700
  0.643000, -4.229700
  0.645000, -4.283100
  0.647000, -4.333300
  0.649000, -4.377500
  0.651000, -4.412600
  0.653000, -4.440500
  0.655000, -4.461800
  0.657000, -4.479100
  0.659000, -4.494600
  0.661000, -4.505600
  0.663000, -4.512600
  0.665000, -4.517300
  0.667000, -4.517300
  0.669000, -4.514100
  0.671000, -4.508700
  0.673000, -4.499700
  0.675000, -4.488900
  0.677000, -4.476500
  0.679000, -4.461200
  0.681000, -4.443300
  0.683000, -4.423400
  0.685000, -4.401000
  0.687000, -4.375200
  0.689000, -4.347000
  0.691000, -4.316900
  0.693000, -4.285000
  0.695000, -4.250800
  0.697000, -4.214700
  0.699000, -4.177000
  0.701000, -4.137100
  0.703000, -4.095500
  0.705000, -4.052500
  0.707000, -4.007700
  0.709000, -3.961200
  0.711000, -3.912900
  0.713000, -3.863400
  0.715000, -3.812900
  0.717000, -3.761700
  0.719000, -3.709500
  0.721000, -3.656000
  0.723000, -3.601700
  0.725000, -3.546800
  0.727000, -3.491800
  0.729000, -3.436400
  0.731000, -3.380400
  0.733000, -3.324600
  0.735000, -3.269100
  0.737000, -3.213700
  0.739000, -3.158600
  0.741000, -3.104400
  0.743000, -3.050500
  0.745000, -2.997300
  0.747000, -2.945400
  0.749000, -2.894500
  0.751000, -2.844000
  0.753000, -2.794500
  0.755000, -2.746600
  0.757000, -2.699900
  0.759000, -2.654800
  0.761000, -2.611300
  0.763000, -2.569000
  0.765000, -2.528100
  0.767000, -2.488700
  0.769000, -2.450700
  0.771000, -2.414000
  0.773000, -2.378300
  0.775000, -2.344200
  0.777000, -2.311800
  0.779000, -2.280900
  0.781000, -2.251000
  0.783000, -2.222200
  0.785000, -2.194800
  0.787000, -2.167900
  0.789000, -2.141800
  0.791000, -2.117100
  0.793000, -2.092900
  0.795000, -2.069300
  0.797000, -2.047000
  0.799000, -2.025400
  0.801000, -2.004100
  0.803000, -1.983500
  0.805000, -1.963500
  0.807000, -1.944200
  0.809000, -1.925500
  0.811000, -1.907100
  0.813000, -1.889400
  0.815000, -1.872000
  0.817000, -1.854600
  0.819000, -1.837700
  0.821000, -1.821300
  0.823000, -1.805300
  0.825000, -1.789300
  0.827000, -1.773500
  0.829000, -1.757800
  0.831000, -1.742600
  0.833000, -1.727700
  0.835000, -1.712900
  0.837000, -1.698300
  0.839000, -1.683800
  0.841000, -1.669500
  0.843000, -1.655400
  0.845000, -1.641800
  0.847000, -1.628400
  0.849000, -1.615200
  0.851000, -1.602100
  0.853000, -1.589100
  0.855000, -1.576400
  0.857000, -1.564200
  0.859000, -1.552000
  0.861000, -1.540300
  0.863000, -1.528800
  0.865000, -1.517400
  0.867000, -1.506600
  0.869000, -1.496000
  0.871000, -1.485500
  0.873000, -1.475300
  0.875000, -1.465400
  0.877000, -1.455600
  0.879000, -1.446200
  0.881000, -1.437200
  0.883000, -1.428400
  0.885000, -1.419700
  0.887000, -1.410800
  0.889000, -1.402000
  0.891000, -1.393100
  0.893000, -1.384200
  0.895000, -1.375200
  0.897000, -1.366200
  0.899000, -1.357200
  0.901000, -1.348000
  0.903000, -1.338700
  0.905000, -1.329000
  0.907000, -1.319400
  0.909000, -1.309500
  0.911000, -1.299100
  0.913000, -1.288200
  0.915000, -1.277100
  0.917000, -1.265500
  0.919000, -1.253400
  0.921000, -1.240900
  0.923000, -1.227900
  0.925000, -1.214400
  0.927000, -1.200400
  0.929000, -1.185900
  0.931000, -1.171000
  0.933000, -1.155500
  0.935000, -1.139300
  0.937000, -1.122600
  0.939000, -1.105400
  0.941000, -1.087700
  0.943000, -1.069600
  0.945000, -1.051000
  0.947000, -1.032200
  0.949000, -1.012900
  0.951000, -0.993100
  0.953000, -0.972800
  0.955000, -0.952400
  0.957000, -0.931800
  0.959000, -0.911100
  0.961000, -0.890200
  0.963000, -0.869100
  0.965000, -0.847700
  0.967000, -0.826500
  0.969000, -0.805300
  0.971000, -0.784000
  0.973000, -0.762700
  0.975000, -0.741600
  0.977000, -0.720800
  0.979000, -0.700300
  0.981000, -0.680000
  0.983000, -0.659800
  0.985000, -0.640200
  0.987000, -0.621000
  0.989000, -0.602500
  0.991000, -0.584600
  0.993000, -0.567000
  0.995000, -0.549900
  0.997000, -0.533300
  0.999000, -0.517200
  1.001000, -0.502000
  1.003000, -0.487200
  1.005000, -0.472900
  1.007000, -0.459400
  1.009000, -0.446500
  1.011000, -0.434400
  1.013000, -0.423000
  1.015000, -0.412600
  1.017000, -0.402600
  1.019000, -0.393300
  1.021000, -0.384800
  1.023000, -0.376800
  1.025000, -0.369500
  1.027000, -0.362800
  1.029000, -0.356500
  1.031000, -0.350900
  1.033000, -0.345800
  1.035000, -0.341200
  1.037000, -0.337100
  1.039000, -0.333300
  1.041000, -0.329900
  1.043000, -0.327100
  1.045000, -0.324600
  1.047000, -0.322200
  1.049000, -0.320300
  1.051000, -0.318800
  1.053000, -0.317300
  1.055000, -0.316000
  1.057000, -0.315000
  1.059000, -0.314000
  1.061000, -0.312900
  1.063000, -0.312100
  1.065000, -0.311400
  1.067000, -0.310700
  1.069000, -0.309900
  1.071000, -0.309100
  1.073000, -0.308200
  1.075000, -0.307400
  1.077000, -0.306800
  1.079000, -0.306000
  1.081000, -0.305000
  1.083000, -0.304000
  1.085000, -0.302800
  1.087000, -0.301600
  1.089000, -0.300400
  1.091000, -0.298900
  1.093000, -0.297300
  1.095000, -0.295700
  1.097000, -0.294000
  1.099000, -0.292200
  1.101000, -0.290200
  1.103000, -0.288200
  1.105000, -0.286300
  1.107000, -0.284400
  1.109000, -0.282300
  1.111000, -0.280100
  1.113000, -0.278000
  1.115000, -0.275900
  1.117000, -0.273900
  1.119000, -0.271700
  1.121000, -0.269600
  1.123000, -0.267400
  1.125000, -0.265200
  1.127000, -0.263100
  1.129000, -0.261200
  1.131000, -0.259400
  1.133000, -0.257600
  1.135000, -0.255800
  1.137000, -0.253900
  1.139000, -0.252100
  1.141000, -0.250300
  1.143000, -0.248700
  1.145000, -0.247100
  1.147000, -0.245600
  1.149000, -0.244400
  1.151000, -0.243000
  1.153000, -0.241700
  1.155000, -0.240400
  1.157000, -0.239400
  1.159000, -0.238400
  1.161000, -0.237100
  1.163000, -0.235900
  1.165000, -0.234800
  1.167000, -0.233800
  1.169000, -0.232700
  1.171000, -0.231300
  1.173000, -0.230000
  1.175000, -0.228700
  1.177000, -0.227400
  1.179000, -0.225900
  1.181000, -0.224300
  1.183000, -0.222700
  1.185000, -0.221000
  1.187000, -0.219100
  1.189000, -0.217200
  1.191000, -0.215200
  1.193000, -0.213000
  1.195000, -0.210600
  1.197000, -0.208200
  1.199000, -0.205600
  1.201000, -0.202800
  1.203000, -0.199900
  1.205000, -0.197000
  1.207000, -0.193800
  1.209000, -0.190200
  1.211000, -0.186400
  1.213000, -0.182400
  1.215000, -0.178400
  1.217000, -0.174300
  1.219000, -0.170000
  1.221000, -0.165500
  1.223000, -0.160800
  1.225000, -0.155800
  1.227000, -0.150900
  1.229000, -0.146000
  1.231000, -0.141000
  1.233000, -0.135800
  1.235000, -0.130500
  1.237000, -0.125000
  1.239000, -0.119400
  1.241000, -0.113700
  1.243000, -0.107900
  1.245000, -0.102200
  1.247000, -0.096300
  1.249000, -0.090300
  1.251000, -0.084300
  1.253000, -0.078600
  1.255000, -0.072700
  1.257000, -0.066900
  1.259000, -0.061400
  1.261000, -0.055800
  1.263000, -0.050300
  1.265000, -0.045000
  1.267000, -0.039500
  1.269000, -0.034000
  1.271000, -0.028700
  1.273000, -0.023400
  1.275000, -0.018300
  1.277000, -0.013300
  1.279000, -0.008300
  1.281000, -0.003600
  1.283000,  0.001000
  1.285000,  0.005600
  1.287000,  0.010000
  1.289000,  0.014300
  1.291000,  0.018700
  1.293000,  0.022500
  1.295000,  0.026000
  1.297000,  0.029400
  1.299000,  0.032500
  1.301000,  0.035600
  1.303000,  0.038300
  1.305000,  0.040900
  1.307000,  0.043300
  1.309000,  0.045700
  1.311000,  0.047800
  1.313000,  0.049700
  1.315000,  0.051600
  1.317000,  0.053100
  1.319000,  0.054700
  1.321000,  0.056100
  1.323000,  0.057300
  1.325000,  0.058400
  1.327000,  0.059200
  1.329000,  0.059900
  1.331000,  0.060800
  1.333000,  0.061600
  1.335000,  0.062100
  1.337000,  0.062400
  1.339000,  0.062900
  1.341000,  0.063700
  1.343000,  0.064400
  1.345000,  0.065100
  1.347000,  0.065900
  1.349000,  0.066800
  1.351000,  0.067800
  1.353000,  0.069100
  1.355000,  0.070900
  1.357000,  0.072700
  1.359000,  0.075100
  1.361000,  0.078000
  1.363000,  0.081200
  1.365000,  0.084800
  1.367000,  0.088900
  1.369000,  0.093500
  1.371000,  0.098400
  1.373000,  0.103900
  1.375000,  0.110200
  1.377000,  0.117200
  1.379000,  0.124800
  1.381000,  0.133200
  1.383000,  0.142500
  1.385000,  0.152500
  1.387000,  0.163200
  1.389000,  0.174900
  1.391000,  0.187400
  1.393000,  0.200800
  1.395000,  0.215100
  1.397000,  0.230200
  1.399000,  0.245900
