# z (nm)   (kJ/mol)
  0.359000, 30.495400
  0.361000, 29.475900
  0.363000, 28.450800
  0.365000, 27.438900
  0.367000, 26.400900
  0.369000, 25.353100
  0.371000, 24.280300
  0.373000, 23.203900
  0.375000, 22.131600
  0.377000, 21.060700
  0.379000, 19.997800
  0.381000, 18.940900
  0.383000, 17.888700
  0.385000, 16.850200
  0.387000, 15.829900
  0.389000, 14.820100
  0.391000, 13.828600
  0.393000, 12.860100
  0.395000, 11.917700
  0.397000, 11.004800
  0.399000, 10.120400
  0.401000,  9.263600
  0.403000,  8.432500
  0.405000,  7.633000
  0.407000,  6.865100
  0.409000,  6.132800
  0.411000,  5.433700
  0.413000,  4.767600
  0.415000,  4.130800
  0.417000,  3.523200
  0.419000,  2.947800
  0.421000,  2.400500
  0.423000,  1.881700
  0.425000,  1.392300
  0.427000,  0.933800
  0.429000,  0.500200
  0.431000,  0.091700
  0.433000, -0.287000
  0.435000, -0.641000
  0.437000, -0.972800
  0.439000, -1.280700
  0.441000, -1.565700
  0.443000, -1.829200
  0.445000, -2.070700
  0.447000, -2.289900
  0.449000, -2.487300
  0.451000, -2.664400
  0.453000, -2.821500
  0.455000, -2.957500
  0.457000, -3.071800
  0.459000, -3.165900
  0.461000, -3.239500
  0.463000, -3.292000
  0.465000, -3.325400
  0.467000, -3.337500
  0.469000, -3.332300
  0.471000, -3.309800
  0.473000, -3.265800
  0.475000, -3.206800
  0.477000, -3.133400
  0.479000, -3.046000
  0.481000, -2.946900
  0.483000, -2.831300
  0.485000, -2.702500
  0.487000, -2.566900
  0.489000, -2.422300
  0.491000, -2.269500
  0.493000, -2.109200
  0.495000, -1.940900
  0.497000, -1.767500
  0.499000, -1.591700
  0.501000, -1.415000
  0.503000, -1.241300
  0.505000, -1.068900
  0.507000, -0.896200
  0.509000, -0.727500
  0.511000, -0.563800
  0.513000, -0.406600
  0.515000, -0.257200
  0.517000, -0.114200
  0.519000,  0.022700
  0.521000,  0.148900
  0.523000,  0.264000
  0.525000,  0.370000
  0.527000,  0.467500
  0.529000,  0.556200
  0.531000,  0.633500
  0.533000,  0.700600
  0.535000,  0.757200
  0.537000,  0.803000
  0.539000,  0.840500
  0.541000,  0.868700
  0.543000,  0.886700
  0.545000,  0.896000
  0.547000,  0.897000
  0.549000,  0.889700
  0.551000,  0.875200
  0.553000,  0.852700
  0.555000,  0.823200
  0.557000,  0.787200
  0.559000,  0.743800
  0.561000,  0.694400
  0.563000,  0.640900
  0.565000,  0.583300
  0.567000,  0.521500
  0.569000,  0.455400
  0.571000,  0.385100
  0.573000,  0.311600
  0.575000,  0.236800
  0.577000,  0.160800
  0.579000,  0.082500
  0.581000,  0.002700
  0.583000, -0.077100
  0.585000, -0.157000
  0.587000, -0.236600
  0.589000, -0.315400
  0.591000, -0.393900
  0.593000, -0.472000
  0.595000, -0.548100
  0.597000, -0.622300
  0.599000, -0.695200
  0.601000, -0.765700
  0.603000, -0.833100
  0.605000, -0.898100
  0.607000, -0.960900
  0.609000, -1.020800
  0.611000, -1.077900
  0.613000, -1.131600
  0.615000, -1.182100
  0.617000, -1.229500
  0.619000, -1.273000
  0.621000, -1.312900
  0.623000, -1.349800
  0.625000, -1.383100
  0.627000, -1.412900
  0.629000, -1.438900
  0.631000, -1.461600
  0.633000, -1.481600
  0.635000, -1.498400
  0.637000, -1.511600
  0.639000, -1.521700
  0.641000, -1.528400
  0.643000, -1.531900
  0.645000, -1.533100
  0.647000, -1.532100
  0.649000, -1.528600
  0.651000, -1.522600
  0.653000, -1.514300
  0.655000, -1.503700
  0.657000, -1.491200
  0.659000, -1.476300
  0.661000, -1.459800
  0.663000, -1.441700
  0.665000, -1.421900
  0.667000, -1.400700
  0.669000, -1.378200
  0.671000, -1.354500
  0.673000, -1.329700
  0.675000, -1.304200
  0.677000, -1.278000
  0.679000, -1.251100
  0.681000, -1.223500
  0.683000, -1.195500
  0.685000, -1.167100
  0.687000, -1.138000
  0.689000, -1.108500
  0.691000, -1.078700
  0.693000, -1.048700
  0.695000, -1.018600
  0.697000, -0.988400
  0.699000, -0.957800
  0.701000, -0.927200
  0.703000, -0.896700
  0.705000, -0.866100
  0.707000, -0.835700
  0.709000, -0.805500
  0.711000, -0.775000
  0.713000, -0.744800
  0.715000, -0.714800
  0.717000, -0.685000
  0.719000, -0.655300
  0.721000, -0.625900
  0.723000, -0.596800
  0.725000, -0.567700
  0.727000, -0.539100
  0.729000, -0.510800
  0.731000, -0.482700
  0.733000, -0.455000
  0.735000, -0.427800
  0.737000, -0.400800
  0.739000, -0.373800
  0.741000, -0.347400
  0.743000, -0.321600
  0.745000, -0.296200
  0.747000, -0.271500
  0.749000, -0.247200
  0.751000, -0.223300
  0.753000, -0.199900
  0.755000, -0.177300
  0.757000, -0.155400
  0.759000, -0.134100
  0.761000, -0.113300
  0.763000, -0.093300
  0.765000, -0.073900
  0.767000, -0.055200
  0.769000, -0.037300
  0.771000, -0.020000
  0.773000, -0.003300
  0.775000,  0.012600
  0.777000,  0.027500
  0.779000,  0.041500
  0.781000,  0.054700
  0.783000,  0.067100
  0.785000,  0.078800
  0.787000,  0.089600
  0.789000,  0.099600
  0.791000,  0.108800
  0.793000,  0.117300
  0.795000,  0.124900
  0.797000,  0.131700
  0.799000,  0.137600
  0.801000,  0.142800
  0.803000,  0.147300
  0.805000,  0.151200
  0.807000,  0.154200
  0.809000,  0.156400
  0.811000,  0.157900
  0.813000,  0.158900
  0.815000,  0.159100
  0.817000,  0.158500
  0.819000,  0.157300
  0.821000,  0.155400
  0.823000,  0.153000
  0.825000,  0.150200
  0.827000,  0.147000
  0.829000,  0.143200
  0.831000,  0.138600
  0.833000,  0.133700
  0.835000,  0.128600
  0.837000,  0.123000
  0.839000,  0.117200
  0.841000,  0.111000
  0.843000,  0.104500
  0.845000,  0.097800
  0.847000,  0.091000
  0.849000,  0.083900
  0.851000,  0.076500
  0.853000,  0.069000
  0.855000,  0.061500
  0.857000,  0.053900
  0.859000,  0.046100
  0.861000,  0.038300
  0.863000,  0.030400
  0.865000,  0.022400
  0.867000,  0.014400
  0.869000,  0.006200
  0.871000, -0.001900
  0.873000, -0.010100
  0.875000, -0.018400
  0.877000, -0.026500
  0.879000, -0.034500
  0.881000, -0.042400
  0.883000, -0.050300
  0.885000, -0.058200
  0.887000, -0.066000
  0.889000, -0.073800
  0.891000, -0.081700
  0.893000, -0.089400
  0.895000, -0.097000
  0.897000, -0.104500
  0.899000, -0.111800
  0.901000, -0.118900
  0.903000, -0.126000
  0.905000, -0.132900
  0.907000, -0.139600
  0.909000, -0.146400
  0.911000, -0.153100
  0.913000, -0.159600
  0.915000, -0.165900
  0.917000, -0.172000
  0.919000, -0.177800
  0.921000, -0.183500
  0.923000, -0.189100
  0.925000, -0.194600
  0.927000, -0.199900
  0.929000, -0.205100
  0.931000, -0.210100
  0.933000, -0.214800
  0.935000, -0.219300
  0.937000, -0.223500
  0.939000, -0.227700
  0.941000, -0.231600
  0.943000, -0.235300
  0.945000, -0.238900
  0.947000, -0.242500
  0.949000, -0.245700
  0.951000, -0.248600
  0.953000, -0.251400
  0.955000, -0.254000
  0.957000, -0.256400
  0.959000, -0.258500
  0.961000, -0.260700
  0.963000, -0.262900
  0.965000, -0.264700
  0.967000, -0.266300
  0.969000, -0.267800
  0.971000, -0.269000
  0.973000, -0.270100
  0.975000, -0.271200
  0.977000, -0.272000
  0.979000, -0.272700
  0.981000, -0.273300
  0.983000, -0.273700
  0.985000, -0.273900
  0.987000, -0.274200
  0.989000, -0.274400
  0.991000, -0.274200
  0.993000, -0.273800
  0.995000, -0.273400
  0.997000, -0.273000
  0.999000, -0.272500
  1.001000, -0.271800
  1.003000, -0.271100
  1.005000, -0.270200
  1.007000, -0.269300
  1.009000, -0.268500
  1.011000, -0.267400
  1.013000, -0.266300
  1.015000, -0.265200
  1.017000, -0.264000
  1.019000, -0.262600
  1.021000, -0.261100
  1.023000, -0.259600
  1.025000, -0.258000
  1.027000, -0.256200
  1.029000, -0.254300
  1.031000, -0.252400
  1.033000, -0.250400
  1.035000, -0.248400
  1.037000, -0.246300
  1.039000, -0.244000
  1.041000, -0.241600
  1.043000, -0.239100
  1.045000, -0.236500
  1.047000, -0.233800
  1.049000, -0.231000
  1.051000, -0.228100
  1.053000, -0.225000
  1.055000, -0.221800
  1.057000, -0.218400
  1.059000, -0.214700
  1.061000, -0.210900
  1.063000, -0.207000
  1.065000, -0.202900
  1.067000, -0.198600
  1.069000, -0.194200
  1.071000, -0.189800
  1.073000, -0.185300
  1.075000, -0.180900
  1.077000, -0.176300
  1.079000, -0.171500
  1.081000, -0.166800
  1.083000, -0.162000
  1.085000, -0.157100
  1.087000, -0.152000
  1.089000, -0.146900
  1.091000, -0.141800
  1.093000, -0.136600
  1.095000, -0.131500
  1.097000, -0.126400
  1.099000, -0.121300
  1.101000, -0.116300
  1.103000, -0.111400
  1.105000, -0.106700
  1.107000, -0.101900
  1.109000, -0.097200
  1.111000, -0.092600
  1.113000, -0.088100
  1.115000, -0.083800
  1.117000, -0.079700
  1.119000, -0.075700
  1.121000, -0.071900
  1.123000, -0.068400
  1.125000, -0.065200
  1.127000, -0.062300
  1.129000, -0.059400
  1.131000, -0.056700
  1.133000, -0.054200
  1.135000, -0.052000
  1.137000, -0.049900
  1.139000, -0.048100
  1.141000, -0.046500
  1.143000, -0.045100
  1.145000, -0.043900
  1.147000, -0.042900
  1.149000, -0.042000
  1.151000, -0.041400
  1.153000, -0.041000
  1.155000, -0.040900
  1.157000, -0.041000
  1.159000, -0.041300
  1.161000, -0.041500
  1.163000, -0.041800
  1.165000, -0.042300
  1.167000, -0.042900
  1.169000, -0.043700
  1.171000, -0.044600
  1.173000, -0.045500
  1.175000, -0.046300
  1.177000, -0.047200
  1.179000, -0.048000
  1.181000, -0.049000
  1.183000, -0.049900
  1.185000, -0.050800
  1.187000, -0.051600
  1.189000, -0.052500
  1.191000, -0.053400
  1.193000, -0.054300
  1.195000, -0.054900
  1.197000, -0.055500
  1.199000, -0.056000
  1.201000, -0.056300
  1.203000, -0.056500
  1.205000, -0.056800
  1.207000, -0.056900
  1.209000, -0.056800
  1.211000, -0.056700
  1.213000, -0.056600
  1.215000, -0.056400
  1.217000, -0.056000
  1.219000, -0.055500
  1.221000, -0.055000
  1.223000, -0.054400
  1.225000, -0.053800
  1.227000, -0.053000
  1.229000, -0.052200
  1.231000, -0.051300
  1.233000, -0.050300
  1.235000, -0.049200
  1.237000, -0.048200
  1.239000, -0.047300
  1.241000, -0.046100
  1.243000, -0.044900
  1.245000, -0.043800
  1.247000, -0.042700
  1.249000, -0.041500
  1.251000, -0.040300
  1.253000, -0.039100
  1.255000, -0.037800
  1.257000, -0.036600
  1.259000, -0.035400
  1.261000, -0.034100
  1.263000, -0.032800
  1.265000, -0.031500
  1.267000, -0.030200
  1.269000, -0.028800
  1.271000, -0.027600
  1.273000, -0.026500
  1.275000, -0.025200
  1.277000, -0.023900
  1.279000, -0.022400
  1.281000, -0.020900
  1.283000, -0.019500
  1.285000, -0.018200
  1.287000, -0.016800
  1.289000, -0.015500
  1.291000, -0.014200
  1.293000, -0.012800
  1.295000, -0.011400
  1.297000, -0.009900
  1.299000, -0.008300
  1.301000, -0.006900
  1.303000, -0.005600
  1.305000, -0.004400
  1.307000, -0.003200
  1.309000, -0.002000
  1.311000, -0.000900
  1.313000, -0.000100
  1.315000,  0.000900
  1.317000,  0.001900
  1.319000,  0.002700
  1.321000,  0.003500
  1.323000,  0.004100
  1.325000,  0.004900
  1.327000,  0.005600
  1.329000,  0.006200
  1.331000,  0.006800
  1.333000,  0.007400
  1.335000,  0.008100
  1.337000,  0.008800
  1.339000,  0.009600
  1.341000,  0.010600
  1.343000,  0.011700
  1.345000,  0.013000
  1.347000,  0.014200
  1.349000,  0.015500
  1.351000,  0.017100
  1.353000,  0.019100
  1.355000,  0.021200
  1.357000,  0.023700
  1.359000,  0.026600
  1.361000,  0.029500
  1.363000,  0.032800
  1.365000,  0.036700
  1.367000,  0.040900
  1.369000,  0.045600
  1.371000,  0.050800
  1.373000,  0.056600
  1.375000,  0.062900
  1.377000,  0.069800
  1.379000,  0.077300
  1.381000,  0.085400
  1.383000,  0.093800
  1.385000,  0.103000
  1.387000,  0.113100
  1.389000,  0.123700
  1.391000,  0.134800
  1.393000,  0.146500
  1.395000,  0.159400
  1.397000,  0.172700
  1.399000,  0.186300
