# z (nm)   (kJ/mol)
  0.5370   34.72760
  0.5390   33.71160
  0.5410   32.70650
  0.5430   31.59650
  0.5450   30.44190
  0.5470   29.29010
  0.5490   28.16110
  0.5510   27.02990
  0.5530   25.89470
  0.5550   24.76360
  0.5570   23.64930
  0.5590   22.55200
  0.5610   21.46760
  0.5630   20.40060
  0.5650   19.34670
  0.5670   18.31700
  0.5690   17.32390
  0.5710   16.36170
  0.5730   15.42200
  0.5750   14.51240
  0.5770   13.63820
  0.5790   12.79720
  0.5810   11.98690
  0.5830   11.20760
  0.5850   10.46220
  0.5870    9.75280
  0.5890    9.07860
  0.5910    8.43530
  0.5930    7.82500
  0.5950    7.25290
  0.5970    6.70920
  0.5990    6.19320
  0.6010    5.70760
  0.6030    5.25440
  0.6050    4.83240
  0.6070    4.43750
  0.6090    4.06970
  0.6110    3.72790
  0.6130    3.41100
  0.6150    3.11620
  0.6170    2.84440
  0.6190    2.59590
  0.6210    2.36910
  0.6230    2.16400
  0.6250    1.98110
  0.6270    1.81800
  0.6290    1.67320
  0.6310    1.54580
  0.6330    1.43740
  0.6350    1.34780
  0.6370    1.27650
  0.6390    1.22320
  0.6410    1.18560
  0.6430    1.16000
  0.6450    1.14840
  0.6470    1.15320
  0.6490    1.16840
  0.6510    1.19400
  0.6530    1.23290
  0.6550    1.28140
  0.6570    1.34070
  0.6590    1.40730
  0.6610    1.47490
  0.6630    1.54640
  0.6650    1.62120
  0.6670    1.69850
  0.6690    1.77630
  0.6710    1.85030
  0.6730    1.91990
  0.6750    1.98770
  0.6770    2.05420
  0.6790    2.11390
  0.6810    2.16710
  0.6830    2.21510
  0.6850    2.25440
  0.6870    2.28370
  0.6890    2.30290
  0.6910    2.31170
  0.6930    2.31130
  0.6950    2.30100
  0.6970    2.28010
  0.6990    2.24900
  0.7010    2.20810
  0.7030    2.15690
  0.7050    2.09640
  0.7070    2.02700
  0.7090    1.94920
  0.7110    1.86300
  0.7130    1.76880
  0.7150    1.66730
  0.7170    1.55900
  0.7190    1.44490
  0.7210    1.32590
  0.7230    1.20240
  0.7250    1.07430
  0.7270    0.94310
  0.7290    0.81020
  0.7310    0.67540
  0.7330    0.53930
  0.7350    0.40270
  0.7370    0.26640
  0.7390    0.13060
  0.7410   -0.00360
  0.7430   -0.13600
  0.7450   -0.26620
  0.7470   -0.39310
  0.7490   -0.51710
  0.7510   -0.63790
  0.7530   -0.75470
  0.7550   -0.86660
  0.7570   -0.97360
  0.7590   -1.07590
  0.7610   -1.17330
  0.7630   -1.26530
  0.7650   -1.35160
  0.7670   -1.43220
  0.7690   -1.50680
  0.7710   -1.57540
  0.7730   -1.63820
  0.7750   -1.69540
  0.7770   -1.74630
  0.7790   -1.79100
  0.7810   -1.83000
  0.7830   -1.86350
  0.7850   -1.89140
  0.7870   -1.91400
  0.7890   -1.93130
  0.7910   -1.94360
  0.7930   -1.95070
  0.7950   -1.95320
  0.7970   -1.95190
  0.7990   -1.94670
  0.8010   -1.93720
  0.8030   -1.92440
  0.8050   -1.90840
  0.8070   -1.88950
  0.8090   -1.86770
  0.8110   -1.84350
  0.8130   -1.81690
  0.8150   -1.78790
  0.8170   -1.75710
  0.8190   -1.72490
  0.8210   -1.69140
  0.8230   -1.65650
  0.8250   -1.62030
  0.8270   -1.58340
  0.8290   -1.54570
  0.8310   -1.50740
  0.8330   -1.46900
  0.8350   -1.43030
  0.8370   -1.39150
  0.8390   -1.35280
  0.8410   -1.31390
  0.8430   -1.27520
  0.8450   -1.23690
  0.8470   -1.19870
  0.8490   -1.16080
  0.8510   -1.12290
  0.8530   -1.08520
  0.8550   -1.04820
  0.8570   -1.01170
  0.8590   -0.97580
  0.8610   -0.94040
  0.8630   -0.90510
  0.8650   -0.87020
  0.8670   -0.83600
  0.8690   -0.80210
  0.8710   -0.76860
  0.8730   -0.73580
  0.8750   -0.70330
  0.8770   -0.67100
  0.8790   -0.63910
  0.8810   -0.60760
  0.8830   -0.57660
  0.8850   -0.54630
  0.8870   -0.51630
  0.8890   -0.48660
  0.8910   -0.45750
  0.8930   -0.42880
  0.8950   -0.40050
  0.8970   -0.37290
  0.8990   -0.34580
  0.9010   -0.31900
  0.9030   -0.29240
  0.9050   -0.26630
  0.9070   -0.24080
  0.9090   -0.21560
  0.9110   -0.19080
  0.9130   -0.16700
  0.9150   -0.14360
  0.9170   -0.12040
  0.9190   -0.09800
  0.9210   -0.07640
  0.9230   -0.05550
  0.9250   -0.03520
  0.9270   -0.01540
  0.9290    0.00390
  0.9310    0.02250
  0.9330    0.04070
  0.9350    0.05820
  0.9370    0.07460
  0.9390    0.09010
  0.9410    0.10480
  0.9430    0.11870
  0.9450    0.13170
  0.9470    0.14390
  0.9490    0.15530
  0.9510    0.16610
  0.9530    0.17610
  0.9550    0.18520
  0.9570    0.19350
  0.9590    0.20100
  0.9610    0.20790
  0.9630    0.21400
  0.9650    0.21910
  0.9670    0.22330
  0.9690    0.22680
  0.9710    0.22980
  0.9730    0.23170
  0.9750    0.23270
  0.9770    0.23300
  0.9790    0.23260
  0.9810    0.23130
  0.9830    0.22920
  0.9850    0.22620
  0.9870    0.22250
  0.9890    0.21810
  0.9910    0.21320
  0.9930    0.20760
  0.9950    0.20110
  0.9970    0.19390
  0.9990    0.18620
  1.0010    0.17770
  1.0030    0.16860
  1.0050    0.15890
  1.0070    0.14860
  1.0090    0.13760
  1.0110    0.12620
  1.0130    0.11410
  1.0150    0.10170
  1.0170    0.08890
  1.0190    0.07560
  1.0210    0.06180
  1.0230    0.04770
  1.0250    0.03320
  1.0270    0.01820
  1.0290    0.00300
  1.0310   -0.01240
  1.0330   -0.02810
  1.0350   -0.04390
  1.0370   -0.05970
  1.0390   -0.07550
  1.0410   -0.09160
  1.0430   -0.10780
  1.0450   -0.12400
  1.0470   -0.14010
  1.0490   -0.15610
  1.0510   -0.17170
  1.0530   -0.18700
  1.0550   -0.20230
  1.0570   -0.21740
  1.0590   -0.23240
  1.0610   -0.24710
  1.0630   -0.26150
  1.0650   -0.27550
  1.0670   -0.28900
  1.0690   -0.30220
  1.0710   -0.31500
  1.0730   -0.32740
  1.0750   -0.33930
  1.0770   -0.35060
  1.0790   -0.36150
  1.0810   -0.37210
  1.0830   -0.38190
  1.0850   -0.39080
  1.0870   -0.39920
  1.0890   -0.40710
  1.0910   -0.41430
  1.0930   -0.42080
  1.0950   -0.42690
  1.0970   -0.43250
  1.0990   -0.43730
  1.1010   -0.44140
  1.1030   -0.44500
  1.1050   -0.44790
  1.1070   -0.45000
  1.1090   -0.45140
  1.1110   -0.45200
  1.1130   -0.45210
  1.1150   -0.45160
  1.1170   -0.45030
  1.1190   -0.44830
  1.1210   -0.44580
  1.1230   -0.44250
  1.1250   -0.43850
  1.1270   -0.43400
  1.1290   -0.42900
  1.1310   -0.42330
  1.1330   -0.41700
  1.1350   -0.41040
  1.1370   -0.40320
  1.1390   -0.39550
  1.1410   -0.38730
  1.1430   -0.37870
  1.1450   -0.36970
  1.1470   -0.36050
  1.1490   -0.35110
  1.1510   -0.34110
  1.1530   -0.33080
  1.1550   -0.32030
  1.1570   -0.30960
  1.1590   -0.29850
  1.1610   -0.28720
  1.1630   -0.27580
  1.1650   -0.26450
  1.1670   -0.25290
  1.1690   -0.24120
  1.1710   -0.22950
  1.1730   -0.21780
  1.1750   -0.20620
  1.1770   -0.19460
  1.1790   -0.18300
  1.1810   -0.17150
  1.1830   -0.16010
  1.1850   -0.14900
  1.1870   -0.13790
  1.1890   -0.12700
  1.1910   -0.11640
  1.1930   -0.10590
  1.1950   -0.09550
  1.1970   -0.08540
  1.1990   -0.07550
  1.2010   -0.06600
  1.2030   -0.05680
  1.2050   -0.04770
  1.2070   -0.03910
  1.2090   -0.03060
  1.2110   -0.02260
  1.2130   -0.01480
  1.2150   -0.00720
  1.2170    0.00000
  1.2190    0.00700
  1.2210    0.01340
  1.2230    0.01960
  1.2250    0.02570
  1.2270    0.03120
  1.2290    0.03650
  1.2310    0.04170
  1.2330    0.04660
  1.2350    0.05120
  1.2370    0.05550
  1.2390    0.05950
  1.2410    0.06320
  1.2430    0.06670
  1.2450    0.07010
  1.2470    0.07310
  1.2490    0.07590
  1.2510    0.07840
  1.2530    0.08090
  1.2550    0.08320
  1.2570    0.08520
  1.2590    0.08690
  1.2610    0.08830
  1.2630    0.08970
  1.2650    0.09100
  1.2670    0.09200
  1.2690    0.09290
  1.2710    0.09350
  1.2730    0.09390
  1.2750    0.09410
  1.2770    0.09410
  1.2790    0.09400
  1.2810    0.09370
  1.2830    0.09310
  1.2850    0.09220
  1.2870    0.09110
  1.2890    0.08980
  1.2910    0.08830
  1.2930    0.08660
  1.2950    0.08470
  1.2970    0.08260
  1.2990    0.08000
  1.3010    0.07720
  1.3030    0.07410
  1.3050    0.07070
  1.3070    0.06700
  1.3090    0.06300
  1.3110    0.05860
  1.3130    0.05390
  1.3150    0.04880
  1.3170    0.04350
  1.3190    0.03800
  1.3210    0.03230
  1.3230    0.02600
  1.3250    0.01930
  1.3270    0.01230
  1.3290    0.00520
  1.3310   -0.00220
  1.3330   -0.00990
  1.3350   -0.01770
  1.3370   -0.02570
  1.3390   -0.03380
  1.3410   -0.04190
  1.3430   -0.05000
  1.3450   -0.05830
  1.3470   -0.06640
  1.3490   -0.07440
  1.3510   -0.08240
  1.3530   -0.09000
  1.3550   -0.09700
  1.3570   -0.10380
  1.3590   -0.11050
  1.3610   -0.11660
  1.3630   -0.12220
  1.3650   -0.12730
  1.3670   -0.13170
  1.3690   -0.13530
  1.3710   -0.13840
  1.3730   -0.14080
  1.3750   -0.14230
  1.3770   -0.14280
  1.3790   -0.14220
  1.3810   -0.14100
  1.3830   -0.13870
  1.3850   -0.13490
  1.3870   -0.13000
  1.3890   -0.12400
  1.3910   -0.11690
  1.3930   -0.10870
  1.3950   -0.09920
  1.3970   -0.08850
  1.3990   -0.07700
