# z (nm)   (kJ/mol)
  0.457000, 39.109600
  0.459000, 38.105600
  0.461000, 37.130700
  0.463000, 36.204000
  0.465000, 35.268300
  0.467000, 34.333700
  0.469000, 33.402900
  0.471000, 32.461500
  0.473000, 31.495700
  0.475000, 30.535400
  0.477000, 29.584700
  0.479000, 28.631200
  0.481000, 27.687500
  0.483000, 26.751300
  0.485000, 25.826300
  0.487000, 24.919700
  0.489000, 24.036600
  0.491000, 23.172800
  0.493000, 22.326800
  0.495000, 21.492100
  0.497000, 20.675100
  0.499000, 19.880400
  0.501000, 19.108500
  0.503000, 18.357800
  0.505000, 17.631100
  0.507000, 16.930400
  0.509000, 16.249700
  0.511000, 15.599000
  0.513000, 14.971200
  0.515000, 14.362500
  0.517000, 13.778300
  0.519000, 13.218100
  0.521000, 12.685300
  0.523000, 12.178700
  0.525000, 11.689800
  0.527000, 11.223500
  0.529000, 10.784200
  0.531000, 10.361100
  0.533000,  9.958400
  0.535000,  9.577800
  0.537000,  9.215100
  0.539000,  8.870200
  0.541000,  8.543400
  0.543000,  8.234400
  0.545000,  7.942700
  0.547000,  7.664000
  0.549000,  7.400400
  0.551000,  7.153400
  0.553000,  6.918400
  0.555000,  6.697700
  0.557000,  6.491400
  0.559000,  6.297300
  0.561000,  6.115800
  0.563000,  5.946900
  0.565000,  5.790000
  0.567000,  5.643800
  0.569000,  5.507100
  0.571000,  5.380700
  0.573000,  5.264000
  0.575000,  5.155100
  0.577000,  5.054300
  0.579000,  4.963500
  0.581000,  4.880600
  0.583000,  4.803900
  0.585000,  4.732600
  0.587000,  4.666200
  0.589000,  4.606000
  0.591000,  4.550700
  0.593000,  4.495100
  0.595000,  4.441300
  0.597000,  4.388700
  0.599000,  4.336400
  0.601000,  4.285400
  0.603000,  4.234200
  0.605000,  4.181600
  0.607000,  4.126700
  0.609000,  4.070600
  0.611000,  4.012500
  0.613000,  3.951800
  0.615000,  3.887300
  0.617000,  3.819100
  0.619000,  3.747900
  0.621000,  3.673100
  0.623000,  3.593400
  0.625000,  3.510100
  0.627000,  3.423400
  0.629000,  3.331600
  0.631000,  3.236300
  0.633000,  3.136800
  0.635000,  3.032900
  0.637000,  2.925800
  0.639000,  2.815500
  0.641000,  2.702200
  0.643000,  2.585700
  0.645000,  2.465700
  0.647000,  2.343800
  0.649000,  2.220300
  0.651000,  2.095800
  0.653000,  1.970900
  0.655000,  1.844900
  0.657000,  1.717200
  0.659000,  1.590200
  0.661000,  1.464900
  0.663000,  1.340400
  0.665000,  1.216900
  0.667000,  1.094300
  0.669000,  0.973600
  0.671000,  0.854800
  0.673000,  0.738300
  0.675000,  0.625100
  0.677000,  0.514700
  0.679000,  0.407300
  0.681000,  0.303200
  0.683000,  0.202900
  0.685000,  0.106300
  0.687000,  0.013300
  0.689000, -0.076200
  0.691000, -0.162200
  0.693000, -0.244100
  0.695000, -0.321300
  0.697000, -0.394200
  0.699000, -0.462900
  0.701000, -0.527100
  0.703000, -0.587400
  0.705000, -0.643500
  0.707000, -0.695300
  0.709000, -0.743100
  0.711000, -0.786800
  0.713000, -0.826300
  0.715000, -0.861600
  0.717000, -0.893500
  0.719000, -0.922000
  0.721000, -0.947000
  0.723000, -0.968800
  0.725000, -0.987000
  0.727000, -1.002200
  0.729000, -1.014700
  0.731000, -1.024600
  0.733000, -1.031700
  0.735000, -1.036400
  0.737000, -1.038700
  0.739000, -1.038900
  0.741000, -1.037300
  0.743000, -1.033900
  0.745000, -1.028800
  0.747000, -1.022000
  0.749000, -1.013600
  0.751000, -1.003900
  0.753000, -0.993200
  0.755000, -0.981400
  0.757000, -0.968600
  0.759000, -0.954900
  0.761000, -0.940200
  0.763000, -0.924800
  0.765000, -0.908800
  0.767000, -0.892400
  0.769000, -0.875300
  0.771000, -0.857800
  0.773000, -0.839900
  0.775000, -0.821600
  0.777000, -0.803100
  0.779000, -0.784200
  0.781000, -0.764900
  0.783000, -0.745500
  0.785000, -0.725700
  0.787000, -0.705500
  0.789000, -0.685000
  0.791000, -0.664500
  0.793000, -0.643700
  0.795000, -0.622600
  0.797000, -0.601300
  0.799000, -0.579800
  0.801000, -0.558000
  0.803000, -0.536100
  0.805000, -0.513800
  0.807000, -0.491300
  0.809000, -0.468700
  0.811000, -0.445800
  0.813000, -0.422600
  0.815000, -0.399400
  0.817000, -0.376100
  0.819000, -0.352600
  0.821000, -0.328900
  0.823000, -0.305000
  0.825000, -0.281000
  0.827000, -0.257000
  0.829000, -0.232800
  0.831000, -0.208700
  0.833000, -0.184600
  0.835000, -0.160500
  0.837000, -0.136600
  0.839000, -0.112500
  0.841000, -0.088400
  0.843000, -0.064500
  0.845000, -0.040700
  0.847000, -0.017200
  0.849000,  0.006000
  0.851000,  0.029100
  0.853000,  0.051900
  0.855000,  0.074400
  0.857000,  0.096400
  0.859000,  0.118100
  0.861000,  0.139300
  0.863000,  0.160200
  0.865000,  0.180500
  0.867000,  0.200400
  0.869000,  0.219900
  0.871000,  0.238900
  0.873000,  0.257400
  0.875000,  0.275400
  0.877000,  0.292800
  0.879000,  0.309600
  0.881000,  0.325700
  0.883000,  0.341000
  0.885000,  0.355800
  0.887000,  0.370000
  0.889000,  0.383400
  0.891000,  0.396200
  0.893000,  0.408400
  0.895000,  0.419900
  0.897000,  0.430600
  0.899000,  0.440700
  0.901000,  0.450000
  0.903000,  0.458700
  0.905000,  0.466600
  0.907000,  0.473900
  0.909000,  0.480400
  0.911000,  0.486200
  0.913000,  0.491300
  0.915000,  0.495600
  0.917000,  0.499300
  0.919000,  0.502400
  0.921000,  0.504700
  0.923000,  0.506300
  0.925000,  0.507100
  0.927000,  0.507200
  0.929000,  0.506700
  0.931000,  0.505600
  0.933000,  0.503900
  0.935000,  0.501300
  0.937000,  0.498100
  0.939000,  0.494300
  0.941000,  0.489700
  0.943000,  0.484500
  0.945000,  0.478900
  0.947000,  0.472600
  0.949000,  0.465800
  0.951000,  0.458300
  0.953000,  0.450300
  0.955000,  0.441700
  0.957000,  0.432600
  0.959000,  0.423000
  0.961000,  0.412800
  0.963000,  0.402300
  0.965000,  0.391300
  0.967000,  0.379800
  0.969000,  0.368000
  0.971000,  0.355800
  0.973000,  0.343200
  0.975000,  0.330100
  0.977000,  0.316800
  0.979000,  0.303200
  0.981000,  0.289400
  0.983000,  0.275200
  0.985000,  0.260900
  0.987000,  0.246400
  0.989000,  0.231600
  0.991000,  0.216500
  0.993000,  0.201400
  0.995000,  0.186300
  0.997000,  0.170900
  0.999000,  0.155500
  1.001000,  0.139900
  1.003000,  0.124400
  1.005000,  0.108900
  1.007000,  0.093400
  1.009000,  0.078000
  1.011000,  0.062900
  1.013000,  0.047800
  1.015000,  0.032700
  1.017000,  0.017700
  1.019000,  0.002900
  1.021000, -0.011600
  1.023000, -0.025900
  1.025000, -0.039900
  1.027000, -0.053800
  1.029000, -0.067300
  1.031000, -0.080500
  1.033000, -0.093400
  1.035000, -0.106000
  1.037000, -0.118300
  1.039000, -0.130000
  1.041000, -0.141300
  1.043000, -0.152200
  1.045000, -0.162800
  1.047000, -0.172800
  1.049000, -0.182400
  1.051000, -0.191600
  1.053000, -0.200200
  1.055000, -0.208300
  1.057000, -0.215900
  1.059000, -0.223000
  1.061000, -0.229600
  1.063000, -0.235800
  1.065000, -0.241400
  1.067000, -0.246500
  1.069000, -0.251000
  1.071000, -0.255100
  1.073000, -0.258700
  1.075000, -0.261900
  1.077000, -0.264400
  1.079000, -0.266400
  1.081000, -0.268000
  1.083000, -0.269300
  1.085000, -0.270000
  1.087000, -0.270200
  1.089000, -0.269900
  1.091000, -0.269300
  1.093000, -0.268300
  1.095000, -0.266800
  1.097000, -0.264800
  1.099000, -0.262600
  1.101000, -0.260200
  1.103000, -0.257400
  1.105000, -0.254200
  1.107000, -0.250700
  1.109000, -0.247000
  1.111000, -0.243000
  1.113000, -0.238800
  1.115000, -0.234400
  1.117000, -0.229900
  1.119000, -0.225000
  1.121000, -0.220000
  1.123000, -0.214800
  1.125000, -0.209400
  1.127000, -0.204000
  1.129000, -0.198400
  1.131000, -0.192800
  1.133000, -0.187100
  1.135000, -0.181300
  1.137000, -0.175400
  1.139000, -0.169400
  1.141000, -0.163500
  1.143000, -0.157500
  1.145000, -0.151400
  1.147000, -0.145400
  1.149000, -0.139400
  1.151000, -0.133500
  1.153000, -0.127600
  1.155000, -0.121700
  1.157000, -0.115800
  1.159000, -0.110000
  1.161000, -0.104300
  1.163000, -0.098700
  1.165000, -0.093200
  1.167000, -0.087700
  1.169000, -0.082100
  1.171000, -0.076700
  1.173000, -0.071300
  1.175000, -0.065900
  1.177000, -0.060700
  1.179000, -0.055600
  1.181000, -0.050500
  1.183000, -0.045400
  1.185000, -0.040600
  1.187000, -0.036000
  1.189000, -0.031300
  1.191000, -0.026600
  1.193000, -0.022100
  1.195000, -0.017700
  1.197000, -0.013600
  1.199000, -0.009500
  1.201000, -0.005500
  1.203000, -0.001500
  1.205000,  0.002300
  1.207000,  0.006000
  1.209000,  0.009400
  1.211000,  0.012600
  1.213000,  0.015900
  1.215000,  0.019100
  1.217000,  0.022200
  1.219000,  0.025100
  1.221000,  0.027900
  1.223000,  0.030700
  1.225000,  0.033300
  1.227000,  0.035700
  1.229000,  0.037900
  1.231000,  0.040000
  1.233000,  0.041900
  1.235000,  0.043700
  1.237000,  0.045400
  1.239000,  0.046900
  1.241000,  0.048300
  1.243000,  0.049600
  1.245000,  0.050800
  1.247000,  0.051800
  1.249000,  0.052700
  1.251000,  0.053500
  1.253000,  0.054200
  1.255000,  0.054800
  1.257000,  0.055400
  1.259000,  0.056000
  1.261000,  0.056200
  1.263000,  0.056200
  1.265000,  0.056300
  1.267000,  0.056300
  1.269000,  0.056000
  1.271000,  0.055700
  1.273000,  0.055100
  1.275000,  0.054600
  1.277000,  0.053900
  1.279000,  0.053100
  1.281000,  0.052200
  1.283000,  0.051100
  1.285000,  0.049900
  1.287000,  0.048500
  1.289000,  0.046900
  1.291000,  0.045200
  1.293000,  0.043400
  1.295000,  0.041500
  1.297000,  0.039400
  1.299000,  0.037200
  1.301000,  0.034900
  1.303000,  0.032300
  1.305000,  0.029700
  1.307000,  0.026800
  1.309000,  0.023700
  1.311000,  0.020500
  1.313000,  0.016900
  1.315000,  0.013200
  1.317000,  0.009400
  1.319000,  0.005500
  1.321000,  0.001500
  1.323000, -0.002800
  1.325000, -0.007100
  1.327000, -0.011600
  1.329000, -0.016400
  1.331000, -0.021100
  1.333000, -0.025900
  1.335000, -0.030800
  1.337000, -0.035700
  1.339000, -0.040600
  1.341000, -0.045300
  1.343000, -0.049900
  1.345000, -0.054600
  1.347000, -0.059000
  1.349000, -0.063400
  1.351000, -0.067700
  1.353000, -0.071800
  1.355000, -0.075600
  1.357000, -0.079200
  1.359000, -0.082300
  1.361000, -0.084800
  1.363000, -0.087000
  1.365000, -0.088900
  1.367000, -0.090300
  1.369000, -0.091100
  1.371000, -0.091000
  1.373000, -0.090200
  1.375000, -0.089100
  1.377000, -0.087200
  1.379000, -0.084300
  1.381000, -0.080800
  1.383000, -0.076500
  1.385000, -0.071300
  1.387000, -0.065300
  1.389000, -0.058400
  1.391000, -0.050800
  1.393000, -0.042500
  1.395000, -0.033100
  1.397000, -0.023000
  1.399000, -0.012200
