# z (nm)   (kJ/mol)
  0.4570   39.10960
  0.4590   38.10560
  0.4610   37.13070
  0.4630   36.20400
  0.4650   35.26830
  0.4670   34.33370
  0.4690   33.40290
  0.4710   32.46150
  0.4730   31.49570
  0.4750   30.53540
  0.4770   29.58470
  0.4790   28.63120
  0.4810   27.68750
  0.4830   26.75130
  0.4850   25.82630
  0.4870   24.91970
  0.4890   24.03660
  0.4910   23.17280
  0.4930   22.32680
  0.4950   21.49210
  0.4970   20.67510
  0.4990   19.88040
  0.5010   19.10850
  0.5030   18.35780
  0.5050   17.63110
  0.5070   16.93040
  0.5090   16.24970
  0.5110   15.59900
  0.5130   14.97120
  0.5150   14.36250
  0.5170   13.77830
  0.5190   13.21810
  0.5210   12.68530
  0.5230   12.17870
  0.5250   11.68980
  0.5270   11.22350
  0.5290   10.78420
  0.5310   10.36110
  0.5330    9.95840
  0.5350    9.57780
  0.5370    9.21510
  0.5390    8.87020
  0.5410    8.54340
  0.5430    8.23440
  0.5450    7.94270
  0.5470    7.66400
  0.5490    7.40040
  0.5510    7.15340
  0.5530    6.91840
  0.5550    6.69770
  0.5570    6.49140
  0.5590    6.29730
  0.5610    6.11580
  0.5630    5.94690
  0.5650    5.79000
  0.5670    5.64380
  0.5690    5.50710
  0.5710    5.38070
  0.5730    5.26400
  0.5750    5.15510
  0.5770    5.05430
  0.5790    4.96350
  0.5810    4.88060
  0.5830    4.80390
  0.5850    4.73260
  0.5870    4.66620
  0.5890    4.60600
  0.5910    4.55070
  0.5930    4.49510
  0.5950    4.44130
  0.5970    4.38870
  0.5990    4.33640
  0.6010    4.28540
  0.6030    4.23420
  0.6050    4.18160
  0.6070    4.12670
  0.6090    4.07060
  0.6110    4.01250
  0.6130    3.95180
  0.6150    3.88730
  0.6170    3.81910
  0.6190    3.74790
  0.6210    3.67310
  0.6230    3.59340
  0.6250    3.51010
  0.6270    3.42340
  0.6290    3.33160
  0.6310    3.23630
  0.6330    3.13680
  0.6350    3.03290
  0.6370    2.92580
  0.6390    2.81550
  0.6410    2.70220
  0.6430    2.58570
  0.6450    2.46570
  0.6470    2.34380
  0.6490    2.22030
  0.6510    2.09580
  0.6530    1.97090
  0.6550    1.84490
  0.6570    1.71720
  0.6590    1.59020
  0.6610    1.46490
  0.6630    1.34040
  0.6650    1.21690
  0.6670    1.09430
  0.6690    0.97360
  0.6710    0.85480
  0.6730    0.73830
  0.6750    0.62510
  0.6770    0.51470
  0.6790    0.40730
  0.6810    0.30320
  0.6830    0.20290
  0.6850    0.10630
  0.6870    0.01330
  0.6890   -0.07620
  0.6910   -0.16220
  0.6930   -0.24410
  0.6950   -0.32130
  0.6970   -0.39420
  0.6990   -0.46290
  0.7010   -0.52710
  0.7030   -0.58740
  0.7050   -0.64350
  0.7070   -0.69530
  0.7090   -0.74310
  0.7110   -0.78680
  0.7130   -0.82630
  0.7150   -0.86160
  0.7170   -0.89350
  0.7190   -0.92200
  0.7210   -0.94700
  0.7230   -0.96880
  0.7250   -0.98700
  0.7270   -1.00220
  0.7290   -1.01470
  0.7310   -1.02460
  0.7330   -1.03170
  0.7350   -1.03640
  0.7370   -1.03870
  0.7390   -1.03890
  0.7410   -1.03730
  0.7430   -1.03390
  0.7450   -1.02880
  0.7470   -1.02200
  0.7490   -1.01360
  0.7510   -1.00390
  0.7530   -0.99320
  0.7550   -0.98140
  0.7570   -0.96860
  0.7590   -0.95490
  0.7610   -0.94020
  0.7630   -0.92480
  0.7650   -0.90880
  0.7670   -0.89240
  0.7690   -0.87530
  0.7710   -0.85780
  0.7730   -0.83990
  0.7750   -0.82160
  0.7770   -0.80310
  0.7790   -0.78420
  0.7810   -0.76490
  0.7830   -0.74550
  0.7850   -0.72570
  0.7870   -0.70550
  0.7890   -0.68500
  0.7910   -0.66450
  0.7930   -0.64370
  0.7950   -0.62260
  0.7970   -0.60130
  0.7990   -0.57980
  0.8010   -0.55800
  0.8030   -0.53610
  0.8050   -0.51380
  0.8070   -0.49130
  0.8090   -0.46870
  0.8110   -0.44580
  0.8130   -0.42260
  0.8150   -0.39940
  0.8170   -0.37610
  0.8190   -0.35260
  0.8210   -0.32890
  0.8230   -0.30500
  0.8250   -0.28100
  0.8270   -0.25700
  0.8290   -0.23280
  0.8310   -0.20870
  0.8330   -0.18460
  0.8350   -0.16050
  0.8370   -0.13660
  0.8390   -0.11250
  0.8410   -0.08840
  0.8430   -0.06450
  0.8450   -0.04070
  0.8470   -0.01720
  0.8490    0.00600
  0.8510    0.02910
  0.8530    0.05190
  0.8550    0.07440
  0.8570    0.09640
  0.8590    0.11810
  0.8610    0.13930
  0.8630    0.16020
  0.8650    0.18050
  0.8670    0.20040
  0.8690    0.21990
  0.8710    0.23890
  0.8730    0.25740
  0.8750    0.27540
  0.8770    0.29280
  0.8790    0.30960
  0.8810    0.32570
  0.8830    0.34100
  0.8850    0.35580
  0.8870    0.37000
  0.8890    0.38340
  0.8910    0.39620
  0.8930    0.40840
  0.8950    0.41990
  0.8970    0.43060
  0.8990    0.44070
  0.9010    0.45000
  0.9030    0.45870
  0.9050    0.46660
  0.9070    0.47390
  0.9090    0.48040
  0.9110    0.48620
  0.9130    0.49130
  0.9150    0.49560
  0.9170    0.49930
  0.9190    0.50240
  0.9210    0.50470
  0.9230    0.50630
  0.9250    0.50710
  0.9270    0.50720
  0.9290    0.50670
  0.9310    0.50560
  0.9330    0.50390
  0.9350    0.50130
  0.9370    0.49810
  0.9390    0.49430
  0.9410    0.48970
  0.9430    0.48450
  0.9450    0.47890
  0.9470    0.47260
  0.9490    0.46580
  0.9510    0.45830
  0.9530    0.45030
  0.9550    0.44170
  0.9570    0.43260
  0.9590    0.42300
  0.9610    0.41280
  0.9630    0.40230
  0.9650    0.39130
  0.9670    0.37980
  0.9690    0.36800
  0.9710    0.35580
  0.9730    0.34320
  0.9750    0.33010
  0.9770    0.31680
  0.9790    0.30320
  0.9810    0.28940
  0.9830    0.27520
  0.9850    0.26090
  0.9870    0.24640
  0.9890    0.23160
  0.9910    0.21650
  0.9930    0.20140
  0.9950    0.18630
  0.9970    0.17090
  0.9990    0.15550
  1.0010    0.13990
  1.0030    0.12440
  1.0050    0.10890
  1.0070    0.09340
  1.0090    0.07800
  1.0110    0.06290
  1.0130    0.04780
  1.0150    0.03270
  1.0170    0.01770
  1.0190    0.00290
  1.0210   -0.01160
  1.0230   -0.02590
  1.0250   -0.03990
  1.0270   -0.05380
  1.0290   -0.06730
  1.0310   -0.08050
  1.0330   -0.09340
  1.0350   -0.10600
  1.0370   -0.11830
  1.0390   -0.13000
  1.0410   -0.14130
  1.0430   -0.15220
  1.0450   -0.16280
  1.0470   -0.17280
  1.0490   -0.18240
  1.0510   -0.19160
  1.0530   -0.20020
  1.0550   -0.20830
  1.0570   -0.21590
  1.0590   -0.22300
  1.0610   -0.22960
  1.0630   -0.23580
  1.0650   -0.24140
  1.0670   -0.24650
  1.0690   -0.25100
  1.0710   -0.25510
  1.0730   -0.25870
  1.0750   -0.26190
  1.0770   -0.26440
  1.0790   -0.26640
  1.0810   -0.26800
  1.0830   -0.26930
  1.0850   -0.27000
  1.0870   -0.27020
  1.0890   -0.26990
  1.0910   -0.26930
  1.0930   -0.26830
  1.0950   -0.26680
  1.0970   -0.26480
  1.0990   -0.26260
  1.1010   -0.26020
  1.1030   -0.25740
  1.1050   -0.25420
  1.1070   -0.25070
  1.1090   -0.24700
  1.1110   -0.24300
  1.1130   -0.23880
  1.1150   -0.23440
  1.1170   -0.22990
  1.1190   -0.22500
  1.1210   -0.22000
  1.1230   -0.21480
  1.1250   -0.20940
  1.1270   -0.20400
  1.1290   -0.19840
  1.1310   -0.19280
  1.1330   -0.18710
  1.1350   -0.18130
  1.1370   -0.17540
  1.1390   -0.16940
  1.1410   -0.16350
  1.1430   -0.15750
  1.1450   -0.15140
  1.1470   -0.14540
  1.1490   -0.13940
  1.1510   -0.13350
  1.1530   -0.12760
  1.1550   -0.12170
  1.1570   -0.11580
  1.1590   -0.11000
  1.1610   -0.10430
  1.1630   -0.09870
  1.1650   -0.09320
  1.1670   -0.08770
  1.1690   -0.08210
  1.1710   -0.07670
  1.1730   -0.07130
  1.1750   -0.06590
  1.1770   -0.06070
  1.1790   -0.05560
  1.1810   -0.05050
  1.1830   -0.04540
  1.1850   -0.04060
  1.1870   -0.03600
  1.1890   -0.03130
  1.1910   -0.02660
  1.1930   -0.02210
  1.1950   -0.01770
  1.1970   -0.01360
  1.1990   -0.00950
  1.2010   -0.00550
  1.2030   -0.00150
  1.2050    0.00230
  1.2070    0.00600
  1.2090    0.00940
  1.2110    0.01260
  1.2130    0.01590
  1.2150    0.01910
  1.2170    0.02220
  1.2190    0.02510
  1.2210    0.02790
  1.2230    0.03070
  1.2250    0.03330
  1.2270    0.03570
  1.2290    0.03790
  1.2310    0.04000
  1.2330    0.04190
  1.2350    0.04370
  1.2370    0.04540
  1.2390    0.04690
  1.2410    0.04830
  1.2430    0.04960
  1.2450    0.05080
  1.2470    0.05180
  1.2490    0.05270
  1.2510    0.05350
  1.2530    0.05420
  1.2550    0.05480
  1.2570    0.05540
  1.2590    0.05600
  1.2610    0.05620
  1.2630    0.05620
  1.2650    0.05630
  1.2670    0.05630
  1.2690    0.05600
  1.2710    0.05570
  1.2730    0.05510
  1.2750    0.05460
  1.2770    0.05390
  1.2790    0.05310
  1.2810    0.05220
  1.2830    0.05110
  1.2850    0.04990
  1.2870    0.04850
  1.2890    0.04690
  1.2910    0.04520
  1.2930    0.04340
  1.2950    0.04150
  1.2970    0.03940
  1.2990    0.03720
  1.3010    0.03490
  1.3030    0.03230
  1.3050    0.02970
  1.3070    0.02680
  1.3090    0.02370
  1.3110    0.02050
  1.3130    0.01690
  1.3150    0.01320
  1.3170    0.00940
  1.3190    0.00550
  1.3210    0.00150
  1.3230   -0.00280
  1.3250   -0.00710
  1.3270   -0.01160
  1.3290   -0.01640
  1.3310   -0.02110
  1.3330   -0.02590
  1.3350   -0.03080
  1.3370   -0.03570
  1.3390   -0.04060
  1.3410   -0.04530
  1.3430   -0.04990
  1.3450   -0.05460
  1.3470   -0.05900
  1.3490   -0.06340
  1.3510   -0.06770
  1.3530   -0.07180
  1.3550   -0.07560
  1.3570   -0.07920
  1.3590   -0.08230
  1.3610   -0.08480
  1.3630   -0.08700
  1.3650   -0.08890
  1.3670   -0.09030
  1.3690   -0.09110
  1.3710   -0.09100
  1.3730   -0.09020
  1.3750   -0.08910
  1.3770   -0.08720
  1.3790   -0.08430
  1.3810   -0.08080
  1.3830   -0.07650
  1.3850   -0.07130
  1.3870   -0.06530
  1.3890   -0.05840
  1.3910   -0.05080
  1.3930   -0.04250
  1.3950   -0.03310
  1.3970   -0.02300
  1.3990   -0.01220
