# z (nm)   (kJ/mol)
  0.569000, 40.889000
  0.571000, 39.377700
  0.573000, 37.824400
  0.575000, 36.282800
  0.577000, 34.726200
  0.579000, 33.163800
  0.581000, 31.615000
  0.583000, 30.096800
  0.585000, 28.591800
  0.587000, 27.101400
  0.589000, 25.632500
  0.591000, 24.193400
  0.593000, 22.781400
  0.595000, 21.388700
  0.597000, 20.029800
  0.599000, 18.710400
  0.601000, 17.428800
  0.603000, 16.181100
  0.605000, 14.973100
  0.607000, 13.799200
  0.609000, 12.657100
  0.611000, 11.563500
  0.613000, 10.515900
  0.615000,  9.514300
  0.617000,  8.567500
  0.619000,  7.685400
  0.621000,  6.869700
  0.623000,  6.110200
  0.625000,  5.403900
  0.627000,  4.734100
  0.629000,  4.089200
  0.631000,  3.472500
  0.633000,  2.865400
  0.635000,  2.260800
  0.637000,  1.669100
  0.639000,  1.081700
  0.641000,  0.495900
  0.643000, -0.078600
  0.645000, -0.642600
  0.647000, -1.193600
  0.649000, -1.723100
  0.651000, -2.230600
  0.653000, -2.720100
  0.655000, -3.187400
  0.657000, -3.628900
  0.659000, -4.043800
  0.661000, -4.433600
  0.663000, -4.798400
  0.665000, -5.136600
  0.667000, -5.450200
  0.669000, -5.737500
  0.671000, -5.997200
  0.673000, -6.231700
  0.675000, -6.442400
  0.677000, -6.629200
  0.679000, -6.792800
  0.681000, -6.934000
  0.683000, -7.053000
  0.685000, -7.151000
  0.687000, -7.229800
  0.689000, -7.289700
  0.691000, -7.330700
  0.693000, -7.355800
  0.695000, -7.365800
  0.697000, -7.359300
  0.699000, -7.335400
  0.701000, -7.299300
  0.703000, -7.250100
  0.705000, -7.185900
  0.707000, -7.112500
  0.709000, -7.025400
  0.711000, -6.928300
  0.713000, -6.825900
  0.715000, -6.713600
  0.717000, -6.593100
  0.719000, -6.466600
  0.721000, -6.337400
  0.723000, -6.203600
  0.725000, -6.063500
  0.727000, -5.923900
  0.729000, -5.783600
  0.731000, -5.642700
  0.733000, -5.505800
  0.735000, -5.372300
  0.737000, -5.241700
  0.739000, -5.114800
  0.741000, -4.993800
  0.743000, -4.877500
  0.745000, -4.765600
  0.747000, -4.660900
  0.749000, -4.562300
  0.751000, -4.468500
  0.753000, -4.382100
  0.755000, -4.303500
  0.757000, -4.231000
  0.759000, -4.164600
  0.761000, -4.104000
  0.763000, -4.049400
  0.765000, -4.001700
  0.767000, -3.960100
  0.769000, -3.925300
  0.771000, -3.895900
  0.773000, -3.870900
  0.775000, -3.851500
  0.777000, -3.836500
  0.779000, -3.825500
  0.781000, -3.817500
  0.783000, -3.813700
  0.785000, -3.814100
  0.787000, -3.817600
  0.789000, -3.824300
  0.791000, -3.833600
  0.793000, -3.845700
  0.795000, -3.859200
  0.797000, -3.873400
  0.799000, -3.889700
  0.801000, -3.907900
  0.803000, -3.927000
  0.805000, -3.946400
  0.807000, -3.966000
  0.809000, -3.986000
  0.811000, -4.005400
  0.813000, -4.024400
  0.815000, -4.043200
  0.817000, -4.061200
  0.819000, -4.078200
  0.821000, -4.093600
  0.823000, -4.107800
  0.825000, -4.120400
  0.827000, -4.131300
  0.829000, -4.140000
  0.831000, -4.146800
  0.833000, -4.151800
  0.835000, -4.154000
  0.837000, -4.153700
  0.839000, -4.151700
  0.841000, -4.148000
  0.843000, -4.141100
  0.845000, -4.132000
  0.847000, -4.120900
  0.849000, -4.107600
  0.851000, -4.092700
  0.853000, -4.076000
  0.855000, -4.056800
  0.857000, -4.035700
  0.859000, -4.012800
  0.861000, -3.988600
  0.863000, -3.963100
  0.865000, -3.935100
  0.867000, -3.905400
  0.869000, -3.875100
  0.871000, -3.843800
  0.873000, -3.811200
  0.875000, -3.777100
  0.877000, -3.742200
  0.879000, -3.706200
  0.881000, -3.669400
  0.883000, -3.631900
  0.885000, -3.593600
  0.887000, -3.554600
  0.889000, -3.514800
  0.891000, -3.474700
  0.893000, -3.434200
  0.895000, -3.393200
  0.897000, -3.351700
  0.899000, -3.309800
  0.901000, -3.267200
  0.903000, -3.224400
  0.905000, -3.181200
  0.907000, -3.137900
  0.909000, -3.094800
  0.911000, -3.051600
  0.913000, -3.008300
  0.915000, -2.964600
  0.917000, -2.920900
  0.919000, -2.877100
  0.921000, -2.833300
  0.923000, -2.789300
  0.925000, -2.745400
  0.927000, -2.701400
  0.929000, -2.657100
  0.931000, -2.613200
  0.933000, -2.569700
  0.935000, -2.526300
  0.937000, -2.482800
  0.939000, -2.439400
  0.941000, -2.396000
  0.943000, -2.353000
  0.945000, -2.310200
  0.947000, -2.267600
  0.949000, -2.225000
  0.951000, -2.182500
  0.953000, -2.140600
  0.955000, -2.099300
  0.957000, -2.058500
  0.959000, -2.018100
  0.961000, -1.978000
  0.963000, -1.938300
  0.965000, -1.899000
  0.967000, -1.860200
  0.969000, -1.822100
  0.971000, -1.784600
  0.973000, -1.747700
  0.975000, -1.711400
  0.977000, -1.675800
  0.979000, -1.640700
  0.981000, -1.606300
  0.983000, -1.572800
  0.985000, -1.540000
  0.987000, -1.507900
  0.989000, -1.476700
  0.991000, -1.446200
  0.993000, -1.416700
  0.995000, -1.388000
  0.997000, -1.360000
  0.999000, -1.332900
  1.001000, -1.306800
  1.003000, -1.281200
  1.005000, -1.256500
  1.007000, -1.232800
  1.009000, -1.210200
  1.011000, -1.188500
  1.013000, -1.167600
  1.015000, -1.147500
  1.017000, -1.128200
  1.019000, -1.109900
  1.021000, -1.092600
  1.023000, -1.076000
  1.025000, -1.060300
  1.027000, -1.045700
  1.029000, -1.031700
  1.031000, -1.018300
  1.033000, -1.005800
  1.035000, -0.993900
  1.037000, -0.982500
  1.039000, -0.971900
  1.041000, -0.962000
  1.043000, -0.952800
  1.045000, -0.944200
  1.047000, -0.936000
  1.049000, -0.928600
  1.051000, -0.921700
  1.053000, -0.915000
  1.055000, -0.908900
  1.057000, -0.903600
  1.059000, -0.898800
  1.061000, -0.894500
  1.063000, -0.890500
  1.065000, -0.886800
  1.067000, -0.883400
  1.069000, -0.880300
  1.071000, -0.877400
  1.073000, -0.875000
  1.075000, -0.872500
  1.077000, -0.870200
  1.079000, -0.868300
  1.081000, -0.866300
  1.083000, -0.864600
  1.085000, -0.863200
  1.087000, -0.861900
  1.089000, -0.860800
  1.091000, -0.859800
  1.093000, -0.858700
  1.095000, -0.857600
  1.097000, -0.856500
  1.099000, -0.855300
  1.101000, -0.854200
  1.103000, -0.853100
  1.105000, -0.852000
  1.107000, -0.850900
  1.109000, -0.849800
  1.111000, -0.848500
  1.113000, -0.847000
  1.115000, -0.845400
  1.117000, -0.843900
  1.119000, -0.842000
  1.121000, -0.839800
  1.123000, -0.837600
  1.125000, -0.835000
  1.127000, -0.832200
  1.129000, -0.829300
  1.131000, -0.825900
  1.133000, -0.822100
  1.135000, -0.818000
  1.137000, -0.813600
  1.139000, -0.809000
  1.141000, -0.804100
  1.143000, -0.798800
  1.145000, -0.793100
  1.147000, -0.787100
  1.149000, -0.780700
  1.151000, -0.774100
  1.153000, -0.767000
  1.155000, -0.759400
  1.157000, -0.751600
  1.159000, -0.743600
  1.161000, -0.735200
  1.163000, -0.726200
  1.165000, -0.716800
  1.167000, -0.707000
  1.169000, -0.696800
  1.171000, -0.686200
  1.173000, -0.675500
  1.175000, -0.664400
  1.177000, -0.652800
  1.179000, -0.641000
  1.181000, -0.629000
  1.183000, -0.616800
  1.185000, -0.604200
  1.187000, -0.591300
  1.189000, -0.578300
  1.191000, -0.564900
  1.193000, -0.551300
  1.195000, -0.537600
  1.197000, -0.523800
  1.199000, -0.509800
  1.201000, -0.495800
  1.203000, -0.481700
  1.205000, -0.467400
  1.207000, -0.453100
  1.209000, -0.438700
  1.211000, -0.424100
  1.213000, -0.409500
  1.215000, -0.394800
  1.217000, -0.380400
  1.219000, -0.366100
  1.221000, -0.351600
  1.223000, -0.337300
  1.225000, -0.323100
  1.227000, -0.309100
  1.229000, -0.295100
  1.231000, -0.281100
  1.233000, -0.267600
  1.235000, -0.254200
  1.237000, -0.240900
  1.239000, -0.227700
  1.241000, -0.214700
  1.243000, -0.201900
  1.245000, -0.189300
  1.247000, -0.177000
  1.249000, -0.165100
  1.251000, -0.153200
  1.253000, -0.141400
  1.255000, -0.129700
  1.257000, -0.118200
  1.259000, -0.107100
  1.261000, -0.096200
  1.263000, -0.085600
  1.265000, -0.075100
  1.267000, -0.064800
  1.269000, -0.054800
  1.271000, -0.045100
  1.273000, -0.035400
  1.275000, -0.025900
  1.277000, -0.016700
  1.279000, -0.007700
  1.281000,  0.001200
  1.283000,  0.010000
  1.285000,  0.018600
  1.287000,  0.027000
  1.289000,  0.035100
  1.291000,  0.042900
  1.293000,  0.050700
  1.295000,  0.058300
  1.297000,  0.065500
  1.299000,  0.072500
  1.301000,  0.079400
  1.303000,  0.086200
  1.305000,  0.092600
  1.307000,  0.099200
  1.309000,  0.105400
  1.311000,  0.111100
  1.313000,  0.116700
  1.315000,  0.122200
  1.317000,  0.127300
  1.319000,  0.132300
  1.321000,  0.136900
  1.323000,  0.141200
  1.325000,  0.145400
  1.327000,  0.149300
  1.329000,  0.153000
  1.331000,  0.156200
  1.333000,  0.159300
  1.335000,  0.162300
  1.337000,  0.165200
  1.339000,  0.168000
  1.341000,  0.170500
  1.343000,  0.172700
  1.345000,  0.174900
  1.347000,  0.177100
  1.349000,  0.179200
  1.351000,  0.181300
  1.353000,  0.183500
  1.355000,  0.185700
  1.357000,  0.187900
  1.359000,  0.190100
  1.361000,  0.192500
  1.363000,  0.195200
  1.365000,  0.198100
  1.367000,  0.201400
  1.369000,  0.205100
  1.371000,  0.209300
  1.373000,  0.214100
  1.375000,  0.219200
  1.377000,  0.225000
  1.379000,  0.231400
  1.381000,  0.238700
  1.383000,  0.246500
  1.385000,  0.255300
  1.387000,  0.265000
  1.389000,  0.275500
  1.391000,  0.286900
  1.393000,  0.298900
  1.395000,  0.311700
  1.397000,  0.325400
  1.399000,  0.340000
