# z (nm)   (kJ/mol)
  0.429000, 24.851100
  0.433000, 22.211500
  0.435000, 20.885300
  0.437000, 19.561300
  0.439000, 18.221000
  0.441000, 16.898200
  0.443000, 15.601000
  0.445000, 14.335600
  0.447000, 13.090100
  0.449000, 11.857700
  0.451000, 10.663100
  0.453000,  9.509400
  0.455000,  8.390100
  0.457000,  7.305300
  0.459000,  6.262100
  0.461000,  5.257700
  0.463000,  4.295900
  0.465000,  3.379100
  0.467000,  2.500600
  0.469000,  1.660500
  0.471000,  0.860800
  0.473000,  0.103600
  0.475000, -0.613600
  0.477000, -1.294000
  0.479000, -1.943500
  0.481000, -2.558300
  0.483000, -3.136200
  0.485000, -3.683800
  0.487000, -4.200300
  0.489000, -4.684000
  0.491000, -5.138700
  0.493000, -5.565000
  0.495000, -5.961600
  0.497000, -6.331700
  0.499000, -6.674500
  0.501000, -6.988800
  0.503000, -7.275300
  0.505000, -7.532600
  0.507000, -7.763000
  0.509000, -7.967500
  0.511000, -8.143500
  0.513000, -8.292500
  0.515000, -8.417100
  0.517000, -8.517200
  0.519000, -8.592900
  0.521000, -8.644200
  0.523000, -8.671900
  0.525000, -8.679500
  0.527000, -8.667900
  0.529000, -8.637800
  0.531000, -8.591400
  0.533000, -8.525600
  0.535000, -8.439000
  0.537000, -8.333900
  0.539000, -8.214600
  0.541000, -8.082200
  0.543000, -7.933900
  0.545000, -7.768700
  0.547000, -7.589800
  0.549000, -7.400800
  0.551000, -7.197600
  0.553000, -6.981500
  0.555000, -6.757300
  0.557000, -6.523100
  0.559000, -6.281100
  0.561000, -6.034000
  0.563000, -5.782300
  0.565000, -5.525500
  0.567000, -5.264200
  0.569000, -5.000400
  0.571000, -4.736100
  0.573000, -4.470500
  0.575000, -4.204500
  0.577000, -3.940300
  0.579000, -3.678200
  0.581000, -3.419200
  0.583000, -3.164000
  0.585000, -2.913000
  0.587000, -2.666800
  0.589000, -2.426300
  0.591000, -2.192300
  0.593000, -1.965600
  0.595000, -1.747100
  0.597000, -1.536400
  0.599000, -1.334900
  0.601000, -1.141800
  0.603000, -0.956900
  0.605000, -0.782300
  0.607000, -0.617800
  0.609000, -0.462600
  0.611000, -0.316900
  0.613000, -0.182300
  0.615000, -0.058900
  0.617000,  0.055100
  0.619000,  0.159800
  0.621000,  0.254600
  0.623000,  0.338800
  0.625000,  0.413100
  0.627000,  0.477100
  0.629000,  0.531000
  0.631000,  0.576300
  0.633000,  0.612500
  0.635000,  0.639700
  0.637000,  0.658500
  0.639000,  0.668600
  0.641000,  0.671100
  0.643000,  0.666700
  0.645000,  0.655600
  0.647000,  0.637700
  0.649000,  0.613800
  0.651000,  0.584500
  0.653000,  0.549900
  0.655000,  0.510100
  0.657000,  0.465400
  0.659000,  0.417100
  0.661000,  0.364500
  0.663000,  0.308500
  0.665000,  0.249800
  0.667000,  0.189200
  0.669000,  0.126800
  0.671000,  0.062300
  0.673000, -0.003700
  0.675000, -0.070400
  0.677000, -0.137500
  0.679000, -0.205100
  0.681000, -0.272600
  0.683000, -0.339900
  0.685000, -0.406100
  0.687000, -0.471600
  0.689000, -0.536200
  0.691000, -0.598800
  0.693000, -0.660400
  0.695000, -0.720300
  0.697000, -0.777900
  0.699000, -0.834100
  0.701000, -0.887900
  0.703000, -0.939500
  0.705000, -0.989000
  0.707000, -1.036100
  0.709000, -1.081100
  0.711000, -1.123200
  0.713000, -1.162400
  0.715000, -1.199100
  0.717000, -1.233300
  0.719000, -1.264800
  0.721000, -1.293500
  0.723000, -1.319500
  0.725000, -1.342900
  0.727000, -1.363600
  0.729000, -1.382100
  0.731000, -1.398300
  0.733000, -1.412400
  0.735000, -1.424200
  0.737000, -1.433900
  0.739000, -1.441600
  0.741000, -1.446900
  0.743000, -1.449900
  0.745000, -1.451000
  0.747000, -1.449900
  0.749000, -1.447000
  0.751000, -1.442200
  0.753000, -1.435800
  0.755000, -1.427400
  0.757000, -1.417000
  0.759000, -1.405000
  0.761000, -1.391600
  0.763000, -1.376400
  0.765000, -1.359700
  0.767000, -1.341500
  0.769000, -1.321600
  0.771000, -1.300400
  0.773000, -1.278100
  0.775000, -1.254400
  0.777000, -1.229400
  0.779000, -1.203400
  0.781000, -1.176300
  0.783000, -1.148200
  0.785000, -1.119300
  0.787000, -1.089300
  0.789000, -1.058600
  0.791000, -1.027500
  0.793000, -0.995800
  0.795000, -0.963300
  0.797000, -0.930300
  0.799000, -0.897000
  0.801000, -0.863500
  0.803000, -0.829900
  0.805000, -0.796100
  0.807000, -0.762400
  0.809000, -0.728600
  0.811000, -0.695000
  0.813000, -0.661700
  0.815000, -0.628600
  0.817000, -0.596000
  0.819000, -0.563600
  0.821000, -0.531800
  0.823000, -0.500900
  0.825000, -0.470500
  0.827000, -0.440700
  0.829000, -0.411500
  0.831000, -0.383200
  0.833000, -0.355900
  0.835000, -0.329500
  0.837000, -0.303900
  0.839000, -0.279400
  0.841000, -0.255600
  0.843000, -0.233100
  0.845000, -0.211900
  0.847000, -0.191700
  0.849000, -0.172500
  0.851000, -0.154200
  0.853000, -0.137500
  0.855000, -0.121900
  0.857000, -0.107200
  0.859000, -0.093600
  0.861000, -0.081100
  0.863000, -0.069400
  0.865000, -0.059100
  0.867000, -0.050000
  0.869000, -0.041800
  0.871000, -0.034500
  0.873000, -0.028400
  0.875000, -0.023300
  0.877000, -0.018900
  0.879000, -0.015800
  0.881000, -0.013600
  0.883000, -0.012200
  0.885000, -0.011800
  0.887000, -0.012100
  0.889000, -0.013200
  0.891000, -0.014800
  0.893000, -0.017200
  0.895000, -0.020400
  0.897000, -0.024300
  0.899000, -0.028800
  0.901000, -0.033800
  0.903000, -0.039100
  0.905000, -0.044900
  0.907000, -0.051000
  0.909000, -0.057600
  0.911000, -0.064600
  0.913000, -0.071600
  0.915000, -0.079200
  0.917000, -0.087100
  0.919000, -0.095100
  0.921000, -0.103300
  0.923000, -0.111700
  0.925000, -0.120000
  0.927000, -0.128500
  0.929000, -0.137100
  0.931000, -0.145600
  0.933000, -0.154100
  0.935000, -0.162900
  0.937000, -0.171600
  0.939000, -0.180100
  0.941000, -0.188500
  0.943000, -0.196900
  0.945000, -0.205100
  0.947000, -0.213000
  0.949000, -0.220600
  0.951000, -0.228200
  0.953000, -0.235500
  0.955000, -0.242500
  0.957000, -0.249300
  0.959000, -0.255800
  0.961000, -0.262100
  0.963000, -0.268100
  0.965000, -0.273800
  0.967000, -0.279100
  0.969000, -0.284100
  0.971000, -0.288700
  0.973000, -0.292900
  0.975000, -0.296800
  0.977000, -0.300400
  0.979000, -0.303600
  0.981000, -0.306400
  0.983000, -0.309000
  0.985000, -0.311200
  0.987000, -0.313000
  0.989000, -0.314600
  0.991000, -0.315800
  0.993000, -0.316700
  0.995000, -0.317300
  0.997000, -0.317700
  0.999000, -0.317600
  1.001000, -0.317300
  1.003000, -0.316700
  1.005000, -0.315700
  1.007000, -0.314300
  1.009000, -0.312900
  1.011000, -0.311300
  1.013000, -0.309600
  1.015000, -0.307500
  1.017000, -0.305000
  1.019000, -0.302300
  1.021000, -0.299500
  1.023000, -0.296500
  1.025000, -0.293300
  1.027000, -0.290000
  1.029000, -0.286600
  1.031000, -0.283100
  1.033000, -0.279400
  1.035000, -0.275600
  1.037000, -0.271500
  1.039000, -0.267200
  1.041000, -0.262700
  1.043000, -0.258200
  1.045000, -0.253700
  1.047000, -0.248900
  1.049000, -0.244100
  1.051000, -0.239400
  1.053000, -0.234700
  1.055000, -0.229800
  1.057000, -0.224800
  1.059000, -0.219700
  1.061000, -0.214600
  1.063000, -0.209500
  1.065000, -0.204300
  1.067000, -0.199100
  1.069000, -0.193900
  1.071000, -0.188600
  1.073000, -0.183300
  1.075000, -0.178200
  1.077000, -0.173000
  1.079000, -0.167800
  1.081000, -0.162500
  1.083000, -0.157300
  1.085000, -0.152200
  1.087000, -0.147000
  1.089000, -0.141900
  1.091000, -0.136700
  1.093000, -0.131600
  1.095000, -0.126700
  1.097000, -0.121800
  1.099000, -0.116900
  1.101000, -0.112200
  1.103000, -0.107500
  1.105000, -0.103000
  1.107000, -0.098400
  1.109000, -0.094100
  1.111000, -0.089800
  1.113000, -0.085600
  1.115000, -0.081400
  1.117000, -0.077400
  1.119000, -0.073500
  1.121000, -0.069700
  1.123000, -0.066000
  1.125000, -0.062400
  1.127000, -0.058900
  1.129000, -0.055600
  1.131000, -0.052400
  1.133000, -0.049400
  1.135000, -0.046300
  1.137000, -0.043300
  1.139000, -0.040600
  1.141000, -0.038000
  1.143000, -0.035300
  1.145000, -0.032800
  1.147000, -0.030500
  1.149000, -0.028300
  1.151000, -0.026100
  1.153000, -0.024000
  1.155000, -0.022100
  1.157000, -0.020300
  1.159000, -0.018400
  1.161000, -0.016600
  1.163000, -0.015000
  1.165000, -0.013300
  1.167000, -0.011800
  1.169000, -0.010400
  1.171000, -0.009100
  1.173000, -0.007900
  1.175000, -0.006700
  1.177000, -0.005500
  1.179000, -0.004400
  1.181000, -0.003300
  1.183000, -0.002200
  1.185000, -0.001100
  1.187000, -0.000000
  1.189000,  0.000900
  1.191000,  0.001800
  1.193000,  0.002800
  1.195000,  0.003700
  1.197000,  0.004500
  1.199000,  0.005400
  1.201000,  0.006300
  1.203000,  0.007100
  1.205000,  0.008000
  1.207000,  0.008900
  1.209000,  0.009800
  1.211000,  0.010500
  1.213000,  0.011200
  1.215000,  0.012000
  1.217000,  0.012800
  1.219000,  0.013600
  1.221000,  0.014200
  1.223000,  0.014900
  1.225000,  0.015500
  1.227000,  0.016200
  1.229000,  0.016900
  1.231000,  0.017600
  1.233000,  0.018300
  1.235000,  0.018900
  1.237000,  0.019400
  1.239000,  0.019900
  1.241000,  0.020400
  1.243000,  0.020900
  1.245000,  0.021600
  1.247000,  0.022100
  1.249000,  0.022500
  1.251000,  0.023000
  1.253000,  0.023500
  1.255000,  0.023700
  1.257000,  0.023800
  1.259000,  0.024100
  1.261000,  0.024300
  1.263000,  0.024500
  1.265000,  0.024700
  1.267000,  0.025000
  1.269000,  0.025000
  1.271000,  0.025000
  1.273000,  0.024800
  1.275000,  0.024700
  1.277000,  0.024400
  1.279000,  0.023900
  1.281000,  0.023400
  1.283000,  0.022800
  1.285000,  0.022100
  1.287000,  0.021200
  1.289000,  0.020200
  1.291000,  0.019100
  1.293000,  0.017900
  1.295000,  0.016500
  1.297000,  0.015000
  1.299000,  0.013400
  1.301000,  0.011600
  1.303000,  0.009700
  1.305000,  0.007600
  1.307000,  0.005400
  1.309000,  0.003000
  1.311000,  0.000500
  1.313000, -0.002200
  1.315000, -0.004900
  1.317000, -0.007700
  1.319000, -0.010600
  1.321000, -0.013800
  1.323000, -0.017000
  1.325000, -0.020100
  1.327000, -0.023200
  1.329000, -0.026300
  1.331000, -0.029500
  1.333000, -0.032700
  1.335000, -0.035700
  1.337000, -0.038600
  1.339000, -0.041300
  1.341000, -0.043900
  1.343000, -0.046200
  1.345000, -0.048200
  1.347000, -0.050200
  1.349000, -0.051900
  1.351000, -0.053300
  1.353000, -0.054400
  1.355000, -0.055100
  1.357000, -0.055300
  1.359000, -0.055000
  1.361000, -0.054300
  1.363000, -0.053200
  1.365000, -0.051500
  1.367000, -0.049300
  1.369000, -0.046400
  1.371000, -0.042700
  1.373000, -0.038400
  1.375000, -0.033600
  1.377000, -0.027800
  1.379000, -0.021500
  1.381000, -0.014400
  1.383000, -0.006300
  1.385000,  0.002500
  1.387000,  0.012000
  1.389000,  0.022200
  1.391000,  0.033100
  1.393000,  0.044800
  1.395000,  0.057100
  1.397000,  0.070200
  1.399000,  0.083700
