# z (nm)   (kJ/mol)
  0.5170    8.33930
  0.5190    7.67620
  0.5210    7.01580
  0.5230    6.36890
  0.5250    5.67870
  0.5270    4.96030
  0.5290    4.24600
  0.5310    3.52790
  0.5330    2.80020
  0.5350    2.05830
  0.5370    1.30390
  0.5390    0.54500
  0.5410   -0.21960
  0.5430   -0.99170
  0.5450   -1.76500
  0.5470   -2.54080
  0.5490   -3.31730
  0.5510   -4.08870
  0.5530   -4.85400
  0.5550   -5.61060
  0.5570   -6.35700
  0.5590   -7.09260
  0.5610   -7.81640
  0.5630   -8.52310
  0.5650   -9.21150
  0.5670   -9.88140
  0.5690  -10.52840
  0.5710  -11.15160
  0.5730  -11.74780
  0.5750  -12.31500
  0.5770  -12.85380
  0.5790  -13.36300
  0.5810  -13.84080
  0.5830  -14.28520
  0.5850  -14.69470
  0.5870  -15.06840
  0.5890  -15.40480
  0.5910  -15.70410
  0.5930  -15.96480
  0.5950  -16.18580
  0.5970  -16.36830
  0.5990  -16.51140
  0.6010  -16.61440
  0.6030  -16.67960
  0.6050  -16.70550
  0.6070  -16.69190
  0.6090  -16.64160
  0.6110  -16.55460
  0.6130  -16.42940
  0.6150  -16.26920
  0.6170  -16.07650
  0.6190  -15.85080
  0.6210  -15.59490
  0.6230  -15.31140
  0.6250  -15.00130
  0.6270  -14.66730
  0.6290  -14.31110
  0.6310  -13.93400
  0.6330  -13.53890
  0.6350  -13.12840
  0.6370  -12.70450
  0.6390  -12.26940
  0.6410  -11.82590
  0.6430  -11.37560
  0.6450  -10.92080
  0.6470  -10.46370
  0.6490  -10.00650
  0.6510   -9.55220
  0.6530   -9.10260
  0.6550   -8.65780
  0.6570   -8.22080
  0.6590   -7.79460
  0.6610   -7.37820
  0.6630   -6.97450
  0.6650   -6.58460
  0.6670   -6.20820
  0.6690   -5.84680
  0.6710   -5.50120
  0.6730   -5.17540
  0.6750   -4.86880
  0.6770   -4.57750
  0.6790   -4.30570
  0.6810   -4.05760
  0.6830   -3.83090
  0.6850   -3.62370
  0.6870   -3.43420
  0.6890   -3.26630
  0.6910   -3.11940
  0.6930   -2.99070
  0.6950   -2.88010
  0.6970   -2.78680
  0.6990   -2.71000
  0.7010   -2.64870
  0.7030   -2.60230
  0.7050   -2.56750
  0.7070   -2.54370
  0.7090   -2.53430
  0.7110   -2.53550
  0.7130   -2.54480
  0.7150   -2.56530
  0.7170   -2.59360
  0.7190   -2.62750
  0.7210   -2.66460
  0.7230   -2.70480
  0.7250   -2.74940
  0.7270   -2.79570
  0.7290   -2.84390
  0.7310   -2.89400
  0.7330   -2.94200
  0.7350   -2.98770
  0.7370   -3.03200
  0.7390   -3.07520
  0.7410   -3.11670
  0.7430   -3.15440
  0.7450   -3.18850
  0.7470   -3.21900
  0.7490   -3.24530
  0.7510   -3.26900
  0.7530   -3.28970
  0.7550   -3.30600
  0.7570   -3.31750
  0.7590   -3.32530
  0.7610   -3.32990
  0.7630   -3.33010
  0.7650   -3.32590
  0.7670   -3.31700
  0.7690   -3.30380
  0.7710   -3.28590
  0.7730   -3.26310
  0.7750   -3.23690
  0.7770   -3.20680
  0.7790   -3.17220
  0.7810   -3.13610
  0.7830   -3.09760
  0.7850   -3.05530
  0.7870   -3.01100
  0.7890   -2.96380
  0.7910   -2.91400
  0.7930   -2.86270
  0.7950   -2.80810
  0.7970   -2.75170
  0.7990   -2.69520
  0.8010   -2.63750
  0.8030   -2.57890
  0.8050   -2.51950
  0.8070   -2.46010
  0.8090   -2.40070
  0.8110   -2.34140
  0.8130   -2.28320
  0.8150   -2.22600
  0.8170   -2.16940
  0.8190   -2.11430
  0.8210   -2.05940
  0.8230   -2.00480
  0.8250   -1.95150
  0.8270   -1.89980
  0.8290   -1.84970
  0.8310   -1.80010
  0.8330   -1.75140
  0.8350   -1.70450
  0.8370   -1.65930
  0.8390   -1.61550
  0.8410   -1.57350
  0.8430   -1.53280
  0.8450   -1.49290
  0.8470   -1.45410
  0.8490   -1.41650
  0.8510   -1.38030
  0.8530   -1.34570
  0.8550   -1.31200
  0.8570   -1.27900
  0.8590   -1.24690
  0.8610   -1.21600
  0.8630   -1.18560
  0.8650   -1.15610
  0.8670   -1.12760
  0.8690   -1.09970
  0.8710   -1.07230
  0.8730   -1.04580
  0.8750   -1.02010
  0.8770   -0.99490
  0.8790   -0.97020
  0.8810   -0.94590
  0.8830   -0.92210
  0.8850   -0.89900
  0.8870   -0.87650
  0.8890   -0.85430
  0.8910   -0.83240
  0.8930   -0.81120
  0.8950   -0.79060
  0.8970   -0.77070
  0.8990   -0.75160
  0.9010   -0.73320
  0.9030   -0.71520
  0.9050   -0.69780
  0.9070   -0.68120
  0.9090   -0.66550
  0.9110   -0.65030
  0.9130   -0.63590
  0.9150   -0.62220
  0.9170   -0.60950
  0.9190   -0.59800
  0.9210   -0.58740
  0.9230   -0.57770
  0.9250   -0.56880
  0.9270   -0.56080
  0.9290   -0.55380
  0.9310   -0.54800
  0.9330   -0.54310
  0.9350   -0.53890
  0.9370   -0.53570
  0.9390   -0.53360
  0.9410   -0.53220
  0.9430   -0.53160
  0.9450   -0.53190
  0.9470   -0.53300
  0.9490   -0.53490
  0.9510   -0.53740
  0.9530   -0.54030
  0.9550   -0.54390
  0.9570   -0.54810
  0.9590   -0.55280
  0.9610   -0.55790
  0.9630   -0.56330
  0.9650   -0.56900
  0.9670   -0.57450
  0.9690   -0.58000
  0.9710   -0.58540
  0.9730   -0.59100
  0.9750   -0.59670
  0.9770   -0.60230
  0.9790   -0.60750
  0.9810   -0.61220
  0.9830   -0.61670
  0.9850   -0.62100
  0.9870   -0.62480
  0.9890   -0.62820
  0.9910   -0.63090
  0.9930   -0.63270
  0.9950   -0.63390
  0.9970   -0.63450
  0.9990   -0.63430
  1.0010   -0.63340
  1.0030   -0.63190
  1.0050   -0.62950
  1.0070   -0.62630
  1.0090   -0.62240
  1.0110   -0.61770
  1.0130   -0.61230
  1.0150   -0.60600
  1.0170   -0.59900
  1.0190   -0.59130
  1.0210   -0.58270
  1.0230   -0.57350
  1.0250   -0.56390
  1.0270   -0.55350
  1.0290   -0.54250
  1.0310   -0.53100
  1.0330   -0.51910
  1.0350   -0.50670
  1.0370   -0.49380
  1.0390   -0.48050
  1.0410   -0.46690
  1.0430   -0.45290
  1.0450   -0.43870
  1.0470   -0.42450
  1.0490   -0.41020
  1.0510   -0.39590
  1.0530   -0.38150
  1.0550   -0.36710
  1.0570   -0.35270
  1.0590   -0.33840
  1.0610   -0.32450
  1.0630   -0.31080
  1.0650   -0.29740
  1.0670   -0.28430
  1.0690   -0.27140
  1.0710   -0.25910
  1.0730   -0.24730
  1.0750   -0.23590
  1.0770   -0.22500
  1.0790   -0.21450
  1.0810   -0.20450
  1.0830   -0.19480
  1.0850   -0.18570
  1.0870   -0.17710
  1.0890   -0.16900
  1.0910   -0.16140
  1.0930   -0.15430
  1.0950   -0.14770
  1.0970   -0.14180
  1.0990   -0.13640
  1.1010   -0.13150
  1.1030   -0.12720
  1.1050   -0.12340
  1.1070   -0.11980
  1.1090   -0.11690
  1.1110   -0.11440
  1.1130   -0.11230
  1.1150   -0.11060
  1.1170   -0.10930
  1.1190   -0.10840
  1.1210   -0.10790
  1.1230   -0.10760
  1.1250   -0.10760
  1.1270   -0.10800
  1.1290   -0.10870
  1.1310   -0.10960
  1.1330   -0.11080
  1.1350   -0.11230
  1.1370   -0.11400
  1.1390   -0.11590
  1.1410   -0.11780
  1.1430   -0.11980
  1.1450   -0.12210
  1.1470   -0.12450
  1.1490   -0.12690
  1.1510   -0.12940
  1.1530   -0.13200
  1.1550   -0.13460
  1.1570   -0.13730
  1.1590   -0.14000
  1.1610   -0.14270
  1.1630   -0.14530
  1.1650   -0.14790
  1.1670   -0.15050
  1.1690   -0.15300
  1.1710   -0.15540
  1.1730   -0.15760
  1.1750   -0.15990
  1.1770   -0.16200
  1.1790   -0.16410
  1.1810   -0.16600
  1.1830   -0.16780
  1.1850   -0.16940
  1.1870   -0.17090
  1.1890   -0.17220
  1.1910   -0.17320
  1.1930   -0.17420
  1.1950   -0.17500
  1.1970   -0.17550
  1.1990   -0.17590
  1.2010   -0.17600
  1.2030   -0.17590
  1.2050   -0.17560
  1.2070   -0.17500
  1.2090   -0.17410
  1.2110   -0.17300
  1.2130   -0.17160
  1.2150   -0.16980
  1.2170   -0.16790
  1.2190   -0.16570
  1.2210   -0.16320
  1.2230   -0.16050
  1.2250   -0.15750
  1.2270   -0.15410
  1.2290   -0.15040
  1.2310   -0.14650
  1.2330   -0.14240
  1.2350   -0.13800
  1.2370   -0.13340
  1.2390   -0.12860
  1.2410   -0.12360
  1.2430   -0.11830
  1.2450   -0.11270
  1.2470   -0.10710
  1.2490   -0.10130
  1.2510   -0.09520
  1.2530   -0.08900
  1.2550   -0.08280
  1.2570   -0.07650
  1.2590   -0.07010
  1.2610   -0.06360
  1.2630   -0.05720
  1.2650   -0.05080
  1.2670   -0.04430
  1.2690   -0.03780
  1.2710   -0.03140
  1.2730   -0.02500
  1.2750   -0.01880
  1.2770   -0.01270
  1.2790   -0.00660
  1.2810   -0.00060
  1.2830    0.00520
  1.2850    0.01080
  1.2870    0.01630
  1.2890    0.02150
  1.2910    0.02650
  1.2930    0.03140
  1.2950    0.03600
  1.2970    0.04040
  1.2990    0.04460
  1.3010    0.04870
  1.3030    0.05250
  1.3050    0.05590
  1.3070    0.05910
  1.3090    0.06220
  1.3110    0.06500
  1.3130    0.06750
  1.3150    0.06990
  1.3170    0.07200
  1.3190    0.07390
  1.3210    0.07560
  1.3230    0.07720
  1.3250    0.07870
  1.3270    0.08000
  1.3290    0.08120
  1.3310    0.08220
  1.3330    0.08310
  1.3350    0.08400
  1.3370    0.08490
  1.3390    0.08580
  1.3410    0.08660
  1.3430    0.08740
  1.3450    0.08810
  1.3470    0.08870
  1.3490    0.08930
  1.3510    0.08990
  1.3530    0.09060
  1.3550    0.09120
  1.3570    0.09200
  1.3590    0.09280
  1.3610    0.09370
  1.3630    0.09470
  1.3650    0.09570
  1.3670    0.09680
  1.3690    0.09810
  1.3710    0.09940
  1.3730    0.10060
  1.3750    0.10190
  1.3770    0.10330
  1.3790    0.10470
  1.3810    0.10620
  1.3830    0.10760
  1.3850    0.10900
  1.3870    0.11010
  1.3890    0.11130
  1.3910    0.11240
  1.3930    0.11330
  1.3950    0.11390
  1.3970    0.11420
  1.3990    0.11440
