# z (nm)   (kJ/mol)
  0.517000,  8.339300
  0.519000,  7.676200
  0.521000,  7.015800
  0.523000,  6.368900
  0.525000,  5.678700
  0.527000,  4.960300
  0.529000,  4.246000
  0.531000,  3.527900
  0.533000,  2.800200
  0.535000,  2.058300
  0.537000,  1.303900
  0.539000,  0.545000
  0.541000, -0.219600
  0.543000, -0.991700
  0.545000, -1.765000
  0.547000, -2.540800
  0.549000, -3.317300
  0.551000, -4.088700
  0.553000, -4.854000
  0.555000, -5.610600
  0.557000, -6.357000
  0.559000, -7.092600
  0.561000, -7.816400
  0.563000, -8.523100
  0.565000, -9.211500
  0.567000, -9.881400
  0.569000,-10.528400
  0.571000,-11.151600
  0.573000,-11.747800
  0.575000,-12.315000
  0.577000,-12.853800
  0.579000,-13.363000
  0.581000,-13.840800
  0.583000,-14.285200
  0.585000,-14.694700
  0.587000,-15.068400
  0.589000,-15.404800
  0.591000,-15.704100
  0.593000,-15.964800
  0.595000,-16.185800
  0.597000,-16.368300
  0.599000,-16.511400
  0.601000,-16.614400
  0.603000,-16.679600
  0.605000,-16.705500
  0.607000,-16.691900
  0.609000,-16.641600
  0.611000,-16.554600
  0.613000,-16.429400
  0.615000,-16.269200
  0.617000,-16.076500
  0.619000,-15.850800
  0.621000,-15.594900
  0.623000,-15.311400
  0.625000,-15.001300
  0.627000,-14.667300
  0.629000,-14.311100
  0.631000,-13.934000
  0.633000,-13.538900
  0.635000,-13.128400
  0.637000,-12.704500
  0.639000,-12.269400
  0.641000,-11.825900
  0.643000,-11.375600
  0.645000,-10.920800
  0.647000,-10.463700
  0.649000,-10.006500
  0.651000, -9.552200
  0.653000, -9.102600
  0.655000, -8.657800
  0.657000, -8.220800
  0.659000, -7.794600
  0.661000, -7.378200
  0.663000, -6.974500
  0.665000, -6.584600
  0.667000, -6.208200
  0.669000, -5.846800
  0.671000, -5.501200
  0.673000, -5.175400
  0.675000, -4.868800
  0.677000, -4.577500
  0.679000, -4.305700
  0.681000, -4.057600
  0.683000, -3.830900
  0.685000, -3.623700
  0.687000, -3.434200
  0.689000, -3.266300
  0.691000, -3.119400
  0.693000, -2.990700
  0.695000, -2.880100
  0.697000, -2.786800
  0.699000, -2.710000
  0.701000, -2.648700
  0.703000, -2.602300
  0.705000, -2.567500
  0.707000, -2.543700
  0.709000, -2.534300
  0.711000, -2.535500
  0.713000, -2.544800
  0.715000, -2.565300
  0.717000, -2.593600
  0.719000, -2.627500
  0.721000, -2.664600
  0.723000, -2.704800
  0.725000, -2.749400
  0.727000, -2.795700
  0.729000, -2.843900
  0.731000, -2.894000
  0.733000, -2.942000
  0.735000, -2.987700
  0.737000, -3.032000
  0.739000, -3.075200
  0.741000, -3.116700
  0.743000, -3.154400
  0.745000, -3.188500
  0.747000, -3.219000
  0.749000, -3.245300
  0.751000, -3.269000
  0.753000, -3.289700
  0.755000, -3.306000
  0.757000, -3.317500
  0.759000, -3.325300
  0.761000, -3.329900
  0.763000, -3.330100
  0.765000, -3.325900
  0.767000, -3.317000
  0.769000, -3.303800
  0.771000, -3.285900
  0.773000, -3.263100
  0.775000, -3.236900
  0.777000, -3.206800
  0.779000, -3.172200
  0.781000, -3.136100
  0.783000, -3.097600
  0.785000, -3.055300
  0.787000, -3.011000
  0.789000, -2.963800
  0.791000, -2.914000
  0.793000, -2.862700
  0.795000, -2.808100
  0.797000, -2.751700
  0.799000, -2.695200
  0.801000, -2.637500
  0.803000, -2.578900
  0.805000, -2.519500
  0.807000, -2.460100
  0.809000, -2.400700
  0.811000, -2.341400
  0.813000, -2.283200
  0.815000, -2.226000
  0.817000, -2.169400
  0.819000, -2.114300
  0.821000, -2.059400
  0.823000, -2.004800
  0.825000, -1.951500
  0.827000, -1.899800
  0.829000, -1.849700
  0.831000, -1.800100
  0.833000, -1.751400
  0.835000, -1.704500
  0.837000, -1.659300
  0.839000, -1.615500
  0.841000, -1.573500
  0.843000, -1.532800
  0.845000, -1.492900
  0.847000, -1.454100
  0.849000, -1.416500
  0.851000, -1.380300
  0.853000, -1.345700
  0.855000, -1.312000
  0.857000, -1.279000
  0.859000, -1.246900
  0.861000, -1.216000
  0.863000, -1.185600
  0.865000, -1.156100
  0.867000, -1.127600
  0.869000, -1.099700
  0.871000, -1.072300
  0.873000, -1.045800
  0.875000, -1.020100
  0.877000, -0.994900
  0.879000, -0.970200
  0.881000, -0.945900
  0.883000, -0.922100
  0.885000, -0.899000
  0.887000, -0.876500
  0.889000, -0.854300
  0.891000, -0.832400
  0.893000, -0.811200
  0.895000, -0.790600
  0.897000, -0.770700
  0.899000, -0.751600
  0.901000, -0.733200
  0.903000, -0.715200
  0.905000, -0.697800
  0.907000, -0.681200
  0.909000, -0.665500
  0.911000, -0.650300
  0.913000, -0.635900
  0.915000, -0.622200
  0.917000, -0.609500
  0.919000, -0.598000
  0.921000, -0.587400
  0.923000, -0.577700
  0.925000, -0.568800
  0.927000, -0.560800
  0.929000, -0.553800
  0.931000, -0.548000
  0.933000, -0.543100
  0.935000, -0.538900
  0.937000, -0.535700
  0.939000, -0.533600
  0.941000, -0.532200
  0.943000, -0.531600
  0.945000, -0.531900
  0.947000, -0.533000
  0.949000, -0.534900
  0.951000, -0.537400
  0.953000, -0.540300
  0.955000, -0.543900
  0.957000, -0.548100
  0.959000, -0.552800
  0.961000, -0.557900
  0.963000, -0.563300
  0.965000, -0.569000
  0.967000, -0.574500
  0.969000, -0.580000
  0.971000, -0.585400
  0.973000, -0.591000
  0.975000, -0.596700
  0.977000, -0.602300
  0.979000, -0.607500
  0.981000, -0.612200
  0.983000, -0.616700
  0.985000, -0.621000
  0.987000, -0.624800
  0.989000, -0.628200
  0.991000, -0.630900
  0.993000, -0.632700
  0.995000, -0.633900
  0.997000, -0.634500
  0.999000, -0.634300
  1.001000, -0.633400
  1.003000, -0.631900
  1.005000, -0.629500
  1.007000, -0.626300
  1.009000, -0.622400
  1.011000, -0.617700
  1.013000, -0.612300
  1.015000, -0.606000
  1.017000, -0.599000
  1.019000, -0.591300
  1.021000, -0.582700
  1.023000, -0.573500
  1.025000, -0.563900
  1.027000, -0.553500
  1.029000, -0.542500
  1.031000, -0.531000
  1.033000, -0.519100
  1.035000, -0.506700
  1.037000, -0.493800
  1.039000, -0.480500
  1.041000, -0.466900
  1.043000, -0.452900
  1.045000, -0.438700
  1.047000, -0.424500
  1.049000, -0.410200
  1.051000, -0.395900
  1.053000, -0.381500
  1.055000, -0.367100
  1.057000, -0.352700
  1.059000, -0.338400
  1.061000, -0.324500
  1.063000, -0.310800
  1.065000, -0.297400
  1.067000, -0.284300
  1.069000, -0.271400
  1.071000, -0.259100
  1.073000, -0.247300
  1.075000, -0.235900
  1.077000, -0.225000
  1.079000, -0.214500
  1.081000, -0.204500
  1.083000, -0.194800
  1.085000, -0.185700
  1.087000, -0.177100
  1.089000, -0.169000
  1.091000, -0.161400
  1.093000, -0.154300
  1.095000, -0.147700
  1.097000, -0.141800
  1.099000, -0.136400
  1.101000, -0.131500
  1.103000, -0.127200
  1.105000, -0.123400
  1.107000, -0.119800
  1.109000, -0.116900
  1.111000, -0.114400
  1.113000, -0.112300
  1.115000, -0.110600
  1.117000, -0.109300
  1.119000, -0.108400
  1.121000, -0.107900
  1.123000, -0.107600
  1.125000, -0.107600
  1.127000, -0.108000
  1.129000, -0.108700
  1.131000, -0.109600
  1.133000, -0.110800
  1.135000, -0.112300
  1.137000, -0.114000
  1.139000, -0.115900
  1.141000, -0.117800
  1.143000, -0.119800
  1.145000, -0.122100
  1.147000, -0.124500
  1.149000, -0.126900
  1.151000, -0.129400
  1.153000, -0.132000
  1.155000, -0.134600
  1.157000, -0.137300
  1.159000, -0.140000
  1.161000, -0.142700
  1.163000, -0.145300
  1.165000, -0.147900
  1.167000, -0.150500
  1.169000, -0.153000
  1.171000, -0.155400
  1.173000, -0.157600
  1.175000, -0.159900
  1.177000, -0.162000
  1.179000, -0.164100
  1.181000, -0.166000
  1.183000, -0.167800
  1.185000, -0.169400
  1.187000, -0.170900
  1.189000, -0.172200
  1.191000, -0.173200
  1.193000, -0.174200
  1.195000, -0.175000
  1.197000, -0.175500
  1.199000, -0.175900
  1.201000, -0.176000
  1.203000, -0.175900
  1.205000, -0.175600
  1.207000, -0.175000
  1.209000, -0.174100
  1.211000, -0.173000
  1.213000, -0.171600
  1.215000, -0.169800
  1.217000, -0.167900
  1.219000, -0.165700
  1.221000, -0.163200
  1.223000, -0.160500
  1.225000, -0.157500
  1.227000, -0.154100
  1.229000, -0.150400
  1.231000, -0.146500
  1.233000, -0.142400
  1.235000, -0.138000
  1.237000, -0.133400
  1.239000, -0.128600
  1.241000, -0.123600
  1.243000, -0.118300
  1.245000, -0.112700
  1.247000, -0.107100
  1.249000, -0.101300
  1.251000, -0.095200
  1.253000, -0.089000
  1.255000, -0.082800
  1.257000, -0.076500
  1.259000, -0.070100
  1.261000, -0.063600
  1.263000, -0.057200
  1.265000, -0.050800
  1.267000, -0.044300
  1.269000, -0.037800
  1.271000, -0.031400
  1.273000, -0.025000
  1.275000, -0.018800
  1.277000, -0.012700
  1.279000, -0.006600
  1.281000, -0.000600
  1.283000,  0.005200
  1.285000,  0.010800
  1.287000,  0.016300
  1.289000,  0.021500
  1.291000,  0.026500
  1.293000,  0.031400
  1.295000,  0.036000
  1.297000,  0.040400
  1.299000,  0.044600
  1.301000,  0.048700
  1.303000,  0.052500
  1.305000,  0.055900
  1.307000,  0.059100
  1.309000,  0.062200
  1.311000,  0.065000
  1.313000,  0.067500
  1.315000,  0.069900
  1.317000,  0.072000
  1.319000,  0.073900
  1.321000,  0.075600
  1.323000,  0.077200
  1.325000,  0.078700
  1.327000,  0.080000
  1.329000,  0.081200
  1.331000,  0.082200
  1.333000,  0.083100
  1.335000,  0.084000
  1.337000,  0.084900
  1.339000,  0.085800
  1.341000,  0.086600
  1.343000,  0.087400
  1.345000,  0.088100
  1.347000,  0.088700
  1.349000,  0.089300
  1.351000,  0.089900
  1.353000,  0.090600
  1.355000,  0.091200
  1.357000,  0.092000
  1.359000,  0.092800
  1.361000,  0.093700
  1.363000,  0.094700
  1.365000,  0.095700
  1.367000,  0.096800
  1.369000,  0.098100
  1.371000,  0.099400
  1.373000,  0.100600
  1.375000,  0.101900
  1.377000,  0.103300
  1.379000,  0.104700
  1.381000,  0.106200
  1.383000,  0.107600
  1.385000,  0.109000
  1.387000,  0.110100
  1.389000,  0.111300
  1.391000,  0.112400
  1.393000,  0.113300
  1.395000,  0.113900
  1.397000,  0.114200
  1.399000,  0.114400
