# z (nm)   (kJ/mol)
  0.517000, 21.343900
  0.523000, 21.043700
  0.529000, 20.701600
  0.531000, 20.328300
  0.533000, 19.993300
  0.535000, 19.643200
  0.537000, 19.273600
  0.539000, 18.925600
  0.541000, 18.557700
  0.543000, 18.188800
  0.545000, 17.800700
  0.547000, 17.387100
  0.549000, 16.976200
  0.551000, 16.569300
  0.553000, 16.161400
  0.555000, 15.751800
  0.557000, 15.334900
  0.559000, 14.913000
  0.561000, 14.496100
  0.563000, 14.081400
  0.565000, 13.664400
  0.567000, 13.242300
  0.569000, 12.818400
  0.571000, 12.392100
  0.573000, 11.963600
  0.575000, 11.539600
  0.577000, 11.125200
  0.579000, 10.713700
  0.581000, 10.304600
  0.583000,  9.900600
  0.585000,  9.501000
  0.587000,  9.107700
  0.589000,  8.719900
  0.591000,  8.340500
  0.593000,  7.966400
  0.595000,  7.598900
  0.597000,  7.242100
  0.599000,  6.894400
  0.601000,  6.555900
  0.603000,  6.223000
  0.605000,  5.898000
  0.607000,  5.584800
  0.609000,  5.282900
  0.611000,  4.987900
  0.613000,  4.700800
  0.615000,  4.422800
  0.617000,  4.156400
  0.619000,  3.901000
  0.621000,  3.653200
  0.623000,  3.414800
  0.625000,  3.188300
  0.627000,  2.974200
  0.629000,  2.771000
  0.631000,  2.577200
  0.633000,  2.392400
  0.635000,  2.217100
  0.637000,  2.049600
  0.639000,  1.891300
  0.641000,  1.742000
  0.643000,  1.601400
  0.645000,  1.468000
  0.647000,  1.341700
  0.649000,  1.223800
  0.651000,  1.113200
  0.653000,  1.008200
  0.655000,  0.908500
  0.657000,  0.815100
  0.659000,  0.728100
  0.661000,  0.646900
  0.663000,  0.570500
  0.665000,  0.498600
  0.667000,  0.431200
  0.669000,  0.368500
  0.671000,  0.309400
  0.673000,  0.254200
  0.675000,  0.204000
  0.677000,  0.157600
  0.679000,  0.114300
  0.681000,  0.074200
  0.683000,  0.036800
  0.685000,  0.002100
  0.687000, -0.030400
  0.689000, -0.059800
  0.691000, -0.086600
  0.693000, -0.113100
  0.695000, -0.139700
  0.697000, -0.165300
  0.699000, -0.190500
  0.701000, -0.215600
  0.703000, -0.240300
  0.705000, -0.265000
  0.707000, -0.291400
  0.709000, -0.318100
  0.711000, -0.344500
  0.713000, -0.372400
  0.715000, -0.401500
  0.717000, -0.431900
  0.719000, -0.462800
  0.721000, -0.494400
  0.723000, -0.527700
  0.725000, -0.562400
  0.727000, -0.597500
  0.729000, -0.633600
  0.731000, -0.670700
  0.733000, -0.707800
  0.735000, -0.745000
  0.737000, -0.782700
  0.739000, -0.821800
  0.741000, -0.860900
  0.743000, -0.899200
  0.745000, -0.938100
  0.747000, -0.976300
  0.749000, -1.014100
  0.751000, -1.052800
  0.753000, -1.091200
  0.755000, -1.127600
  0.757000, -1.163500
  0.759000, -1.197900
  0.761000, -1.230700
  0.763000, -1.262800
  0.765000, -1.293100
  0.767000, -1.321700
  0.769000, -1.349000
  0.771000, -1.374400
  0.773000, -1.398200
  0.775000, -1.420600
  0.777000, -1.440900
  0.779000, -1.459400
  0.781000, -1.475900
  0.783000, -1.490100
  0.785000, -1.503100
  0.787000, -1.514300
  0.789000, -1.523300
  0.791000, -1.530600
  0.793000, -1.536000
  0.795000, -1.539100
  0.797000, -1.540300
  0.799000, -1.539800
  0.801000, -1.537500
  0.803000, -1.533400
  0.805000, -1.527800
  0.807000, -1.520600
  0.809000, -1.511900
  0.811000, -1.501800
  0.813000, -1.490000
  0.815000, -1.476600
  0.817000, -1.462100
  0.819000, -1.446400
  0.821000, -1.429400
  0.823000, -1.411300
  0.825000, -1.392200
  0.827000, -1.372200
  0.829000, -1.351300
  0.831000, -1.329900
  0.833000, -1.307600
  0.835000, -1.284600
  0.837000, -1.261000
  0.839000, -1.236800
  0.841000, -1.212100
  0.843000, -1.187000
  0.845000, -1.161300
  0.847000, -1.135300
  0.849000, -1.109200
  0.851000, -1.083000
  0.853000, -1.056600
  0.855000, -1.030000
  0.857000, -1.003200
  0.859000, -0.976500
  0.861000, -0.949800
  0.863000, -0.922900
  0.865000, -0.896000
  0.867000, -0.869100
  0.869000, -0.842300
  0.871000, -0.815600
  0.873000, -0.789100
  0.875000, -0.762600
  0.877000, -0.736300
  0.879000, -0.710200
  0.881000, -0.684400
  0.883000, -0.658800
  0.885000, -0.633300
  0.887000, -0.608000
  0.889000, -0.582900
  0.891000, -0.557900
  0.893000, -0.533200
  0.895000, -0.508800
  0.897000, -0.484500
  0.899000, -0.460500
  0.901000, -0.436800
  0.903000, -0.413400
  0.905000, -0.390400
  0.907000, -0.367700
  0.909000, -0.345200
  0.911000, -0.323000
  0.913000, -0.301200
  0.915000, -0.279800
  0.917000, -0.258800
  0.919000, -0.238200
  0.921000, -0.217900
  0.923000, -0.198000
  0.925000, -0.178700
  0.927000, -0.159800
  0.929000, -0.141400
  0.931000, -0.123300
  0.933000, -0.105900
  0.935000, -0.089000
  0.937000, -0.072600
  0.939000, -0.056800
  0.941000, -0.041500
  0.943000, -0.026700
  0.945000, -0.012600
  0.947000,  0.000900
  0.949000,  0.013700
  0.951000,  0.025900
  0.953000,  0.037500
  0.955000,  0.048400
  0.957000,  0.058600
  0.959000,  0.068200
  0.961000,  0.077000
  0.963000,  0.085100
  0.965000,  0.092500
  0.967000,  0.099300
  0.969000,  0.105300
  0.971000,  0.110700
  0.973000,  0.115400
  0.975000,  0.119400
  0.977000,  0.122800
  0.979000,  0.125400
  0.981000,  0.127400
  0.983000,  0.128700
  0.985000,  0.129400
  0.987000,  0.129400
  0.989000,  0.128700
  0.991000,  0.127600
  0.993000,  0.125900
  0.995000,  0.123700
  0.997000,  0.120900
  0.999000,  0.117600
  1.001000,  0.113800
  1.003000,  0.109600
  1.005000,  0.104900
  1.007000,  0.099700
  1.009000,  0.094200
  1.011000,  0.088400
  1.013000,  0.082300
  1.015000,  0.075800
  1.017000,  0.069100
  1.019000,  0.062100
  1.021000,  0.054800
  1.023000,  0.047400
  1.025000,  0.039700
  1.027000,  0.032000
  1.029000,  0.024100
  1.031000,  0.015900
  1.033000,  0.007900
  1.035000, -0.000200
  1.037000, -0.008500
  1.039000, -0.016700
  1.041000, -0.024900
  1.043000, -0.033200
  1.045000, -0.041400
  1.047000, -0.049600
  1.049000, -0.057700
  1.051000, -0.065600
  1.053000, -0.073500
  1.055000, -0.081200
  1.057000, -0.088900
  1.059000, -0.096500
  1.061000, -0.103900
  1.063000, -0.111100
  1.065000, -0.118200
  1.067000, -0.125100
  1.069000, -0.131700
  1.071000, -0.138200
  1.073000, -0.144400
  1.075000, -0.150500
  1.077000, -0.156400
  1.079000, -0.161900
  1.081000, -0.167300
  1.083000, -0.172700
  1.085000, -0.177700
  1.087000, -0.182500
  1.089000, -0.187000
  1.091000, -0.191400
  1.093000, -0.195600
  1.095000, -0.199700
  1.097000, -0.203400
  1.099000, -0.206900
  1.101000, -0.210100
  1.103000, -0.213000
  1.105000, -0.215800
  1.107000, -0.218300
  1.109000, -0.220600
  1.111000, -0.222700
  1.113000, -0.224600
  1.115000, -0.226300
  1.117000, -0.227700
  1.119000, -0.229000
  1.121000, -0.230100
  1.123000, -0.231000
  1.125000, -0.231800
  1.127000, -0.232300
  1.129000, -0.232700
  1.131000, -0.232800
  1.133000, -0.232800
  1.135000, -0.232700
  1.137000, -0.232300
  1.139000, -0.231800
  1.141000, -0.231200
  1.143000, -0.230300
  1.145000, -0.229300
  1.147000, -0.228200
  1.149000, -0.226900
  1.151000, -0.225400
  1.153000, -0.223800
  1.155000, -0.222200
  1.157000, -0.220400
  1.159000, -0.218500
  1.161000, -0.216600
  1.163000, -0.214500
  1.165000, -0.212100
  1.167000, -0.209700
  1.169000, -0.207100
  1.171000, -0.204400
  1.173000, -0.201500
  1.175000, -0.198700
  1.177000, -0.195700
  1.179000, -0.192500
  1.181000, -0.189300
  1.183000, -0.186000
  1.185000, -0.182600
  1.187000, -0.179100
  1.189000, -0.175500
  1.191000, -0.171800
  1.193000, -0.168100
  1.195000, -0.164400
  1.197000, -0.160500
  1.199000, -0.156500
  1.201000, -0.152600
  1.203000, -0.148500
  1.205000, -0.144300
  1.207000, -0.140200
  1.209000, -0.136100
  1.211000, -0.132000
  1.213000, -0.127900
  1.215000, -0.123700
  1.217000, -0.119500
  1.219000, -0.115300
  1.221000, -0.111200
  1.223000, -0.107000
  1.225000, -0.102800
  1.227000, -0.098700
  1.229000, -0.094600
  1.231000, -0.090600
  1.233000, -0.086500
  1.235000, -0.082400
  1.237000, -0.078400
  1.239000, -0.074400
  1.241000, -0.070600
  1.243000, -0.067000
  1.245000, -0.063200
  1.247000, -0.059500
  1.249000, -0.055900
  1.251000, -0.052400
  1.253000, -0.048900
  1.255000, -0.045500
  1.257000, -0.042400
  1.259000, -0.039200
  1.261000, -0.036200
  1.263000, -0.033200
  1.265000, -0.030300
  1.267000, -0.027500
  1.269000, -0.024600
  1.271000, -0.022000
  1.273000, -0.019500
  1.275000, -0.017000
  1.277000, -0.014500
  1.279000, -0.012300
  1.281000, -0.010100
  1.283000, -0.008000
  1.285000, -0.006000
  1.287000, -0.003900
  1.289000, -0.002000
  1.291000, -0.000300
  1.293000,  0.001400
  1.295000,  0.003100
  1.297000,  0.004700
  1.299000,  0.006200
  1.301000,  0.007700
  1.303000,  0.009200
  1.305000,  0.010600
  1.307000,  0.012000
  1.309000,  0.013400
  1.311000,  0.014800
  1.313000,  0.016300
  1.315000,  0.017700
  1.317000,  0.019200
  1.319000,  0.020600
  1.321000,  0.021900
  1.323000,  0.023400
  1.325000,  0.025000
  1.327000,  0.026700
  1.329000,  0.028400
  1.331000,  0.030100
  1.333000,  0.032000
  1.335000,  0.034000
  1.337000,  0.036100
  1.339000,  0.038200
  1.341000,  0.040400
  1.343000,  0.042800
  1.345000,  0.045200
  1.347000,  0.047900
  1.349000,  0.050800
  1.351000,  0.053700
  1.353000,  0.056800
  1.355000,  0.060000
  1.357000,  0.063600
  1.359000,  0.067100
  1.361000,  0.070700
  1.363000,  0.074500
  1.365000,  0.078400
  1.367000,  0.082400
  1.369000,  0.086600
  1.371000,  0.091000
  1.373000,  0.095500
  1.375000,  0.100100
  1.377000,  0.104800
  1.379000,  0.109500
  1.381000,  0.114400
  1.383000,  0.119300
  1.385000,  0.124200
  1.387000,  0.129100
  1.389000,  0.134000
  1.391000,  0.138900
  1.393000,  0.143600
  1.395000,  0.148200
  1.397000,  0.152600
  1.399000,  0.156400
