# z (nm)   (kJ/mol)
  0.541000, 21.337100
  0.543000, 20.872400
  0.545000, 20.436100
  0.547000, 20.003900
  0.549000, 19.555900
  0.551000, 19.076700
  0.553000, 18.610100
  0.555000, 18.125100
  0.557000, 17.633000
  0.559000, 17.155300
  0.561000, 16.667800
  0.563000, 16.179400
  0.565000, 15.688800
  0.567000, 15.192700
  0.569000, 14.695500
  0.571000, 14.198700
  0.573000, 13.708700
  0.575000, 13.232500
  0.577000, 12.764100
  0.579000, 12.295800
  0.581000, 11.836500
  0.583000, 11.391400
  0.585000, 10.959000
  0.587000, 10.542500
  0.589000, 10.132800
  0.591000,  9.738700
  0.593000,  9.364800
  0.595000,  8.997000
  0.597000,  8.640100
  0.599000,  8.295000
  0.601000,  7.962300
  0.603000,  7.646300
  0.605000,  7.346900
  0.607000,  7.060100
  0.609000,  6.780800
  0.611000,  6.512800
  0.613000,  6.258700
  0.615000,  6.017200
  0.617000,  5.787200
  0.619000,  5.565300
  0.621000,  5.349500
  0.623000,  5.142400
  0.625000,  4.943400
  0.627000,  4.753500
  0.629000,  4.570700
  0.631000,  4.394600
  0.633000,  4.226600
  0.635000,  4.064400
  0.637000,  3.908800
  0.639000,  3.759100
  0.641000,  3.613900
  0.643000,  3.475100
  0.645000,  3.341700
  0.647000,  3.213700
  0.649000,  3.090400
  0.651000,  2.971000
  0.653000,  2.856200
  0.655000,  2.745700
  0.657000,  2.639000
  0.659000,  2.535400
  0.661000,  2.437900
  0.663000,  2.342900
  0.665000,  2.248700
  0.667000,  2.156400
  0.669000,  2.065200
  0.671000,  1.974700
  0.673000,  1.887100
  0.675000,  1.802000
  0.677000,  1.716800
  0.679000,  1.632000
  0.681000,  1.545600
  0.683000,  1.457300
  0.685000,  1.370600
  0.687000,  1.283200
  0.689000,  1.195500
  0.691000,  1.110500
  0.693000,  1.024800
  0.695000,  0.938500
  0.697000,  0.852800
  0.699000,  0.767700
  0.701000,  0.682300
  0.703000,  0.596200
  0.705000,  0.509600
  0.707000,  0.423700
  0.709000,  0.338100
  0.711000,  0.252700
  0.713000,  0.168200
  0.715000,  0.083500
  0.717000, -0.000300
  0.719000, -0.083000
  0.721000, -0.165300
  0.723000, -0.246400
  0.725000, -0.326300
  0.727000, -0.404100
  0.729000, -0.480500
  0.731000, -0.555700
  0.733000, -0.628800
  0.735000, -0.699600
  0.737000, -0.768000
  0.739000, -0.834500
  0.741000, -0.899000
  0.743000, -0.960600
  0.745000, -1.019400
  0.747000, -1.075600
  0.749000, -1.129200
  0.751000, -1.180200
  0.753000, -1.228000
  0.755000, -1.272800
  0.757000, -1.314900
  0.759000, -1.354000
  0.761000, -1.390000
  0.763000, -1.422800
  0.765000, -1.452800
  0.767000, -1.480300
  0.769000, -1.504700
  0.771000, -1.526400
  0.773000, -1.545600
  0.775000, -1.562000
  0.777000, -1.575500
  0.779000, -1.586500
  0.781000, -1.594900
  0.783000, -1.600800
  0.785000, -1.604400
  0.787000, -1.605700
  0.789000, -1.604800
  0.791000, -1.601700
  0.793000, -1.596500
  0.795000, -1.589600
  0.797000, -1.580900
  0.799000, -1.570500
  0.801000, -1.558600
  0.803000, -1.545400
  0.805000, -1.530800
  0.807000, -1.515000
  0.809000, -1.497700
  0.811000, -1.479100
  0.813000, -1.459600
  0.815000, -1.439300
  0.817000, -1.418200
  0.819000, -1.396100
  0.821000, -1.373300
  0.823000, -1.350100
  0.825000, -1.326200
  0.827000, -1.301800
  0.829000, -1.277000
  0.831000, -1.251900
  0.833000, -1.226400
  0.835000, -1.200500
  0.837000, -1.174400
  0.839000, -1.148200
  0.841000, -1.122200
  0.843000, -1.096200
  0.845000, -1.070200
  0.847000, -1.044100
  0.849000, -1.018100
  0.851000, -0.992200
  0.853000, -0.966500
  0.855000, -0.940900
  0.857000, -0.915400
  0.859000, -0.890100
  0.861000, -0.865200
  0.863000, -0.840500
  0.865000, -0.816200
  0.867000, -0.792300
  0.869000, -0.768500
  0.871000, -0.745100
  0.873000, -0.722100
  0.875000, -0.699400
  0.877000, -0.676900
  0.879000, -0.654700
  0.881000, -0.633100
  0.883000, -0.611900
  0.885000, -0.591100
  0.887000, -0.570600
  0.889000, -0.550400
  0.891000, -0.530500
  0.893000, -0.510800
  0.895000, -0.491400
  0.897000, -0.472500
  0.899000, -0.453900
  0.901000, -0.435600
  0.903000, -0.417600
  0.905000, -0.400100
  0.907000, -0.382700
  0.909000, -0.365700
  0.911000, -0.349000
  0.913000, -0.332700
  0.915000, -0.316800
  0.917000, -0.301000
  0.919000, -0.285500
  0.921000, -0.270300
  0.923000, -0.255400
  0.925000, -0.240900
  0.927000, -0.226600
  0.929000, -0.212600
  0.931000, -0.198900
  0.933000, -0.185500
  0.935000, -0.172300
  0.937000, -0.159600
  0.939000, -0.147200
  0.941000, -0.135100
  0.943000, -0.123200
  0.945000, -0.111700
  0.947000, -0.100600
  0.949000, -0.089900
  0.951000, -0.079500
  0.953000, -0.069400
  0.955000, -0.059500
  0.957000, -0.050000
  0.959000, -0.040800
  0.961000, -0.031800
  0.963000, -0.023400
  0.965000, -0.015400
  0.967000, -0.007700
  0.969000, -0.000500
  0.971000,  0.006400
  0.973000,  0.013100
  0.975000,  0.019400
  0.977000,  0.025400
  0.979000,  0.031000
  0.981000,  0.036300
  0.983000,  0.041300
  0.985000,  0.045800
  0.987000,  0.050000
  0.989000,  0.054100
  0.991000,  0.057900
  0.993000,  0.061300
  0.995000,  0.064300
  0.997000,  0.066900
  0.999000,  0.069300
  1.001000,  0.071600
  1.003000,  0.073500
  1.005000,  0.075200
  1.007000,  0.076500
  1.009000,  0.077500
  1.011000,  0.078100
  1.013000,  0.078500
  1.015000,  0.078800
  1.017000,  0.078900
  1.019000,  0.078600
  1.021000,  0.078200
  1.023000,  0.077200
  1.025000,  0.076100
  1.027000,  0.074800
  1.029000,  0.073200
  1.031000,  0.071300
  1.033000,  0.069200
  1.035000,  0.067100
  1.037000,  0.064700
  1.039000,  0.062000
  1.041000,  0.059300
  1.043000,  0.056100
  1.045000,  0.052700
  1.047000,  0.049100
  1.049000,  0.045300
  1.051000,  0.041300
  1.053000,  0.037100
  1.055000,  0.032800
  1.057000,  0.028400
  1.059000,  0.023900
  1.061000,  0.019000
  1.063000,  0.014000
  1.065000,  0.008900
  1.067000,  0.003500
  1.069000, -0.002000
  1.071000, -0.007700
  1.073000, -0.013500
  1.075000, -0.019400
  1.077000, -0.025500
  1.079000, -0.031700
  1.081000, -0.038000
  1.083000, -0.044400
  1.085000, -0.050800
  1.087000, -0.057200
  1.089000, -0.063600
  1.091000, -0.070100
  1.093000, -0.076600
  1.095000, -0.083000
  1.097000, -0.089300
  1.099000, -0.095700
  1.101000, -0.102000
  1.103000, -0.108400
  1.105000, -0.114600
  1.107000, -0.120800
  1.109000, -0.127000
  1.111000, -0.133000
  1.113000, -0.138900
  1.115000, -0.144600
  1.117000, -0.150200
  1.119000, -0.155600
  1.121000, -0.161000
  1.123000, -0.166100
  1.125000, -0.170900
  1.127000, -0.175700
  1.129000, -0.180300
  1.131000, -0.184700
  1.133000, -0.188600
  1.135000, -0.192400
  1.137000, -0.196100
  1.139000, -0.199600
  1.141000, -0.202800
  1.143000, -0.205700
  1.145000, -0.208500
  1.147000, -0.211000
  1.149000, -0.213400
  1.151000, -0.215500
  1.153000, -0.217300
  1.155000, -0.218800
  1.157000, -0.220100
  1.159000, -0.221200
  1.161000, -0.222100
  1.163000, -0.222600
  1.165000, -0.222800
  1.167000, -0.222800
  1.169000, -0.222600
  1.171000, -0.222200
  1.173000, -0.221500
  1.175000, -0.220600
  1.177000, -0.219400
  1.179000, -0.218000
  1.181000, -0.216400
  1.183000, -0.214600
  1.185000, -0.212400
  1.187000, -0.210000
  1.189000, -0.207400
  1.191000, -0.204600
  1.193000, -0.201600
  1.195000, -0.198300
  1.197000, -0.194700
  1.199000, -0.191000
  1.201000, -0.187200
  1.203000, -0.183100
  1.205000, -0.178700
  1.207000, -0.174200
  1.209000, -0.169500
  1.211000, -0.164600
  1.213000, -0.159600
  1.215000, -0.154400
  1.217000, -0.149100
  1.219000, -0.143700
  1.221000, -0.138000
  1.223000, -0.132200
  1.225000, -0.126500
  1.227000, -0.120700
  1.229000, -0.114700
  1.231000, -0.108600
  1.233000, -0.102500
  1.235000, -0.096400
  1.237000, -0.090200
  1.239000, -0.084100
  1.241000, -0.078100
  1.243000, -0.072000
  1.245000, -0.065900
  1.247000, -0.060000
  1.249000, -0.054100
  1.251000, -0.048300
  1.253000, -0.042700
  1.255000, -0.037200
  1.257000, -0.031800
  1.259000, -0.026400
  1.261000, -0.021200
  1.263000, -0.016200
  1.265000, -0.011500
  1.267000, -0.006900
  1.269000, -0.002400
  1.271000,  0.001800
  1.273000,  0.005700
  1.275000,  0.009500
  1.277000,  0.013100
  1.279000,  0.016600
  1.281000,  0.019800
  1.283000,  0.022800
  1.285000,  0.025500
  1.287000,  0.028100
  1.289000,  0.030400
  1.291000,  0.032500
  1.293000,  0.034300
  1.295000,  0.036000
  1.297000,  0.037400
  1.299000,  0.038700
  1.301000,  0.039800
  1.303000,  0.040800
  1.305000,  0.041600
  1.307000,  0.042200
  1.309000,  0.042700
  1.311000,  0.043000
  1.313000,  0.043100
  1.315000,  0.043200
  1.317000,  0.043300
  1.319000,  0.043300
  1.321000,  0.043200
  1.323000,  0.043200
  1.325000,  0.043300
  1.327000,  0.043300
  1.329000,  0.043300
  1.331000,  0.043400
  1.333000,  0.043400
  1.335000,  0.043500
  1.337000,  0.043700
  1.339000,  0.043800
  1.341000,  0.044200
  1.343000,  0.044700
  1.345000,  0.045300
  1.347000,  0.046400
  1.349000,  0.047500
  1.351000,  0.048800
  1.353000,  0.050300
  1.355000,  0.052000
  1.357000,  0.053800
  1.359000,  0.055700
  1.361000,  0.057800
  1.363000,  0.060300
  1.365000,  0.063000
  1.367000,  0.065700
  1.369000,  0.068700
  1.371000,  0.072000
  1.373000,  0.075400
  1.375000,  0.079000
  1.377000,  0.082900
  1.379000,  0.086900
  1.381000,  0.091200
  1.383000,  0.095800
  1.385000,  0.100000
  1.387000,  0.104000
  1.389000,  0.108400
  1.391000,  0.112500
  1.393000,  0.116700
  1.395000,  0.120700
  1.397000,  0.124600
  1.399000,  0.128500
