# z (nm)   (kJ/mol)
  0.525000, 18.515700
  0.527000, 18.020500
  0.529000, 17.556400
  0.531000, 17.085900
  0.533000, 16.585100
  0.535000, 16.085100
  0.537000, 15.569200
  0.539000, 15.040500
  0.541000, 14.505200
  0.543000, 13.965700
  0.545000, 13.416700
  0.547000, 12.854900
  0.549000, 12.293300
  0.551000, 11.721500
  0.553000, 11.141800
  0.555000, 10.566000
  0.557000,  9.995700
  0.559000,  9.428200
  0.561000,  8.868100
  0.563000,  8.312500
  0.565000,  7.755200
  0.567000,  7.208200
  0.569000,  6.668100
  0.571000,  6.134900
  0.573000,  5.609300
  0.575000,  5.092500
  0.577000,  4.591100
  0.579000,  4.097000
  0.581000,  3.612800
  0.583000,  3.146300
  0.585000,  2.691200
  0.587000,  2.245600
  0.589000,  1.816000
  0.591000,  1.405200
  0.593000,  1.008100
  0.595000,  0.624500
  0.597000,  0.257200
  0.599000, -0.093000
  0.601000, -0.426900
  0.603000, -0.744000
  0.605000, -1.045000
  0.607000, -1.330800
  0.609000, -1.598800
  0.611000, -1.849600
  0.613000, -2.083300
  0.615000, -2.301400
  0.617000, -2.502700
  0.619000, -2.685800
  0.621000, -2.851500
  0.623000, -3.001800
  0.625000, -3.135800
  0.627000, -3.253200
  0.629000, -3.355900
  0.631000, -3.442900
  0.633000, -3.514600
  0.635000, -3.571200
  0.637000, -3.612500
  0.639000, -3.639400
  0.641000, -3.652800
  0.643000, -3.654400
  0.645000, -3.643600
  0.647000, -3.617700
  0.649000, -3.579300
  0.651000, -3.532900
  0.653000, -3.476600
  0.655000, -3.409200
  0.657000, -3.335400
  0.659000, -3.252400
  0.661000, -3.161000
  0.663000, -3.063800
  0.665000, -2.961900
  0.667000, -2.859100
  0.669000, -2.753000
  0.671000, -2.641500
  0.673000, -2.526700
  0.675000, -2.411100
  0.677000, -2.298600
  0.679000, -2.189800
  0.681000, -2.079200
  0.683000, -1.969700
  0.685000, -1.866300
  0.687000, -1.766500
  0.689000, -1.669700
  0.691000, -1.577800
  0.693000, -1.492400
  0.695000, -1.411100
  0.697000, -1.334000
  0.699000, -1.264200
  0.701000, -1.201800
  0.703000, -1.146600
  0.705000, -1.096900
  0.707000, -1.052600
  0.709000, -1.014900
  0.711000, -0.983600
  0.713000, -0.958600
  0.715000, -0.940000
  0.717000, -0.927200
  0.719000, -0.919900
  0.721000, -0.917800
  0.723000, -0.921100
  0.725000, -0.929600
  0.727000, -0.942600
  0.729000, -0.959500
  0.731000, -0.979700
  0.733000, -1.003000
  0.735000, -1.028700
  0.737000, -1.057700
  0.739000, -1.090500
  0.741000, -1.125200
  0.743000, -1.161000
  0.745000, -1.198200
  0.747000, -1.236200
  0.749000, -1.274900
  0.751000, -1.314300
  0.753000, -1.354900
  0.755000, -1.395500
  0.757000, -1.435700
  0.759000, -1.475800
  0.761000, -1.514600
  0.763000, -1.552600
  0.765000, -1.590500
  0.767000, -1.627000
  0.769000, -1.662100
  0.771000, -1.695800
  0.773000, -1.727600
  0.775000, -1.757600
  0.777000, -1.785900
  0.779000, -1.812600
  0.781000, -1.837600
  0.783000, -1.860500
  0.785000, -1.881400
  0.787000, -1.900300
  0.789000, -1.917300
  0.791000, -1.932700
  0.793000, -1.946200
  0.795000, -1.957800
  0.797000, -1.967600
  0.799000, -1.975800
  0.801000, -1.981900
  0.803000, -1.986400
  0.805000, -1.989100
  0.807000, -1.990100
  0.809000, -1.989300
  0.811000, -1.986900
  0.813000, -1.983200
  0.815000, -1.977900
  0.817000, -1.971300
  0.819000, -1.963700
  0.821000, -1.954800
  0.823000, -1.944500
  0.825000, -1.933000
  0.827000, -1.920500
  0.829000, -1.907000
  0.831000, -1.892600
  0.833000, -1.877400
  0.835000, -1.861100
  0.837000, -1.843900
  0.839000, -1.826000
  0.841000, -1.807300
  0.843000, -1.788000
  0.845000, -1.768100
  0.847000, -1.747600
  0.849000, -1.726000
  0.851000, -1.704000
  0.853000, -1.681300
  0.855000, -1.657900
  0.857000, -1.634000
  0.859000, -1.609600
  0.861000, -1.584400
  0.863000, -1.558800
  0.865000, -1.532800
  0.867000, -1.506300
  0.869000, -1.479400
  0.871000, -1.452400
  0.873000, -1.425000
  0.875000, -1.397500
  0.877000, -1.369600
  0.879000, -1.341300
  0.881000, -1.312900
  0.883000, -1.284200
  0.885000, -1.255100
  0.887000, -1.226100
  0.889000, -1.197100
  0.891000, -1.167900
  0.893000, -1.138800
  0.895000, -1.109500
  0.897000, -1.080000
  0.899000, -1.050800
  0.901000, -1.021700
  0.903000, -0.992800
  0.905000, -0.964200
  0.907000, -0.935500
  0.909000, -0.907000
  0.911000, -0.879000
  0.913000, -0.851500
  0.915000, -0.824200
  0.917000, -0.797200
  0.919000, -0.770600
  0.921000, -0.744300
  0.923000, -0.718400
  0.925000, -0.693100
  0.927000, -0.668500
  0.929000, -0.644600
  0.931000, -0.621100
  0.933000, -0.597900
  0.935000, -0.575300
  0.937000, -0.553600
  0.939000, -0.532700
  0.941000, -0.512300
  0.943000, -0.492500
  0.945000, -0.473300
  0.947000, -0.455000
  0.949000, -0.437600
  0.951000, -0.420900
  0.953000, -0.404900
  0.955000, -0.389600
  0.957000, -0.375000
  0.959000, -0.361400
  0.961000, -0.348800
  0.963000, -0.336900
  0.965000, -0.325800
  0.967000, -0.315500
  0.969000, -0.305800
  0.971000, -0.297100
  0.973000, -0.289300
  0.975000, -0.282100
  0.977000, -0.275700
  0.979000, -0.270300
  0.981000, -0.265800
  0.983000, -0.261800
  0.985000, -0.258600
  0.987000, -0.256200
  0.989000, -0.254500
  0.991000, -0.253600
  0.993000, -0.253300
  0.995000, -0.253700
  0.997000, -0.254800
  0.999000, -0.256500
  1.001000, -0.258800
  1.003000, -0.261700
  1.005000, -0.265200
  1.007000, -0.269100
  1.009000, -0.273800
  1.011000, -0.278900
  1.013000, -0.284400
  1.015000, -0.290400
  1.017000, -0.296800
  1.019000, -0.303300
  1.021000, -0.310200
  1.023000, -0.317300
  1.025000, -0.324800
  1.027000, -0.332700
  1.029000, -0.340600
  1.031000, -0.348700
  1.033000, -0.356900
  1.035000, -0.365300
  1.037000, -0.373800
  1.039000, -0.382200
  1.041000, -0.390700
  1.043000, -0.399200
  1.045000, -0.407700
  1.047000, -0.416200
  1.049000, -0.424600
  1.051000, -0.432900
  1.053000, -0.441000
  1.055000, -0.448600
  1.057000, -0.455900
  1.059000, -0.463200
  1.061000, -0.470100
  1.063000, -0.476800
  1.065000, -0.483100
  1.067000, -0.488900
  1.069000, -0.494400
  1.071000, -0.499500
  1.073000, -0.504200
  1.075000, -0.508400
  1.077000, -0.512100
  1.079000, -0.515600
  1.081000, -0.518300
  1.083000, -0.520500
  1.085000, -0.522400
  1.087000, -0.524000
  1.089000, -0.525100
  1.091000, -0.525400
  1.093000, -0.525300
  1.095000, -0.524700
  1.097000, -0.523700
  1.099000, -0.522100
  1.101000, -0.520100
  1.103000, -0.517800
  1.105000, -0.515000
  1.107000, -0.511800
  1.109000, -0.508100
  1.111000, -0.503900
  1.113000, -0.499300
  1.115000, -0.494400
  1.117000, -0.489100
  1.119000, -0.483500
  1.121000, -0.477600
  1.123000, -0.471300
  1.125000, -0.464700
  1.127000, -0.457900
  1.129000, -0.450900
  1.131000, -0.443600
  1.133000, -0.436200
  1.135000, -0.428500
  1.137000, -0.420700
  1.139000, -0.412800
  1.141000, -0.404600
  1.143000, -0.396500
  1.145000, -0.388300
  1.147000, -0.380000
  1.149000, -0.371600
  1.151000, -0.363200
  1.153000, -0.354800
  1.155000, -0.346500
  1.157000, -0.338100
  1.159000, -0.329700
  1.161000, -0.321300
  1.163000, -0.312800
  1.165000, -0.304500
  1.167000, -0.296100
  1.169000, -0.287800
  1.171000, -0.279700
  1.173000, -0.271600
  1.175000, -0.263700
  1.177000, -0.255700
  1.179000, -0.247600
  1.181000, -0.239800
  1.183000, -0.232100
  1.185000, -0.224400
  1.187000, -0.216900
  1.189000, -0.209600
  1.191000, -0.202300
  1.193000, -0.195100
  1.195000, -0.188000
  1.197000, -0.180900
  1.199000, -0.174000
  1.201000, -0.167200
  1.203000, -0.160600
  1.205000, -0.154100
  1.207000, -0.147600
  1.209000, -0.141200
  1.211000, -0.135000
  1.213000, -0.128800
  1.215000, -0.122700
  1.217000, -0.116900
  1.219000, -0.111200
  1.221000, -0.105400
  1.223000, -0.099800
  1.225000, -0.094300
  1.227000, -0.089000
  1.229000, -0.084000
  1.231000, -0.079000
  1.233000, -0.074200
  1.235000, -0.069400
  1.237000, -0.064800
  1.239000, -0.060300
  1.241000, -0.056000
  1.243000, -0.051900
  1.245000, -0.047800
  1.247000, -0.043900
  1.249000, -0.040400
  1.251000, -0.037100
  1.253000, -0.033800
  1.255000, -0.030600
  1.257000, -0.027700
  1.259000, -0.024900
  1.261000, -0.022300
  1.263000, -0.019800
  1.265000, -0.017500
  1.267000, -0.015300
  1.269000, -0.013200
  1.271000, -0.011300
  1.273000, -0.009500
  1.275000, -0.007800
  1.277000, -0.006400
  1.279000, -0.005000
  1.281000, -0.003600
  1.283000, -0.002500
  1.285000, -0.001500
  1.287000, -0.000500
  1.289000,  0.000400
  1.291000,  0.001100
  1.293000,  0.001800
  1.295000,  0.002500
  1.297000,  0.003300
  1.299000,  0.003800
  1.301000,  0.004400
  1.303000,  0.005000
  1.305000,  0.005500
  1.307000,  0.006100
  1.309000,  0.006500
  1.311000,  0.007000
  1.313000,  0.007600
  1.315000,  0.008400
  1.317000,  0.009400
  1.319000,  0.010400
  1.321000,  0.011400
  1.323000,  0.012500
  1.325000,  0.013900
  1.327000,  0.015300
  1.329000,  0.016900
  1.331000,  0.018500
  1.333000,  0.020200
  1.335000,  0.022100
  1.337000,  0.024300
  1.339000,  0.026500
  1.341000,  0.029000
  1.343000,  0.031600
  1.345000,  0.034300
  1.347000,  0.037400
  1.349000,  0.040600
  1.351000,  0.044000
  1.353000,  0.047400
  1.355000,  0.051000
  1.357000,  0.054900
  1.359000,  0.058800
  1.361000,  0.062800
  1.363000,  0.067300
  1.365000,  0.072000
  1.367000,  0.076700
  1.369000,  0.081400
  1.371000,  0.086300
  1.373000,  0.091300
  1.375000,  0.096400
  1.377000,  0.101700
  1.379000,  0.107000
  1.381000,  0.112400
  1.383000,  0.117700
  1.385000,  0.123200
  1.387000,  0.128700
  1.389000,  0.134200
  1.391000,  0.139700
  1.393000,  0.145100
  1.395000,  0.150000
  1.397000,  0.154600
  1.399000,  0.158900
