# z (nm)   (kJ/mol)
  0.5250   18.51570
  0.5270   18.02050
  0.5290   17.55640
  0.5310   17.08590
  0.5330   16.58510
  0.5350   16.08510
  0.5370   15.56920
  0.5390   15.04050
  0.5410   14.50520
  0.5430   13.96570
  0.5450   13.41670
  0.5470   12.85490
  0.5490   12.29330
  0.5510   11.72150
  0.5530   11.14180
  0.5550   10.56600
  0.5570    9.99570
  0.5590    9.42820
  0.5610    8.86810
  0.5630    8.31250
  0.5650    7.75520
  0.5670    7.20820
  0.5690    6.66810
  0.5710    6.13490
  0.5730    5.60930
  0.5750    5.09250
  0.5770    4.59110
  0.5790    4.09700
  0.5810    3.61280
  0.5830    3.14630
  0.5850    2.69120
  0.5870    2.24560
  0.5890    1.81600
  0.5910    1.40520
  0.5930    1.00810
  0.5950    0.62450
  0.5970    0.25720
  0.5990   -0.09300
  0.6010   -0.42690
  0.6030   -0.74400
  0.6050   -1.04500
  0.6070   -1.33080
  0.6090   -1.59880
  0.6110   -1.84960
  0.6130   -2.08330
  0.6150   -2.30140
  0.6170   -2.50270
  0.6190   -2.68580
  0.6210   -2.85150
  0.6230   -3.00180
  0.6250   -3.13580
  0.6270   -3.25320
  0.6290   -3.35590
  0.6310   -3.44290
  0.6330   -3.51460
  0.6350   -3.57120
  0.6370   -3.61250
  0.6390   -3.63940
  0.6410   -3.65280
  0.6430   -3.65440
  0.6450   -3.64360
  0.6470   -3.61770
  0.6490   -3.57930
  0.6510   -3.53290
  0.6530   -3.47660
  0.6550   -3.40920
  0.6570   -3.33540
  0.6590   -3.25240
  0.6610   -3.16100
  0.6630   -3.06380
  0.6650   -2.96190
  0.6670   -2.85910
  0.6690   -2.75300
  0.6710   -2.64150
  0.6730   -2.52670
  0.6750   -2.41110
  0.6770   -2.29860
  0.6790   -2.18980
  0.6810   -2.07920
  0.6830   -1.96970
  0.6850   -1.86630
  0.6870   -1.76650
  0.6890   -1.66970
  0.6910   -1.57780
  0.6930   -1.49240
  0.6950   -1.41110
  0.6970   -1.33400
  0.6990   -1.26420
  0.7010   -1.20180
  0.7030   -1.14660
  0.7050   -1.09690
  0.7070   -1.05260
  0.7090   -1.01490
  0.7110   -0.98360
  0.7130   -0.95860
  0.7150   -0.94000
  0.7170   -0.92720
  0.7190   -0.91990
  0.7210   -0.91780
  0.7230   -0.92110
  0.7250   -0.92960
  0.7270   -0.94260
  0.7290   -0.95950
  0.7310   -0.97970
  0.7330   -1.00300
  0.7350   -1.02870
  0.7370   -1.05770
  0.7390   -1.09050
  0.7410   -1.12520
  0.7430   -1.16100
  0.7450   -1.19820
  0.7470   -1.23620
  0.7490   -1.27490
  0.7510   -1.31430
  0.7530   -1.35490
  0.7550   -1.39550
  0.7570   -1.43570
  0.7590   -1.47580
  0.7610   -1.51460
  0.7630   -1.55260
  0.7650   -1.59050
  0.7670   -1.62700
  0.7690   -1.66210
  0.7710   -1.69580
  0.7730   -1.72760
  0.7750   -1.75760
  0.7770   -1.78590
  0.7790   -1.81260
  0.7810   -1.83760
  0.7830   -1.86050
  0.7850   -1.88140
  0.7870   -1.90030
  0.7890   -1.91730
  0.7910   -1.93270
  0.7930   -1.94620
  0.7950   -1.95780
  0.7970   -1.96760
  0.7990   -1.97580
  0.8010   -1.98190
  0.8030   -1.98640
  0.8050   -1.98910
  0.8070   -1.99010
  0.8090   -1.98930
  0.8110   -1.98690
  0.8130   -1.98320
  0.8150   -1.97790
  0.8170   -1.97130
  0.8190   -1.96370
  0.8210   -1.95480
  0.8230   -1.94450
  0.8250   -1.93300
  0.8270   -1.92050
  0.8290   -1.90700
  0.8310   -1.89260
  0.8330   -1.87740
  0.8350   -1.86110
  0.8370   -1.84390
  0.8390   -1.82600
  0.8410   -1.80730
  0.8430   -1.78800
  0.8450   -1.76810
  0.8470   -1.74760
  0.8490   -1.72600
  0.8510   -1.70400
  0.8530   -1.68130
  0.8550   -1.65790
  0.8570   -1.63400
  0.8590   -1.60960
  0.8610   -1.58440
  0.8630   -1.55880
  0.8650   -1.53280
  0.8670   -1.50630
  0.8690   -1.47940
  0.8710   -1.45240
  0.8730   -1.42500
  0.8750   -1.39750
  0.8770   -1.36960
  0.8790   -1.34130
  0.8810   -1.31290
  0.8830   -1.28420
  0.8850   -1.25510
  0.8870   -1.22610
  0.8890   -1.19710
  0.8910   -1.16790
  0.8930   -1.13880
  0.8950   -1.10950
  0.8970   -1.08000
  0.8990   -1.05080
  0.9010   -1.02170
  0.9030   -0.99280
  0.9050   -0.96420
  0.9070   -0.93550
  0.9090   -0.90700
  0.9110   -0.87900
  0.9130   -0.85150
  0.9150   -0.82420
  0.9170   -0.79720
  0.9190   -0.77060
  0.9210   -0.74430
  0.9230   -0.71840
  0.9250   -0.69310
  0.9270   -0.66850
  0.9290   -0.64460
  0.9310   -0.62110
  0.9330   -0.59790
  0.9350   -0.57530
  0.9370   -0.55360
  0.9390   -0.53270
  0.9410   -0.51230
  0.9430   -0.49250
  0.9450   -0.47330
  0.9470   -0.45500
  0.9490   -0.43760
  0.9510   -0.42090
  0.9530   -0.40490
  0.9550   -0.38960
  0.9570   -0.37500
  0.9590   -0.36140
  0.9610   -0.34880
  0.9630   -0.33690
  0.9650   -0.32580
  0.9670   -0.31550
  0.9690   -0.30580
  0.9710   -0.29710
  0.9730   -0.28930
  0.9750   -0.28210
  0.9770   -0.27570
  0.9790   -0.27030
  0.9810   -0.26580
  0.9830   -0.26180
  0.9850   -0.25860
  0.9870   -0.25620
  0.9890   -0.25450
  0.9910   -0.25360
  0.9930   -0.25330
  0.9950   -0.25370
  0.9970   -0.25480
  0.9990   -0.25650
  1.0010   -0.25880
  1.0030   -0.26170
  1.0050   -0.26520
  1.0070   -0.26910
  1.0090   -0.27380
  1.0110   -0.27890
  1.0130   -0.28440
  1.0150   -0.29040
  1.0170   -0.29680
  1.0190   -0.30330
  1.0210   -0.31020
  1.0230   -0.31730
  1.0250   -0.32480
  1.0270   -0.33270
  1.0290   -0.34060
  1.0310   -0.34870
  1.0330   -0.35690
  1.0350   -0.36530
  1.0370   -0.37380
  1.0390   -0.38220
  1.0410   -0.39070
  1.0430   -0.39920
  1.0450   -0.40770
  1.0470   -0.41620
  1.0490   -0.42460
  1.0510   -0.43290
  1.0530   -0.44100
  1.0550   -0.44860
  1.0570   -0.45590
  1.0590   -0.46320
  1.0610   -0.47010
  1.0630   -0.47680
  1.0650   -0.48310
  1.0670   -0.48890
  1.0690   -0.49440
  1.0710   -0.49950
  1.0730   -0.50420
  1.0750   -0.50840
  1.0770   -0.51210
  1.0790   -0.51560
  1.0810   -0.51830
  1.0830   -0.52050
  1.0850   -0.52240
  1.0870   -0.52400
  1.0890   -0.52510
  1.0910   -0.52540
  1.0930   -0.52530
  1.0950   -0.52470
  1.0970   -0.52370
  1.0990   -0.52210
  1.1010   -0.52010
  1.1030   -0.51780
  1.1050   -0.51500
  1.1070   -0.51180
  1.1090   -0.50810
  1.1110   -0.50390
  1.1130   -0.49930
  1.1150   -0.49440
  1.1170   -0.48910
  1.1190   -0.48350
  1.1210   -0.47760
  1.1230   -0.47130
  1.1250   -0.46470
  1.1270   -0.45790
  1.1290   -0.45090
  1.1310   -0.44360
  1.1330   -0.43620
  1.1350   -0.42850
  1.1370   -0.42070
  1.1390   -0.41280
  1.1410   -0.40460
  1.1430   -0.39650
  1.1450   -0.38830
  1.1470   -0.38000
  1.1490   -0.37160
  1.1510   -0.36320
  1.1530   -0.35480
  1.1550   -0.34650
  1.1570   -0.33810
  1.1590   -0.32970
  1.1610   -0.32130
  1.1630   -0.31280
  1.1650   -0.30450
  1.1670   -0.29610
  1.1690   -0.28780
  1.1710   -0.27970
  1.1730   -0.27160
  1.1750   -0.26370
  1.1770   -0.25570
  1.1790   -0.24760
  1.1810   -0.23980
  1.1830   -0.23210
  1.1850   -0.22440
  1.1870   -0.21690
  1.1890   -0.20960
  1.1910   -0.20230
  1.1930   -0.19510
  1.1950   -0.18800
  1.1970   -0.18090
  1.1990   -0.17400
  1.2010   -0.16720
  1.2030   -0.16060
  1.2050   -0.15410
  1.2070   -0.14760
  1.2090   -0.14120
  1.2110   -0.13500
  1.2130   -0.12880
  1.2150   -0.12270
  1.2170   -0.11690
  1.2190   -0.11120
  1.2210   -0.10540
  1.2230   -0.09980
  1.2250   -0.09430
  1.2270   -0.08900
  1.2290   -0.08400
  1.2310   -0.07900
  1.2330   -0.07420
  1.2350   -0.06940
  1.2370   -0.06480
  1.2390   -0.06030
  1.2410   -0.05600
  1.2430   -0.05190
  1.2450   -0.04780
  1.2470   -0.04390
  1.2490   -0.04040
  1.2510   -0.03710
  1.2530   -0.03380
  1.2550   -0.03060
  1.2570   -0.02770
  1.2590   -0.02490
  1.2610   -0.02230
  1.2630   -0.01980
  1.2650   -0.01750
  1.2670   -0.01530
  1.2690   -0.01320
  1.2710   -0.01130
  1.2730   -0.00950
  1.2750   -0.00780
  1.2770   -0.00640
  1.2790   -0.00500
  1.2810   -0.00360
  1.2830   -0.00250
  1.2850   -0.00150
  1.2870   -0.00050
  1.2890    0.00040
  1.2910    0.00110
  1.2930    0.00180
  1.2950    0.00250
  1.2970    0.00330
  1.2990    0.00380
  1.3010    0.00440
  1.3030    0.00500
  1.3050    0.00550
  1.3070    0.00610
  1.3090    0.00650
  1.3110    0.00700
  1.3130    0.00760
  1.3150    0.00840
  1.3170    0.00940
  1.3190    0.01040
  1.3210    0.01140
  1.3230    0.01250
  1.3250    0.01390
  1.3270    0.01530
  1.3290    0.01690
  1.3310    0.01850
  1.3330    0.02020
  1.3350    0.02210
  1.3370    0.02430
  1.3390    0.02650
  1.3410    0.02900
  1.3430    0.03160
  1.3450    0.03430
  1.3470    0.03740
  1.3490    0.04060
  1.3510    0.04400
  1.3530    0.04740
  1.3550    0.05100
  1.3570    0.05490
  1.3590    0.05880
  1.3610    0.06280
  1.3630    0.06730
  1.3650    0.07200
  1.3670    0.07670
  1.3690    0.08140
  1.3710    0.08630
  1.3730    0.09130
  1.3750    0.09640
  1.3770    0.10170
  1.3790    0.10700
  1.3810    0.11240
  1.3830    0.11770
  1.3850    0.12320
  1.3870    0.12870
  1.3890    0.13420
  1.3910    0.13970
  1.3930    0.14510
  1.3950    0.15000
  1.3970    0.15460
  1.3990    0.15890
