# z (nm)   (kJ/mol)
  0.567000, 24.440800
  0.569000, 24.143500
  0.571000, 23.848100
  0.573000, 23.553300
  0.575000, 23.257600
  0.577000, 22.964300
  0.579000, 22.661400
  0.581000, 22.341400
  0.583000, 22.021800
  0.585000, 21.705700
  0.587000, 21.387200
  0.589000, 21.067400
  0.591000, 20.742100
  0.593000, 20.410400
  0.595000, 20.080600
  0.597000, 19.744900
  0.599000, 19.404400
  0.601000, 19.069700
  0.603000, 18.731400
  0.605000, 18.393100
  0.607000, 18.056900
  0.609000, 17.716200
  0.611000, 17.373700
  0.613000, 17.032700
  0.615000, 16.692500
  0.617000, 16.352900
  0.619000, 16.016900
  0.621000, 15.684100
  0.623000, 15.352900
  0.625000, 15.018300
  0.627000, 14.682900
  0.629000, 14.350600
  0.631000, 14.020400
  0.633000, 13.695000
  0.635000, 13.370400
  0.637000, 13.043300
  0.639000, 12.715800
  0.641000, 12.390200
  0.643000, 12.063800
  0.645000, 11.736500
  0.647000, 11.412600
  0.649000, 11.091200
  0.651000, 10.770400
  0.653000, 10.453200
  0.655000, 10.140000
  0.657000,  9.826000
  0.659000,  9.513600
  0.661000,  9.204800
  0.663000,  8.899700
  0.665000,  8.598100
  0.667000,  8.298400
  0.669000,  8.001300
  0.671000,  7.708500
  0.673000,  7.420400
  0.675000,  7.135600
  0.677000,  6.853700
  0.679000,  6.578800
  0.681000,  6.310200
  0.683000,  6.045200
  0.685000,  5.783200
  0.687000,  5.525900
  0.689000,  5.274200
  0.691000,  5.027200
  0.693000,  4.785400
  0.695000,  4.549800
  0.697000,  4.319300
  0.699000,  4.094100
  0.701000,  3.875900
  0.703000,  3.664100
  0.705000,  3.459200
  0.707000,  3.260300
  0.709000,  3.066300
  0.711000,  2.878200
  0.713000,  2.697000
  0.715000,  2.521900
  0.717000,  2.353400
  0.719000,  2.192300
  0.721000,  2.037900
  0.723000,  1.890800
  0.725000,  1.750800
  0.727000,  1.617200
  0.729000,  1.490100
  0.731000,  1.369800
  0.733000,  1.255600
  0.735000,  1.147800
  0.737000,  1.046400
  0.739000,  0.950600
  0.741000,  0.860700
  0.743000,  0.776800
  0.745000,  0.698700
  0.747000,  0.626200
  0.749000,  0.558600
  0.751000,  0.496200
  0.753000,  0.437900
  0.755000,  0.384000
  0.757000,  0.334900
  0.759000,  0.289200
  0.761000,  0.246400
  0.763000,  0.207600
  0.765000,  0.172400
  0.767000,  0.139700
  0.769000,  0.108600
  0.771000,  0.079100
  0.773000,  0.051800
  0.775000,  0.025900
  0.777000,  0.001600
  0.779000, -0.021600
  0.781000, -0.044900
  0.783000, -0.067400
  0.785000, -0.089000
  0.787000, -0.110600
  0.789000, -0.132100
  0.791000, -0.153400
  0.793000, -0.174900
  0.795000, -0.197000
  0.797000, -0.219200
  0.799000, -0.241800
  0.801000, -0.265100
  0.803000, -0.289100
  0.805000, -0.313500
  0.807000, -0.338000
  0.809000, -0.363200
  0.811000, -0.389400
  0.813000, -0.416200
  0.815000, -0.443300
  0.817000, -0.470600
  0.819000, -0.498100
  0.821000, -0.526200
  0.823000, -0.554500
  0.825000, -0.582600
  0.827000, -0.610700
  0.829000, -0.638600
  0.831000, -0.665800
  0.833000, -0.692400
  0.835000, -0.718600
  0.837000, -0.744100
  0.839000, -0.768600
  0.841000, -0.792400
  0.843000, -0.815300
  0.845000, -0.837000
  0.847000, -0.857900
  0.849000, -0.877600
  0.851000, -0.895700
  0.853000, -0.912500
  0.855000, -0.927700
  0.857000, -0.941500
  0.859000, -0.953500
  0.861000, -0.963700
  0.863000, -0.972200
  0.865000, -0.978900
  0.867000, -0.984100
  0.869000, -0.987400
  0.871000, -0.988800
  0.873000, -0.988400
  0.875000, -0.986300
  0.877000, -0.982300
  0.879000, -0.976400
  0.881000, -0.968800
  0.883000, -0.959700
  0.885000, -0.948800
  0.887000, -0.936200
  0.889000, -0.921900
  0.891000, -0.906300
  0.893000, -0.889300
  0.895000, -0.870700
  0.897000, -0.850900
  0.899000, -0.830000
  0.901000, -0.808000
  0.903000, -0.785000
  0.905000, -0.761000
  0.907000, -0.736100
  0.909000, -0.710300
  0.911000, -0.683600
  0.913000, -0.656000
  0.915000, -0.628000
  0.917000, -0.599700
  0.919000, -0.570900
  0.921000, -0.541700
  0.923000, -0.512200
  0.925000, -0.482400
  0.927000, -0.452500
  0.929000, -0.422400
  0.931000, -0.392200
  0.933000, -0.362200
  0.935000, -0.332400
  0.937000, -0.302700
  0.939000, -0.273200
  0.941000, -0.243900
  0.943000, -0.215000
  0.945000, -0.186400
  0.947000, -0.158300
  0.949000, -0.130700
  0.951000, -0.103500
  0.953000, -0.076800
  0.955000, -0.050800
  0.957000, -0.025300
  0.959000, -0.000400
  0.961000,  0.023800
  0.963000,  0.047200
  0.965000,  0.070100
  0.967000,  0.092300
  0.969000,  0.113800
  0.971000,  0.134700
  0.973000,  0.155000
  0.975000,  0.174500
  0.977000,  0.193200
  0.979000,  0.211300
  0.981000,  0.228500
  0.983000,  0.244900
  0.985000,  0.260700
  0.987000,  0.275800
  0.989000,  0.290300
  0.991000,  0.304000
  0.993000,  0.316900
  0.995000,  0.329100
  0.997000,  0.340500
  0.999000,  0.351300
  1.001000,  0.361500
  1.003000,  0.371000
  1.005000,  0.379800
  1.007000,  0.388100
  1.009000,  0.395800
  1.011000,  0.402800
  1.013000,  0.409300
  1.015000,  0.415100
  1.017000,  0.420300
  1.019000,  0.425000
  1.021000,  0.429200
  1.023000,  0.432700
  1.025000,  0.435700
  1.027000,  0.438300
  1.029000,  0.440400
  1.031000,  0.441900
  1.033000,  0.442900
  1.035000,  0.443400
  1.037000,  0.443500
  1.039000,  0.443000
  1.041000,  0.441900
  1.043000,  0.440500
  1.045000,  0.438600
  1.047000,  0.436300
  1.049000,  0.433600
  1.051000,  0.430400
  1.053000,  0.426800
  1.055000,  0.422900
  1.057000,  0.418500
  1.059000,  0.413600
  1.061000,  0.408400
  1.063000,  0.402900
  1.065000,  0.396700
  1.067000,  0.390300
  1.069000,  0.383600
  1.071000,  0.376500
  1.073000,  0.369000
  1.075000,  0.361200
  1.077000,  0.352900
  1.079000,  0.344300
  1.081000,  0.335400
  1.083000,  0.326300
  1.085000,  0.317100
  1.087000,  0.307600
  1.089000,  0.297700
  1.091000,  0.287500
  1.093000,  0.277000
  1.095000,  0.266300
  1.097000,  0.255400
  1.099000,  0.244200
  1.101000,  0.232900
  1.103000,  0.221300
  1.105000,  0.209500
  1.107000,  0.197700
  1.109000,  0.185700
  1.111000,  0.173700
  1.113000,  0.161800
  1.115000,  0.149700
  1.117000,  0.137600
  1.119000,  0.125500
  1.121000,  0.113400
  1.123000,  0.101300
  1.125000,  0.089100
  1.127000,  0.077000
  1.129000,  0.065100
  1.131000,  0.053300
  1.133000,  0.041500
  1.135000,  0.029900
  1.137000,  0.018600
  1.139000,  0.007400
  1.141000, -0.003700
  1.143000, -0.014400
  1.145000, -0.024900
  1.147000, -0.035100
  1.149000, -0.045000
  1.151000, -0.054600
  1.153000, -0.063800
  1.155000, -0.072700
  1.157000, -0.081300
  1.159000, -0.089600
  1.161000, -0.097600
  1.163000, -0.105100
  1.165000, -0.112100
  1.167000, -0.118800
  1.169000, -0.125300
  1.171000, -0.131300
  1.173000, -0.136800
  1.175000, -0.141900
  1.177000, -0.146500
  1.179000, -0.150700
  1.181000, -0.154700
  1.183000, -0.158200
  1.185000, -0.161400
  1.187000, -0.164100
  1.189000, -0.166400
  1.191000, -0.168300
  1.193000, -0.169800
  1.195000, -0.171000
  1.197000, -0.171800
  1.199000, -0.172200
  1.201000, -0.172200
  1.203000, -0.171900
  1.205000, -0.171300
  1.207000, -0.170300
  1.209000, -0.169100
  1.211000, -0.167400
  1.213000, -0.165500
  1.215000, -0.163300
  1.217000, -0.160700
  1.219000, -0.157900
  1.221000, -0.154700
  1.223000, -0.151400
  1.225000, -0.147900
  1.227000, -0.143900
  1.229000, -0.139800
  1.231000, -0.135500
  1.233000, -0.131000
  1.235000, -0.126100
  1.237000, -0.121200
  1.239000, -0.116200
  1.241000, -0.111100
  1.243000, -0.105700
  1.245000, -0.100300
  1.247000, -0.094700
  1.249000, -0.089100
  1.251000, -0.083300
  1.253000, -0.077300
  1.255000, -0.071200
  1.257000, -0.065000
  1.259000, -0.058600
  1.261000, -0.052200
  1.263000, -0.045900
  1.265000, -0.039600
  1.267000, -0.033200
  1.269000, -0.026700
  1.271000, -0.020200
  1.273000, -0.013800
  1.275000, -0.007300
  1.277000, -0.000900
  1.279000,  0.005300
  1.281000,  0.011400
  1.283000,  0.017500
  1.285000,  0.023300
  1.287000,  0.029000
  1.289000,  0.034600
  1.291000,  0.039900
  1.293000,  0.045200
  1.295000,  0.050300
  1.297000,  0.055200
  1.299000,  0.059800
  1.301000,  0.064100
  1.303000,  0.068200
  1.305000,  0.072000
  1.307000,  0.075500
  1.309000,  0.078700
  1.311000,  0.081700
  1.313000,  0.084300
  1.315000,  0.086600
  1.317000,  0.088500
  1.319000,  0.090000
  1.321000,  0.091400
  1.323000,  0.092400
  1.325000,  0.093100
  1.327000,  0.093500
  1.329000,  0.093700
  1.331000,  0.093500
  1.333000,  0.093200
  1.335000,  0.092700
  1.337000,  0.091900
  1.339000,  0.090700
  1.341000,  0.089500
  1.343000,  0.088200
  1.345000,  0.086600
  1.347000,  0.084900
  1.349000,  0.083100
  1.351000,  0.081300
  1.353000,  0.079300
  1.355000,  0.077400
  1.357000,  0.075600
  1.359000,  0.073900
  1.361000,  0.072300
  1.363000,  0.070600
  1.365000,  0.069100
  1.367000,  0.067800
  1.369000,  0.066600
  1.371000,  0.065500
  1.373000,  0.064600
  1.375000,  0.064000
  1.377000,  0.063500
  1.379000,  0.063400
  1.381000,  0.063600
  1.383000,  0.064100
  1.385000,  0.064700
  1.387000,  0.065600
  1.389000,  0.066800
  1.391000,  0.068400
  1.393000,  0.070000
  1.395000,  0.071800
  1.397000,  0.073500
  1.399000,  0.075200
