# z (nm)   (kJ/mol)
  0.549000, 13.949900
  0.551000, 13.581700
  0.553000, 13.239500
  0.555000, 12.898200
  0.557000, 12.556200
  0.559000, 12.214800
  0.561000, 11.878900
  0.563000, 11.528000
  0.565000, 11.176000
  0.567000, 10.824800
  0.569000, 10.469900
  0.571000, 10.117800
  0.573000,  9.766000
  0.575000,  9.419400
  0.577000,  9.082200
  0.579000,  8.747300
  0.581000,  8.413900
  0.583000,  8.090600
  0.585000,  7.776100
  0.587000,  7.465900
  0.589000,  7.162700
  0.591000,  6.870000
  0.593000,  6.587100
  0.595000,  6.312000
  0.597000,  6.046300
  0.599000,  5.791300
  0.601000,  5.546800
  0.603000,  5.311700
  0.605000,  5.084500
  0.607000,  4.867700
  0.609000,  4.663500
  0.611000,  4.464800
  0.613000,  4.271100
  0.615000,  4.084400
  0.617000,  3.901900
  0.619000,  3.726200
  0.621000,  3.556200
  0.623000,  3.389900
  0.625000,  3.225600
  0.627000,  3.064600
  0.629000,  2.907100
  0.631000,  2.751700
  0.633000,  2.598700
  0.635000,  2.447600
  0.637000,  2.298500
  0.639000,  2.152100
  0.641000,  2.007600
  0.643000,  1.864900
  0.645000,  1.721900
  0.647000,  1.576900
  0.649000,  1.433200
  0.651000,  1.288100
  0.653000,  1.140100
  0.655000,  0.991600
  0.657000,  0.840300
  0.659000,  0.687300
  0.661000,  0.533400
  0.663000,  0.377500
  0.665000,  0.221200
  0.667000,  0.064100
  0.669000, -0.092300
  0.671000, -0.247100
  0.673000, -0.401600
  0.675000, -0.555800
  0.677000, -0.708900
  0.679000, -0.859700
  0.681000, -1.009200
  0.683000, -1.156700
  0.685000, -1.302100
  0.687000, -1.444300
  0.689000, -1.581800
  0.691000, -1.716800
  0.693000, -1.846200
  0.695000, -1.971100
  0.697000, -2.093100
  0.699000, -2.208400
  0.701000, -2.317700
  0.703000, -2.423000
  0.705000, -2.522200
  0.707000, -2.615700
  0.709000, -2.705100
  0.711000, -2.787600
  0.713000, -2.864500
  0.715000, -2.936800
  0.717000, -3.005600
  0.719000, -3.071000
  0.721000, -3.129700
  0.723000, -3.185000
  0.725000, -3.236400
  0.727000, -3.282900
  0.729000, -3.325800
  0.731000, -3.364500
  0.733000, -3.397400
  0.735000, -3.426200
  0.737000, -3.453600
  0.739000, -3.476800
  0.741000, -3.496800
  0.743000, -3.514100
  0.745000, -3.527200
  0.747000, -3.535600
  0.749000, -3.539300
  0.751000, -3.538400
  0.753000, -3.531500
  0.755000, -3.520200
  0.757000, -3.506300
  0.759000, -3.487800
  0.761000, -3.464800
  0.763000, -3.439300
  0.765000, -3.411800
  0.767000, -3.380400
  0.769000, -3.345800
  0.771000, -3.308900
  0.773000, -3.268900
  0.775000, -3.226100
  0.777000, -3.180900
  0.779000, -3.134800
  0.781000, -3.086800
  0.783000, -3.037900
  0.785000, -2.987800
  0.787000, -2.936200
  0.789000, -2.883300
  0.791000, -2.829300
  0.793000, -2.775200
  0.795000, -2.720600
  0.797000, -2.665500
  0.799000, -2.610500
  0.801000, -2.555900
  0.803000, -2.501300
  0.805000, -2.447800
  0.807000, -2.395400
  0.809000, -2.343400
  0.811000, -2.292000
  0.813000, -2.241200
  0.815000, -2.191300
  0.817000, -2.142500
  0.819000, -2.094700
  0.821000, -2.048300
  0.823000, -2.003100
  0.825000, -1.959400
  0.827000, -1.917100
  0.829000, -1.876100
  0.831000, -1.836400
  0.833000, -1.797700
  0.835000, -1.760300
  0.837000, -1.724900
  0.839000, -1.691100
  0.841000, -1.658900
  0.843000, -1.628600
  0.845000, -1.600000
  0.847000, -1.572900
  0.849000, -1.547100
  0.851000, -1.522900
  0.853000, -1.500500
  0.855000, -1.479900
  0.857000, -1.461100
  0.859000, -1.443500
  0.861000, -1.427500
  0.863000, -1.413500
  0.865000, -1.401100
  0.867000, -1.389900
  0.869000, -1.379900
  0.871000, -1.371600
  0.873000, -1.364400
  0.875000, -1.357800
  0.877000, -1.352400
  0.879000, -1.348400
  0.881000, -1.345400
  0.883000, -1.343400
  0.885000, -1.342100
  0.887000, -1.341300
  0.889000, -1.340900
  0.891000, -1.341000
  0.893000, -1.341500
  0.895000, -1.342300
  0.897000, -1.343300
  0.899000, -1.344400
  0.901000, -1.345600
  0.903000, -1.346500
  0.905000, -1.347200
  0.907000, -1.347900
  0.909000, -1.348400
  0.911000, -1.348400
  0.913000, -1.347900
  0.915000, -1.346900
  0.917000, -1.345300
  0.919000, -1.343000
  0.921000, -1.340200
  0.923000, -1.336700
  0.925000, -1.332500
  0.927000, -1.327500
  0.929000, -1.321800
  0.931000, -1.315200
  0.933000, -1.307800
  0.935000, -1.299400
  0.937000, -1.290100
  0.939000, -1.280000
  0.941000, -1.268900
  0.943000, -1.256900
  0.945000, -1.244100
  0.947000, -1.230500
  0.949000, -1.216000
  0.951000, -1.200700
  0.953000, -1.184600
  0.955000, -1.167600
  0.957000, -1.149700
  0.959000, -1.131100
  0.961000, -1.111900
  0.963000, -1.092200
  0.965000, -1.071900
  0.967000, -1.051100
  0.969000, -1.029800
  0.971000, -1.008000
  0.973000, -0.985600
  0.975000, -0.963000
  0.977000, -0.940200
  0.979000, -0.917300
  0.981000, -0.894000
  0.983000, -0.870600
  0.985000, -0.847100
  0.987000, -0.823500
  0.989000, -0.799900
  0.991000, -0.776100
  0.993000, -0.752300
  0.995000, -0.729000
  0.997000, -0.705800
  0.999000, -0.682700
  1.001000, -0.660000
  1.003000, -0.637600
  1.005000, -0.615100
  1.007000, -0.593100
  1.009000, -0.571400
  1.011000, -0.550100
  1.013000, -0.529200
  1.015000, -0.508700
  1.017000, -0.488600
  1.019000, -0.468900
  1.021000, -0.449800
  1.023000, -0.431300
  1.025000, -0.413300
  1.027000, -0.395900
  1.029000, -0.379000
  1.031000, -0.362600
  1.033000, -0.346600
  1.035000, -0.331200
  1.037000, -0.316400
  1.039000, -0.302100
  1.041000, -0.288400
  1.043000, -0.275300
  1.045000, -0.262600
  1.047000, -0.250500
  1.049000, -0.239000
  1.051000, -0.228000
  1.053000, -0.217500
  1.055000, -0.207700
  1.057000, -0.198300
  1.059000, -0.189500
  1.061000, -0.181300
  1.063000, -0.173400
  1.065000, -0.166200
  1.067000, -0.159500
  1.069000, -0.153200
  1.071000, -0.147400
  1.073000, -0.142200
  1.075000, -0.137300
  1.077000, -0.132800
  1.079000, -0.129000
  1.081000, -0.125600
  1.083000, -0.122600
  1.085000, -0.120000
  1.087000, -0.117900
  1.089000, -0.116100
  1.091000, -0.114700
  1.093000, -0.113700
  1.095000, -0.113100
  1.097000, -0.112900
  1.099000, -0.113200
  1.101000, -0.113700
  1.103000, -0.114500
  1.105000, -0.115700
  1.107000, -0.117200
  1.109000, -0.119200
  1.111000, -0.121600
  1.113000, -0.124200
  1.115000, -0.127100
  1.117000, -0.130100
  1.119000, -0.133500
  1.121000, -0.137000
  1.123000, -0.140900
  1.125000, -0.145000
  1.127000, -0.149300
  1.129000, -0.153700
  1.131000, -0.158300
  1.133000, -0.163200
  1.135000, -0.168200
  1.137000, -0.173200
  1.139000, -0.178400
  1.141000, -0.183500
  1.143000, -0.188800
  1.145000, -0.194000
  1.147000, -0.199300
  1.149000, -0.204700
  1.151000, -0.210100
  1.153000, -0.215300
  1.155000, -0.220400
  1.157000, -0.225500
  1.159000, -0.230600
  1.161000, -0.235500
  1.163000, -0.240100
  1.165000, -0.244500
  1.167000, -0.248900
  1.169000, -0.253100
  1.171000, -0.256900
  1.173000, -0.260600
  1.175000, -0.263900
  1.177000, -0.266900
  1.179000, -0.269600
  1.181000, -0.272000
  1.183000, -0.274100
  1.185000, -0.276000
  1.187000, -0.277500
  1.189000, -0.278700
  1.191000, -0.279500
  1.193000, -0.280000
  1.195000, -0.280100
  1.197000, -0.279700
  1.199000, -0.279100
  1.201000, -0.278100
  1.203000, -0.276700
  1.205000, -0.275000
  1.207000, -0.272800
  1.209000, -0.270300
  1.211000, -0.267300
  1.213000, -0.264000
  1.215000, -0.260300
  1.217000, -0.256300
  1.219000, -0.251900
  1.221000, -0.247200
  1.223000, -0.242300
  1.225000, -0.237100
  1.227000, -0.231500
  1.229000, -0.225800
  1.231000, -0.219900
  1.233000, -0.213700
  1.235000, -0.207400
  1.237000, -0.200900
  1.239000, -0.194300
  1.241000, -0.187400
  1.243000, -0.180400
  1.245000, -0.173400
  1.247000, -0.166200
  1.249000, -0.159000
  1.251000, -0.151700
  1.253000, -0.144400
  1.255000, -0.137000
  1.257000, -0.129700
  1.259000, -0.122400
  1.261000, -0.115100
  1.263000, -0.107700
  1.265000, -0.100500
  1.267000, -0.093300
  1.269000, -0.086200
  1.271000, -0.079200
  1.273000, -0.072300
  1.275000, -0.065400
  1.277000, -0.058600
  1.279000, -0.052000
  1.281000, -0.045600
  1.283000, -0.039300
  1.285000, -0.033000
  1.287000, -0.026700
  1.289000, -0.020600
  1.291000, -0.014600
  1.293000, -0.008800
  1.295000, -0.003100
  1.297000,  0.002500
  1.299000,  0.007900
  1.301000,  0.013300
  1.303000,  0.018700
  1.305000,  0.024000
  1.307000,  0.029100
  1.309000,  0.034000
  1.311000,  0.038800
  1.313000,  0.043700
  1.315000,  0.048700
  1.317000,  0.053700
  1.319000,  0.058600
  1.321000,  0.063500
  1.323000,  0.068300
  1.325000,  0.073200
  1.327000,  0.078000
  1.329000,  0.082900
  1.331000,  0.087900
  1.333000,  0.092900
  1.335000,  0.097900
  1.337000,  0.103200
  1.339000,  0.108600
  1.341000,  0.113900
  1.343000,  0.119400
  1.345000,  0.125000
  1.347000,  0.131000
  1.349000,  0.137200
  1.351000,  0.143400
  1.353000,  0.149700
  1.355000,  0.156200
  1.357000,  0.163000
  1.359000,  0.170000
  1.361000,  0.177200
  1.363000,  0.184700
  1.365000,  0.192300
  1.367000,  0.200000
  1.369000,  0.208000
  1.371000,  0.216100
  1.373000,  0.224400
  1.375000,  0.232900
  1.377000,  0.241600
  1.379000,  0.250500
  1.381000,  0.259600
  1.383000,  0.268800
  1.385000,  0.278000
  1.387000,  0.287500
  1.389000,  0.297000
  1.391000,  0.306300
  1.393000,  0.315500
  1.395000,  0.324700
  1.397000,  0.333600
  1.399000,  0.342100
