# z (nm)   (kJ/mol)
  0.535000, 18.964200
  0.537000, 18.580100
  0.539000, 18.176400
  0.541000, 17.676100
  0.543000, 17.170700
  0.545000, 16.700700
  0.547000, 16.280300
  0.549000, 15.839800
  0.551000, 15.376200
  0.553000, 14.903800
  0.555000, 14.420200
  0.557000, 13.940300
  0.559000, 13.462900
  0.561000, 13.000800
  0.563000, 12.562500
  0.565000, 12.132100
  0.567000, 11.705300
  0.569000, 11.284700
  0.571000, 10.877000
  0.573000, 10.479300
  0.575000, 10.089500
  0.577000,  9.709600
  0.579000,  9.337600
  0.581000,  8.976100
  0.583000,  8.619200
  0.585000,  8.264300
  0.587000,  7.918400
  0.589000,  7.576800
  0.591000,  7.234000
  0.593000,  6.894300
  0.595000,  6.561900
  0.597000,  6.233800
  0.599000,  5.908800
  0.601000,  5.590200
  0.603000,  5.278400
  0.605000,  4.973600
  0.607000,  4.677200
  0.609000,  4.392800
  0.611000,  4.119300
  0.613000,  3.853800
  0.615000,  3.595500
  0.617000,  3.346000
  0.619000,  3.107300
  0.621000,  2.879500
  0.623000,  2.662400
  0.625000,  2.454000
  0.627000,  2.255500
  0.629000,  2.066700
  0.631000,  1.886200
  0.633000,  1.714200
  0.635000,  1.549600
  0.637000,  1.392600
  0.639000,  1.244500
  0.641000,  1.103900
  0.643000,  0.969800
  0.645000,  0.842600
  0.647000,  0.722000
  0.649000,  0.608800
  0.651000,  0.502100
  0.653000,  0.400600
  0.655000,  0.304700
  0.657000,  0.214400
  0.659000,  0.129600
  0.661000,  0.049900
  0.663000, -0.024700
  0.665000, -0.093700
  0.667000, -0.157700
  0.669000, -0.217600
  0.671000, -0.274500
  0.673000, -0.327200
  0.675000, -0.375700
  0.677000, -0.421700
  0.679000, -0.464700
  0.681000, -0.505100
  0.683000, -0.542700
  0.685000, -0.576900
  0.687000, -0.608900
  0.689000, -0.639300
  0.691000, -0.668000
  0.693000, -0.695400
  0.695000, -0.721700
  0.697000, -0.747000
  0.699000, -0.771200
  0.701000, -0.794600
  0.703000, -0.817100
  0.705000, -0.839100
  0.707000, -0.861800
  0.709000, -0.884800
  0.711000, -0.907500
  0.713000, -0.930400
  0.715000, -0.953600
  0.717000, -0.977000
  0.719000, -1.001400
  0.721000, -1.026700
  0.723000, -1.052500
  0.725000, -1.078900
  0.727000, -1.106200
  0.729000, -1.134600
  0.731000, -1.164100
  0.733000, -1.194900
  0.735000, -1.226600
  0.737000, -1.258300
  0.739000, -1.290600
  0.741000, -1.323500
  0.743000, -1.356900
  0.745000, -1.390800
  0.747000, -1.425100
  0.749000, -1.459900
  0.751000, -1.494800
  0.753000, -1.530400
  0.755000, -1.566200
  0.757000, -1.601600
  0.759000, -1.636700
  0.761000, -1.672100
  0.763000, -1.707600
  0.765000, -1.742500
  0.767000, -1.776900
  0.769000, -1.810800
  0.771000, -1.843800
  0.773000, -1.876300
  0.775000, -1.907700
  0.777000, -1.938000
  0.779000, -1.967100
  0.781000, -1.994800
  0.783000, -2.021700
  0.785000, -2.047500
  0.787000, -2.071700
  0.789000, -2.094400
  0.791000, -2.115400
  0.793000, -2.134900
  0.795000, -2.152800
  0.797000, -2.169100
  0.799000, -2.183700
  0.801000, -2.196700
  0.803000, -2.208000
  0.805000, -2.217500
  0.807000, -2.225300
  0.809000, -2.231500
  0.811000, -2.235800
  0.813000, -2.238500
  0.815000, -2.239400
  0.817000, -2.238800
  0.819000, -2.236800
  0.821000, -2.233100
  0.823000, -2.227700
  0.825000, -2.220800
  0.827000, -2.212400
  0.829000, -2.202300
  0.831000, -2.190900
  0.833000, -2.178000
  0.835000, -2.163700
  0.837000, -2.148000
  0.839000, -2.131200
  0.841000, -2.113100
  0.843000, -2.093600
  0.845000, -2.073100
  0.847000, -2.051500
  0.849000, -2.029000
  0.851000, -2.005600
  0.853000, -1.981300
  0.855000, -1.956100
  0.857000, -1.930200
  0.859000, -1.903600
  0.861000, -1.876300
  0.863000, -1.848400
  0.865000, -1.819800
  0.867000, -1.790600
  0.869000, -1.760900
  0.871000, -1.730700
  0.873000, -1.700100
  0.875000, -1.669200
  0.877000, -1.638000
  0.879000, -1.606300
  0.881000, -1.574400
  0.883000, -1.542100
  0.885000, -1.509600
  0.887000, -1.476800
  0.889000, -1.443700
  0.891000, -1.410400
  0.893000, -1.377000
  0.895000, -1.343400
  0.897000, -1.309800
  0.899000, -1.276100
  0.901000, -1.242300
  0.903000, -1.208500
  0.905000, -1.174800
  0.907000, -1.140900
  0.909000, -1.106900
  0.911000, -1.073000
  0.913000, -1.039300
  0.915000, -1.005700
  0.917000, -0.972200
  0.919000, -0.938900
  0.921000, -0.905700
  0.923000, -0.872600
  0.925000, -0.839800
  0.927000, -0.807400
  0.929000, -0.775200
  0.931000, -0.743400
  0.933000, -0.711900
  0.935000, -0.680600
  0.937000, -0.649600
  0.939000, -0.619200
  0.941000, -0.589200
  0.943000, -0.559800
  0.945000, -0.530800
  0.947000, -0.502300
  0.949000, -0.474400
  0.951000, -0.447200
  0.953000, -0.420700
  0.955000, -0.394800
  0.957000, -0.369500
  0.959000, -0.345000
  0.961000, -0.321100
  0.963000, -0.298100
  0.965000, -0.275800
  0.967000, -0.254400
  0.969000, -0.233700
  0.971000, -0.213900
  0.973000, -0.194900
  0.975000, -0.176600
  0.977000, -0.159200
  0.979000, -0.142800
  0.981000, -0.127500
  0.983000, -0.113000
  0.985000, -0.099300
  0.987000, -0.086700
  0.989000, -0.075200
  0.991000, -0.064500
  0.993000, -0.054700
  0.995000, -0.046000
  0.997000, -0.038100
  0.999000, -0.031000
  1.001000, -0.024900
  1.003000, -0.019900
  1.005000, -0.015900
  1.007000, -0.012500
  1.009000, -0.010100
  1.011000, -0.008500
  1.013000, -0.007700
  1.015000, -0.007800
  1.017000, -0.008700
  1.019000, -0.010400
  1.021000, -0.013000
  1.023000, -0.016200
  1.025000, -0.020000
  1.027000, -0.024700
  1.029000, -0.029900
  1.031000, -0.035600
  1.033000, -0.042000
  1.035000, -0.048800
  1.037000, -0.056200
  1.039000, -0.064300
  1.041000, -0.072700
  1.043000, -0.081500
  1.045000, -0.090700
  1.047000, -0.100300
  1.049000, -0.110300
  1.051000, -0.120500
  1.053000, -0.130800
  1.055000, -0.141400
  1.057000, -0.152100
  1.059000, -0.162900
  1.061000, -0.173900
  1.063000, -0.184900
  1.065000, -0.195800
  1.067000, -0.206700
  1.069000, -0.217600
  1.071000, -0.228500
  1.073000, -0.239200
  1.075000, -0.249600
  1.077000, -0.259900
  1.079000, -0.270000
  1.081000, -0.280000
  1.083000, -0.289800
  1.085000, -0.299300
  1.087000, -0.308600
  1.089000, -0.317600
  1.091000, -0.326100
  1.093000, -0.334400
  1.095000, -0.342300
  1.097000, -0.349800
  1.099000, -0.357000
  1.101000, -0.363700
  1.103000, -0.370000
  1.105000, -0.375900
  1.107000, -0.381300
  1.109000, -0.386500
  1.111000, -0.391100
  1.113000, -0.395400
  1.115000, -0.399300
  1.117000, -0.402800
  1.119000, -0.405900
  1.121000, -0.408600
  1.123000, -0.410900
  1.125000, -0.412900
  1.127000, -0.414400
  1.129000, -0.415500
  1.131000, -0.416100
  1.133000, -0.416500
  1.135000, -0.416500
  1.137000, -0.416300
  1.139000, -0.415700
  1.141000, -0.414700
  1.143000, -0.413500
  1.145000, -0.411900
  1.147000, -0.409900
  1.149000, -0.407700
  1.151000, -0.405300
  1.153000, -0.402600
  1.155000, -0.399600
  1.157000, -0.396200
  1.159000, -0.392700
  1.161000, -0.389100
  1.163000, -0.385200
  1.165000, -0.381000
  1.167000, -0.376500
  1.169000, -0.371700
  1.171000, -0.366800
  1.173000, -0.361700
  1.175000, -0.356500
  1.177000, -0.351000
  1.179000, -0.345300
  1.181000, -0.339400
  1.183000, -0.333300
  1.185000, -0.327100
  1.187000, -0.320600
  1.189000, -0.314000
  1.191000, -0.307200
  1.193000, -0.300400
  1.195000, -0.293400
  1.197000, -0.286400
  1.199000, -0.279200
  1.201000, -0.271900
  1.203000, -0.264500
  1.205000, -0.256900
  1.207000, -0.249300
  1.209000, -0.241600
  1.211000, -0.233900
  1.213000, -0.226100
  1.215000, -0.218300
  1.217000, -0.210500
  1.219000, -0.202700
  1.221000, -0.194900
  1.223000, -0.187000
  1.225000, -0.179100
  1.227000, -0.171300
  1.229000, -0.163400
  1.231000, -0.155600
  1.233000, -0.147800
  1.235000, -0.140100
  1.237000, -0.132400
  1.239000, -0.124700
  1.241000, -0.117200
  1.243000, -0.109800
  1.245000, -0.102400
  1.247000, -0.095200
  1.249000, -0.088000
  1.251000, -0.081100
  1.253000, -0.074300
  1.255000, -0.067700
  1.257000, -0.061300
  1.259000, -0.055100
  1.261000, -0.048900
  1.263000, -0.042900
  1.265000, -0.037100
  1.267000, -0.031500
  1.269000, -0.026200
  1.271000, -0.021000
  1.273000, -0.015800
  1.275000, -0.010900
  1.277000, -0.006200
  1.279000, -0.001700
  1.281000,  0.002700
  1.283000,  0.006900
  1.285000,  0.011000
  1.287000,  0.014900
  1.289000,  0.018500
  1.291000,  0.021900
  1.293000,  0.025100
  1.295000,  0.028200
  1.297000,  0.031200
  1.299000,  0.034000
  1.301000,  0.036800
  1.303000,  0.039200
  1.305000,  0.041600
  1.307000,  0.043900
  1.309000,  0.046200
  1.311000,  0.048400
  1.313000,  0.050400
  1.315000,  0.052400
  1.317000,  0.054200
  1.319000,  0.056100
  1.321000,  0.057900
  1.323000,  0.059800
  1.325000,  0.061700
  1.327000,  0.063400
  1.329000,  0.065100
  1.331000,  0.066900
  1.333000,  0.068700
  1.335000,  0.070700
  1.337000,  0.072800
  1.339000,  0.074900
  1.341000,  0.077200
  1.343000,  0.079700
  1.345000,  0.082300
  1.347000,  0.085000
  1.349000,  0.087700
  1.351000,  0.090600
  1.353000,  0.093600
  1.355000,  0.096800
  1.357000,  0.100300
  1.359000,  0.103800
  1.361000,  0.107600
  1.363000,  0.111700
  1.365000,  0.115800
  1.367000,  0.120300
  1.369000,  0.124700
  1.371000,  0.129300
  1.373000,  0.134200
  1.375000,  0.139300
  1.377000,  0.144500
  1.379000,  0.149900
  1.381000,  0.155500
  1.383000,  0.161200
  1.385000,  0.166900
  1.387000,  0.172500
  1.389000,  0.178300
  1.391000,  0.183800
  1.393000,  0.189400
  1.395000,  0.194900
  1.397000,  0.200000
  1.399000,  0.204800
