# z (nm)   (kJ/mol)
  0.447000, 14.995500
  0.449000, 14.523500
  0.451000, 14.047700
  0.453000, 13.570200
  0.455000, 13.111000
  0.457000, 12.642600
  0.459000, 12.170000
  0.461000, 11.713800
  0.463000, 11.254900
  0.465000, 10.786100
  0.467000, 10.327900
  0.469000,  9.884000
  0.471000,  9.453300
  0.473000,  9.035400
  0.475000,  8.624600
  0.477000,  8.221700
  0.479000,  7.825400
  0.481000,  7.441200
  0.483000,  7.071700
  0.485000,  6.718000
  0.487000,  6.374700
  0.489000,  6.043200
  0.491000,  5.726600
  0.493000,  5.424100
  0.495000,  5.136200
  0.497000,  4.861900
  0.499000,  4.601900
  0.501000,  4.355800
  0.503000,  4.122000
  0.505000,  3.902400
  0.507000,  3.696600
  0.509000,  3.504300
  0.511000,  3.322900
  0.513000,  3.152600
  0.515000,  2.996100
  0.517000,  2.854200
  0.519000,  2.724300
  0.521000,  2.605600
  0.523000,  2.498800
  0.525000,  2.403600
  0.527000,  2.318000
  0.529000,  2.241100
  0.531000,  2.173200
  0.533000,  2.115600
  0.535000,  2.067700
  0.537000,  2.028200
  0.539000,  1.997100
  0.541000,  1.973900
  0.543000,  1.957900
  0.545000,  1.948700
  0.547000,  1.946100
  0.549000,  1.950100
  0.551000,  1.959800
  0.553000,  1.973400
  0.555000,  1.991000
  0.557000,  2.013700
  0.559000,  2.039800
  0.561000,  2.068100
  0.563000,  2.099300
  0.565000,  2.132700
  0.567000,  2.166600
  0.569000,  2.201300
  0.571000,  2.236900
  0.573000,  2.271500
  0.575000,  2.304600
  0.577000,  2.336900
  0.579000,  2.369100
  0.581000,  2.399600
  0.583000,  2.427500
  0.585000,  2.452700
  0.587000,  2.474600
  0.589000,  2.493000
  0.591000,  2.507200
  0.593000,  2.517400
  0.595000,  2.523400
  0.597000,  2.525000
  0.599000,  2.522500
  0.601000,  2.515500
  0.603000,  2.503300
  0.605000,  2.486500
  0.607000,  2.465200
  0.609000,  2.439200
  0.611000,  2.408200
  0.613000,  2.372200
  0.615000,  2.331400
  0.617000,  2.285800
  0.619000,  2.235800
  0.621000,  2.181200
  0.623000,  2.122300
  0.625000,  2.059400
  0.627000,  1.992600
  0.629000,  1.922600
  0.631000,  1.849500
  0.633000,  1.773300
  0.635000,  1.693800
  0.637000,  1.611800
  0.639000,  1.527900
  0.641000,  1.442300
  0.643000,  1.355200
  0.645000,  1.266100
  0.647000,  1.175500
  0.649000,  1.083800
  0.651000,  0.991600
  0.653000,  0.899500
  0.655000,  0.807200
  0.657000,  0.715500
  0.659000,  0.624100
  0.661000,  0.532600
  0.663000,  0.442400
  0.665000,  0.353900
  0.667000,  0.266800
  0.669000,  0.181000
  0.671000,  0.096900
  0.673000,  0.014600
  0.675000, -0.065700
  0.677000, -0.143400
  0.679000, -0.218400
  0.681000, -0.291100
  0.683000, -0.361000
  0.685000, -0.428300
  0.687000, -0.493000
  0.689000, -0.554500
  0.691000, -0.613200
  0.693000, -0.669000
  0.695000, -0.721500
  0.697000, -0.770900
  0.699000, -0.817500
  0.701000, -0.860800
  0.703000, -0.901000
  0.705000, -0.938000
  0.707000, -0.971800
  0.709000, -1.002700
  0.711000, -1.030600
  0.713000, -1.055700
  0.715000, -1.077900
  0.717000, -1.097100
  0.719000, -1.113500
  0.721000, -1.127100
  0.723000, -1.137900
  0.725000, -1.146100
  0.727000, -1.151800
  0.729000, -1.155100
  0.731000, -1.156200
  0.733000, -1.155100
  0.735000, -1.151900
  0.737000, -1.146700
  0.739000, -1.139600
  0.741000, -1.130600
  0.743000, -1.119800
  0.745000, -1.107400
  0.747000, -1.093300
  0.749000, -1.077800
  0.751000, -1.060900
  0.753000, -1.042700
  0.755000, -1.023100
  0.757000, -1.002500
  0.759000, -0.980900
  0.761000, -0.958300
  0.763000, -0.934800
  0.765000, -0.910400
  0.767000, -0.885400
  0.769000, -0.859600
  0.771000, -0.833400
  0.773000, -0.806600
  0.775000, -0.779400
  0.777000, -0.751700
  0.779000, -0.723700
  0.781000, -0.695500
  0.783000, -0.667100
  0.785000, -0.638600
  0.787000, -0.610100
  0.789000, -0.581600
  0.791000, -0.553200
  0.793000, -0.524800
  0.795000, -0.496600
  0.797000, -0.468500
  0.799000, -0.440700
  0.801000, -0.413200
  0.803000, -0.386000
  0.805000, -0.359200
  0.807000, -0.332800
  0.809000, -0.306700
  0.811000, -0.281200
  0.813000, -0.256200
  0.815000, -0.231700
  0.817000, -0.207900
  0.819000, -0.184600
  0.821000, -0.162000
  0.823000, -0.140200
  0.825000, -0.118900
  0.827000, -0.098200
  0.829000, -0.078200
  0.831000, -0.058900
  0.833000, -0.040200
  0.835000, -0.022300
  0.837000, -0.005000
  0.839000,  0.011600
  0.841000,  0.027500
  0.843000,  0.042700
  0.845000,  0.057200
  0.847000,  0.071100
  0.849000,  0.084400
  0.851000,  0.096900
  0.853000,  0.108900
  0.855000,  0.120400
  0.857000,  0.131300
  0.859000,  0.141600
  0.861000,  0.151300
  0.863000,  0.160600
  0.865000,  0.169500
  0.867000,  0.177900
  0.869000,  0.185600
  0.871000,  0.193000
  0.873000,  0.200000
  0.875000,  0.206700
  0.877000,  0.212900
  0.879000,  0.218800
  0.881000,  0.224300
  0.883000,  0.229500
  0.885000,  0.234300
  0.887000,  0.238800
  0.889000,  0.243000
  0.891000,  0.246800
  0.893000,  0.250400
  0.895000,  0.253800
  0.897000,  0.256800
  0.899000,  0.259500
  0.901000,  0.261900
  0.903000,  0.264000
  0.905000,  0.265800
  0.907000,  0.267300
  0.909000,  0.268600
  0.911000,  0.269600
  0.913000,  0.270300
  0.915000,  0.270700
  0.917000,  0.270700
  0.919000,  0.270400
  0.921000,  0.269900
  0.923000,  0.269000
  0.925000,  0.267700
  0.927000,  0.266100
  0.929000,  0.264100
  0.931000,  0.261900
  0.933000,  0.259200
  0.935000,  0.256300
  0.937000,  0.252900
  0.939000,  0.249300
  0.941000,  0.245400
  0.943000,  0.241100
  0.945000,  0.236400
  0.947000,  0.231300
  0.949000,  0.226000
  0.951000,  0.220300
  0.953000,  0.214400
  0.955000,  0.208100
  0.957000,  0.201500
  0.959000,  0.194700
  0.961000,  0.187500
  0.963000,  0.180100
  0.965000,  0.172300
  0.967000,  0.164300
  0.969000,  0.156200
  0.971000,  0.147800
  0.973000,  0.139300
  0.975000,  0.130600
  0.977000,  0.121600
  0.979000,  0.112500
  0.981000,  0.103300
  0.983000,  0.094000
  0.985000,  0.084600
  0.987000,  0.075200
  0.989000,  0.065800
  0.991000,  0.056400
  0.993000,  0.046800
  0.995000,  0.037200
  0.997000,  0.027700
  0.999000,  0.018300
  1.001000,  0.008900
  1.003000, -0.000300
  1.005000, -0.009500
  1.007000, -0.018600
  1.009000, -0.027600
  1.011000, -0.036400
  1.013000, -0.045000
  1.015000, -0.053500
  1.017000, -0.061900
  1.019000, -0.070100
  1.021000, -0.078100
  1.023000, -0.085800
  1.025000, -0.093400
  1.027000, -0.100800
  1.029000, -0.107900
  1.031000, -0.114800
  1.033000, -0.121400
  1.035000, -0.127800
  1.037000, -0.133900
  1.039000, -0.139600
  1.041000, -0.145100
  1.043000, -0.150400
  1.045000, -0.155400
  1.047000, -0.160100
  1.049000, -0.164500
  1.051000, -0.168600
  1.053000, -0.172400
  1.055000, -0.175900
  1.057000, -0.179100
  1.059000, -0.182200
  1.061000, -0.185000
  1.063000, -0.187500
  1.065000, -0.189600
  1.067000, -0.191600
  1.069000, -0.193300
  1.071000, -0.194800
  1.073000, -0.196000
  1.075000, -0.197000
  1.077000, -0.197800
  1.079000, -0.198200
  1.081000, -0.198300
  1.083000, -0.198200
  1.085000, -0.198000
  1.087000, -0.197600
  1.089000, -0.196900
  1.091000, -0.195900
  1.093000, -0.194900
  1.095000, -0.193500
  1.097000, -0.192000
  1.099000, -0.190300
  1.101000, -0.188400
  1.103000, -0.186300
  1.105000, -0.184000
  1.107000, -0.181700
  1.109000, -0.179100
  1.111000, -0.176200
  1.113000, -0.173300
  1.115000, -0.170200
  1.117000, -0.167100
  1.119000, -0.163900
  1.121000, -0.160500
  1.123000, -0.157000
  1.125000, -0.153400
  1.127000, -0.149500
  1.129000, -0.145600
  1.131000, -0.141600
  1.133000, -0.137500
  1.135000, -0.133400
  1.137000, -0.129100
  1.139000, -0.124800
  1.141000, -0.120400
  1.143000, -0.116000
  1.145000, -0.111500
  1.147000, -0.106900
  1.149000, -0.102300
  1.151000, -0.097600
  1.153000, -0.092900
  1.155000, -0.088300
  1.157000, -0.083700
  1.159000, -0.079000
  1.161000, -0.074300
  1.163000, -0.069600
  1.165000, -0.065000
  1.167000, -0.060400
  1.169000, -0.055900
  1.171000, -0.051400
  1.173000, -0.047000
  1.175000, -0.042600
  1.177000, -0.038200
  1.179000, -0.034000
  1.181000, -0.029800
  1.183000, -0.025800
  1.185000, -0.021800
  1.187000, -0.018000
  1.189000, -0.014500
  1.191000, -0.011000
  1.193000, -0.007500
  1.195000, -0.004200
  1.197000, -0.001000
  1.199000,  0.002000
  1.201000,  0.004800
  1.203000,  0.007400
  1.205000,  0.009900
  1.207000,  0.012200
  1.209000,  0.014400
  1.211000,  0.016500
  1.213000,  0.018400
  1.215000,  0.020200
  1.217000,  0.021800
  1.219000,  0.023200
  1.221000,  0.024500
  1.223000,  0.025600
  1.225000,  0.026500
  1.227000,  0.027300
  1.229000,  0.027900
  1.231000,  0.028500
  1.233000,  0.028900
  1.235000,  0.029200
  1.237000,  0.029400
  1.239000,  0.029500
  1.241000,  0.029500
  1.243000,  0.029300
  1.245000,  0.029200
  1.247000,  0.028900
  1.249000,  0.028500
  1.251000,  0.028000
  1.253000,  0.027400
  1.255000,  0.026700
  1.257000,  0.025900
  1.259000,  0.025100
  1.261000,  0.024200
  1.263000,  0.023200
  1.265000,  0.022200
  1.267000,  0.021100
  1.269000,  0.020000
  1.271000,  0.018800
  1.273000,  0.017500
  1.275000,  0.016200
  1.277000,  0.014800
  1.279000,  0.013400
  1.281000,  0.011800
  1.283000,  0.010300
  1.285000,  0.008600
  1.287000,  0.006900
  1.289000,  0.005200
  1.291000,  0.003400
  1.293000,  0.001600
  1.295000, -0.000400
  1.297000, -0.002200
  1.299000, -0.004200
  1.301000, -0.006200
  1.303000, -0.008200
  1.305000, -0.010200
  1.307000, -0.012200
  1.309000, -0.014200
  1.311000, -0.016200
  1.313000, -0.018300
  1.315000, -0.020300
  1.317000, -0.022200
  1.319000, -0.024100
  1.321000, -0.025900
  1.323000, -0.027600
  1.325000, -0.029300
  1.327000, -0.030900
  1.329000, -0.032400
  1.331000, -0.033800
  1.333000, -0.035000
  1.335000, -0.036100
  1.337000, -0.037100
  1.339000, -0.038000
  1.341000, -0.038700
  1.343000, -0.039100
  1.345000, -0.039400
  1.347000, -0.039400
  1.349000, -0.039200
  1.351000, -0.038800
  1.353000, -0.038100
  1.355000, -0.037100
  1.357000, -0.036000
  1.359000, -0.034600
  1.361000, -0.033000
  1.363000, -0.031300
  1.365000, -0.029200
  1.367000, -0.026700
  1.369000, -0.024000
  1.371000, -0.021100
  1.373000, -0.018100
  1.375000, -0.014900
  1.377000, -0.011500
  1.379000, -0.007800
  1.381000, -0.003900
  1.383000,  0.000300
  1.385000,  0.004700
  1.387000,  0.009000
  1.389000,  0.013500
  1.391000,  0.017800
  1.393000,  0.022100
  1.395000,  0.026500
  1.397000,  0.030900
  1.399000,  0.035000
