# z (nm)   (kJ/mol)
  0.569000, 27.435400
  0.573000, 26.525200
  0.575000, 26.088100
  0.577000, 25.629500
  0.579000, 25.170600
  0.581000, 24.703900
  0.583000, 24.231800
  0.585000, 23.753500
  0.587000, 23.274000
  0.589000, 22.795900
  0.591000, 22.306900
  0.593000, 21.813000
  0.595000, 21.322800
  0.597000, 20.837600
  0.599000, 20.355200
  0.601000, 19.870600
  0.603000, 19.392100
  0.605000, 18.921400
  0.607000, 18.454400
  0.609000, 17.990500
  0.611000, 17.529700
  0.613000, 17.073400
  0.615000, 16.623000
  0.617000, 16.185500
  0.619000, 15.758800
  0.621000, 15.341900
  0.623000, 14.931900
  0.625000, 14.525100
  0.627000, 14.124000
  0.629000, 13.729900
  0.631000, 13.340400
  0.633000, 12.954600
  0.635000, 12.573800
  0.637000, 12.199100
  0.639000, 11.830800
  0.641000, 11.464300
  0.643000, 11.102000
  0.645000, 10.743700
  0.647000, 10.388200
  0.649000, 10.038100
  0.651000,  9.692500
  0.653000,  9.352500
  0.655000,  9.018000
  0.657000,  8.687600
  0.659000,  8.362500
  0.661000,  8.041500
  0.663000,  7.725000
  0.665000,  7.412100
  0.667000,  7.104700
  0.669000,  6.801800
  0.671000,  6.504200
  0.673000,  6.213300
  0.675000,  5.926100
  0.677000,  5.642200
  0.679000,  5.364300
  0.681000,  5.093000
  0.683000,  4.824400
  0.685000,  4.558600
  0.687000,  4.298700
  0.689000,  4.046400
  0.691000,  3.799900
  0.693000,  3.557500
  0.695000,  3.316800
  0.697000,  3.082000
  0.699000,  2.855500
  0.701000,  2.635500
  0.703000,  2.422700
  0.705000,  2.216800
  0.707000,  2.017600
  0.709000,  1.824900
  0.711000,  1.638500
  0.713000,  1.459100
  0.715000,  1.287800
  0.717000,  1.123700
  0.719000,  0.966400
  0.721000,  0.817000
  0.723000,  0.676100
  0.725000,  0.542200
  0.727000,  0.415400
  0.729000,  0.296300
  0.731000,  0.185400
  0.733000,  0.082200
  0.735000, -0.013500
  0.737000, -0.101900
  0.739000, -0.183200
  0.741000, -0.257400
  0.743000, -0.324700
  0.745000, -0.385300
  0.747000, -0.439200
  0.749000, -0.486400
  0.751000, -0.527200
  0.753000, -0.562300
  0.755000, -0.591900
  0.757000, -0.616100
  0.759000, -0.634900
  0.761000, -0.649300
  0.763000, -0.660200
  0.765000, -0.667200
  0.767000, -0.670000
  0.769000, -0.669400
  0.771000, -0.666000
  0.773000, -0.660500
  0.775000, -0.653000
  0.777000, -0.643700
  0.779000, -0.633700
  0.781000, -0.623100
  0.783000, -0.612300
  0.785000, -0.600900
  0.787000, -0.589300
  0.789000, -0.578700
  0.791000, -0.568800
  0.793000, -0.560100
  0.795000, -0.552700
  0.797000, -0.546200
  0.799000, -0.541300
  0.801000, -0.538200
  0.803000, -0.536900
  0.805000, -0.537900
  0.807000, -0.541000
  0.809000, -0.546300
  0.811000, -0.553800
  0.813000, -0.563500
  0.815000, -0.575500
  0.817000, -0.589700
  0.819000, -0.606200
  0.821000, -0.624500
  0.823000, -0.644400
  0.825000, -0.666600
  0.827000, -0.690500
  0.829000, -0.716000
  0.831000, -0.742800
  0.833000, -0.771000
  0.835000, -0.800400
  0.837000, -0.831000
  0.839000, -0.862500
  0.841000, -0.894600
  0.843000, -0.927500
  0.845000, -0.960600
  0.847000, -0.993600
  0.849000, -1.026400
  0.851000, -1.059500
  0.853000, -1.092400
  0.855000, -1.124700
  0.857000, -1.156200
  0.859000, -1.186900
  0.861000, -1.217000
  0.863000, -1.246000
  0.865000, -1.273700
  0.867000, -1.300500
  0.869000, -1.326300
  0.871000, -1.350600
  0.873000, -1.373300
  0.875000, -1.394400
  0.877000, -1.413700
  0.879000, -1.431300
  0.881000, -1.447200
  0.883000, -1.461300
  0.885000, -1.473500
  0.887000, -1.484000
  0.889000, -1.492700
  0.891000, -1.499500
  0.893000, -1.504700
  0.895000, -1.508100
  0.897000, -1.509700
  0.899000, -1.509500
  0.901000, -1.507700
  0.903000, -1.504200
  0.905000, -1.499300
  0.907000, -1.493000
  0.909000, -1.485200
  0.911000, -1.475700
  0.913000, -1.464900
  0.915000, -1.452800
  0.917000, -1.439500
  0.919000, -1.425000
  0.921000, -1.409500
  0.923000, -1.392900
  0.925000, -1.375200
  0.927000, -1.356700
  0.929000, -1.337200
  0.931000, -1.316900
  0.933000, -1.295800
  0.935000, -1.274000
  0.937000, -1.251800
  0.939000, -1.228900
  0.941000, -1.205200
  0.943000, -1.181200
  0.945000, -1.156800
  0.947000, -1.132000
  0.949000, -1.107000
  0.951000, -1.081500
  0.953000, -1.055900
  0.955000, -1.030100
  0.957000, -1.004000
  0.959000, -0.977900
  0.961000, -0.951700
  0.963000, -0.925400
  0.965000, -0.899200
  0.967000, -0.872800
  0.969000, -0.846500
  0.971000, -0.820200
  0.973000, -0.793800
  0.975000, -0.767500
  0.977000, -0.741300
  0.979000, -0.715100
  0.981000, -0.689200
  0.983000, -0.663400
  0.985000, -0.637800
  0.987000, -0.612300
  0.989000, -0.587000
  0.991000, -0.561900
  0.993000, -0.536900
  0.995000, -0.512100
  0.997000, -0.487600
  0.999000, -0.463300
  1.001000, -0.439300
  1.003000, -0.415600
  1.005000, -0.392200
  1.007000, -0.369000
  1.009000, -0.346200
  1.011000, -0.323800
  1.013000, -0.301700
  1.015000, -0.280000
  1.017000, -0.258600
  1.019000, -0.237400
  1.021000, -0.216700
  1.023000, -0.196500
  1.025000, -0.176700
  1.027000, -0.157300
  1.029000, -0.138300
  1.031000, -0.119900
  1.033000, -0.102000
  1.035000, -0.084500
  1.037000, -0.067600
  1.039000, -0.051100
  1.041000, -0.035100
  1.043000, -0.019600
  1.045000, -0.004700
  1.047000,  0.009600
  1.049000,  0.023200
  1.051000,  0.036300
  1.053000,  0.048800
  1.055000,  0.060600
  1.057000,  0.071600
  1.059000,  0.082000
  1.061000,  0.092000
  1.063000,  0.101500
  1.065000,  0.110100
  1.067000,  0.118100
  1.069000,  0.125500
  1.071000,  0.132100
  1.073000,  0.138000
  1.075000,  0.143100
  1.077000,  0.147400
  1.079000,  0.151200
  1.081000,  0.154400
  1.083000,  0.156900
  1.085000,  0.158700
  1.087000,  0.159700
  1.089000,  0.160200
  1.091000,  0.160100
  1.093000,  0.159400
  1.095000,  0.158100
  1.097000,  0.156300
  1.099000,  0.153900
  1.101000,  0.151000
  1.103000,  0.147500
  1.105000,  0.143500
  1.107000,  0.139100
  1.109000,  0.134200
  1.111000,  0.128800
  1.113000,  0.123100
  1.115000,  0.117000
  1.117000,  0.110600
  1.119000,  0.103800
  1.121000,  0.096600
  1.123000,  0.089100
  1.125000,  0.081400
  1.127000,  0.073600
  1.129000,  0.065600
  1.131000,  0.057400
  1.133000,  0.049100
  1.135000,  0.040600
  1.137000,  0.032000
  1.139000,  0.023400
  1.141000,  0.014600
  1.143000,  0.005900
  1.145000, -0.002900
  1.147000, -0.011600
  1.149000, -0.020200
  1.151000, -0.028700
  1.153000, -0.037200
  1.155000, -0.045500
  1.157000, -0.053700
  1.159000, -0.061900
  1.161000, -0.070000
  1.163000, -0.077900
  1.165000, -0.085500
  1.167000, -0.093100
  1.169000, -0.100300
  1.171000, -0.107300
  1.173000, -0.114100
  1.175000, -0.120900
  1.177000, -0.127400
  1.179000, -0.133600
  1.181000, -0.139600
  1.183000, -0.145300
  1.185000, -0.150800
  1.187000, -0.156000
  1.189000, -0.161100
  1.191000, -0.165800
  1.193000, -0.170200
  1.195000, -0.174500
  1.197000, -0.178600
  1.199000, -0.182300
  1.201000, -0.185800
  1.203000, -0.188900
  1.205000, -0.191600
  1.207000, -0.194200
  1.209000, -0.196400
  1.211000, -0.198500
  1.213000, -0.200200
  1.215000, -0.201500
  1.217000, -0.202600
  1.219000, -0.203500
  1.221000, -0.204000
  1.223000, -0.204200
  1.225000, -0.204100
  1.227000, -0.203800
  1.229000, -0.203100
  1.231000, -0.202300
  1.233000, -0.201100
  1.235000, -0.199600
  1.237000, -0.197700
  1.239000, -0.195700
  1.241000, -0.193300
  1.243000, -0.190600
  1.245000, -0.187700
  1.247000, -0.184400
  1.249000, -0.180900
  1.251000, -0.177100
  1.253000, -0.173000
  1.255000, -0.168600
  1.257000, -0.163900
  1.259000, -0.158900
  1.261000, -0.153700
  1.263000, -0.148300
  1.265000, -0.142500
  1.267000, -0.136600
  1.269000, -0.130400
  1.271000, -0.124100
  1.273000, -0.117600
  1.275000, -0.110900
  1.277000, -0.104000
  1.279000, -0.097000
  1.281000, -0.089800
  1.283000, -0.082500
  1.285000, -0.075100
  1.287000, -0.067600
  1.289000, -0.059900
  1.291000, -0.052100
  1.293000, -0.044500
  1.295000, -0.036700
  1.297000, -0.028800
  1.299000, -0.021000
  1.301000, -0.013200
  1.303000, -0.005400
  1.305000,  0.002400
  1.307000,  0.010100
  1.309000,  0.017900
  1.311000,  0.025700
  1.313000,  0.033500
  1.315000,  0.041100
  1.317000,  0.048600
  1.319000,  0.056000
  1.321000,  0.063300
  1.323000,  0.070700
  1.325000,  0.077800
  1.327000,  0.084900
  1.329000,  0.091900
  1.331000,  0.098900
  1.333000,  0.105800
  1.335000,  0.112500
  1.337000,  0.119200
  1.339000,  0.125900
  1.341000,  0.132600
  1.343000,  0.139200
  1.345000,  0.145600
  1.347000,  0.151900
  1.349000,  0.158100
  1.351000,  0.164400
  1.353000,  0.170500
  1.355000,  0.176600
  1.357000,  0.182700
  1.359000,  0.188700
  1.361000,  0.194600
  1.363000,  0.200500
  1.365000,  0.206600
  1.367000,  0.212700
  1.369000,  0.218900
  1.371000,  0.225000
  1.373000,  0.231200
  1.375000,  0.237400
  1.377000,  0.243400
  1.379000,  0.249400
  1.381000,  0.255700
  1.383000,  0.262100
  1.385000,  0.268400
  1.387000,  0.274700
  1.389000,  0.280600
  1.391000,  0.286400
  1.393000,  0.292200
  1.395000,  0.297900
  1.397000,  0.303400
  1.399000,  0.308500
