# z (nm)   (kJ/mol)
  0.259000, 16.289300
  0.261000, 15.936200
  0.263000, 15.548300
  0.265000, 15.150600
  0.267000, 14.760900
  0.269000, 14.376100
  0.271000, 13.985600
  0.273000, 13.587900
  0.275000, 13.185200
  0.277000, 12.788200
  0.279000, 12.381400
  0.281000, 11.970800
  0.283000, 11.567900
  0.285000, 11.154800
  0.287000, 10.739100
  0.289000, 10.331800
  0.291000,  9.923700
  0.293000,  9.524400
  0.295000,  9.137100
  0.297000,  8.752500
  0.299000,  8.373500
  0.301000,  7.994400
  0.303000,  7.617300
  0.305000,  7.248000
  0.307000,  6.880600
  0.309000,  6.518100
  0.311000,  6.164400
  0.313000,  5.813100
  0.315000,  5.463300
  0.317000,  5.128700
  0.319000,  4.807100
  0.321000,  4.491200
  0.323000,  4.183800
  0.325000,  3.887700
  0.327000,  3.597900
  0.329000,  3.314000
  0.331000,  3.038100
  0.333000,  2.769400
  0.335000,  2.507600
  0.337000,  2.253100
  0.339000,  2.011300
  0.341000,  1.779500
  0.343000,  1.554400
  0.345000,  1.336100
  0.347000,  1.126000
  0.349000,  0.924100
  0.351000,  0.729700
  0.353000,  0.542900
  0.355000,  0.363700
  0.357000,  0.193400
  0.359000,  0.031400
  0.361000, -0.123200
  0.363000, -0.270100
  0.365000, -0.410200
  0.367000, -0.543700
  0.369000, -0.670000
  0.371000, -0.788900
  0.373000, -0.901000
  0.375000, -1.006400
  0.377000, -1.105200
  0.379000, -1.198200
  0.381000, -1.284700
  0.383000, -1.365700
  0.385000, -1.441000
  0.387000, -1.508900
  0.389000, -1.570100
  0.391000, -1.627700
  0.393000, -1.681100
  0.395000, -1.729300
  0.397000, -1.772200
  0.399000, -1.810300
  0.401000, -1.843900
  0.403000, -1.873300
  0.405000, -1.899500
  0.407000, -1.921900
  0.409000, -1.939700
  0.411000, -1.953500
  0.413000, -1.963000
  0.415000, -1.969100
  0.417000, -1.972700
  0.419000, -1.972900
  0.421000, -1.969700
  0.423000, -1.963500
  0.425000, -1.954500
  0.427000, -1.942500
  0.429000, -1.927900
  0.431000, -1.910900
  0.433000, -1.890900
  0.435000, -1.868100
  0.437000, -1.843200
  0.439000, -1.815600
  0.441000, -1.785400
  0.443000, -1.753200
  0.445000, -1.719000
  0.447000, -1.682100
  0.449000, -1.642900
  0.451000, -1.602000
  0.453000, -1.559100
  0.455000, -1.514200
  0.457000, -1.467500
  0.459000, -1.418500
  0.461000, -1.367100
  0.463000, -1.314200
  0.465000, -1.259800
  0.467000, -1.203700
  0.469000, -1.146100
  0.471000, -1.087000
  0.473000, -1.026300
  0.475000, -0.964000
  0.477000, -0.900800
  0.479000, -0.836700
  0.481000, -0.771400
  0.483000, -0.704900
  0.485000, -0.637500
  0.487000, -0.569400
  0.489000, -0.500800
  0.491000, -0.431900
  0.493000, -0.362400
  0.495000, -0.292500
  0.497000, -0.222700
  0.499000, -0.152200
  0.501000, -0.081600
  0.503000, -0.011500
  0.505000,  0.058000
  0.507000,  0.127200
  0.509000,  0.195900
  0.511000,  0.264300
  0.513000,  0.332000
  0.515000,  0.398700
  0.517000,  0.464500
  0.519000,  0.529100
  0.521000,  0.592600
  0.523000,  0.655200
  0.525000,  0.716300
  0.527000,  0.775700
  0.529000,  0.833700
  0.531000,  0.890200
  0.533000,  0.944800
  0.535000,  0.997700
  0.537000,  1.049100
  0.539000,  1.098500
  0.541000,  1.145700
  0.543000,  1.191000
  0.545000,  1.234500
  0.547000,  1.275600
  0.549000,  1.314500
  0.551000,  1.351500
  0.553000,  1.386500
  0.555000,  1.419400
  0.557000,  1.449900
  0.559000,  1.478300
  0.561000,  1.504500
  0.563000,  1.528400
  0.565000,  1.550000
  0.567000,  1.569500
  0.569000,  1.586800
  0.571000,  1.602100
  0.573000,  1.615200
  0.575000,  1.626300
  0.577000,  1.635400
  0.579000,  1.642500
  0.581000,  1.647700
  0.583000,  1.650800
  0.585000,  1.652100
  0.587000,  1.651800
  0.589000,  1.649600
  0.591000,  1.645500
  0.593000,  1.639700
  0.595000,  1.632300
  0.597000,  1.623200
  0.599000,  1.612600
  0.601000,  1.600500
  0.603000,  1.586800
  0.605000,  1.571700
  0.607000,  1.555200
  0.609000,  1.537400
  0.611000,  1.518400
  0.613000,  1.498300
  0.615000,  1.477000
  0.617000,  1.454800
  0.619000,  1.431700
  0.621000,  1.407100
  0.623000,  1.381600
  0.625000,  1.355200
  0.627000,  1.327700
  0.629000,  1.299500
  0.631000,  1.270500
  0.633000,  1.240600
  0.635000,  1.210100
  0.637000,  1.179100
  0.639000,  1.147400
  0.641000,  1.115100
  0.643000,  1.082300
  0.645000,  1.048900
  0.647000,  1.015000
  0.649000,  0.980600
  0.651000,  0.945700
  0.653000,  0.910400
  0.655000,  0.874900
  0.657000,  0.839100
  0.659000,  0.803100
  0.661000,  0.766900
  0.663000,  0.730700
  0.665000,  0.694600
  0.667000,  0.658400
  0.669000,  0.621900
  0.671000,  0.585400
  0.673000,  0.549200
  0.675000,  0.512900
  0.677000,  0.476700
  0.679000,  0.440700
  0.681000,  0.405200
  0.683000,  0.370200
  0.685000,  0.335700
  0.687000,  0.301600
  0.689000,  0.267600
  0.691000,  0.234000
  0.693000,  0.201100
  0.695000,  0.169100
  0.697000,  0.137700
  0.699000,  0.107000
  0.701000,  0.077300
  0.703000,  0.048300
  0.705000,  0.020200
  0.707000, -0.007100
  0.709000, -0.033400
  0.711000, -0.058700
  0.713000, -0.083000
  0.715000, -0.106400
  0.717000, -0.128600
  0.719000, -0.149600
  0.721000, -0.169700
  0.723000, -0.188700
  0.725000, -0.206500
  0.727000, -0.223100
  0.729000, -0.238400
  0.731000, -0.252800
  0.733000, -0.266100
  0.735000, -0.278100
  0.737000, -0.288900
  0.739000, -0.298500
  0.741000, -0.306800
  0.743000, -0.314000
  0.745000, -0.319900
  0.747000, -0.324900
  0.749000, -0.328700
  0.751000, -0.331400
  0.753000, -0.333000
  0.755000, -0.333700
  0.757000, -0.333300
  0.759000, -0.331800
  0.761000, -0.329400
  0.763000, -0.326100
  0.765000, -0.321800
  0.767000, -0.316700
  0.769000, -0.310800
  0.771000, -0.304100
  0.773000, -0.296800
  0.775000, -0.288800
  0.777000, -0.280100
  0.779000, -0.270800
  0.781000, -0.260800
  0.783000, -0.250300
  0.785000, -0.239300
  0.787000, -0.227800
  0.789000, -0.216000
  0.791000, -0.203800
  0.793000, -0.191300
  0.795000, -0.178400
  0.797000, -0.165300
  0.799000, -0.151800
  0.801000, -0.138300
  0.803000, -0.124600
  0.805000, -0.110700
  0.807000, -0.096700
  0.809000, -0.082800
  0.811000, -0.068900
  0.813000, -0.055000
  0.815000, -0.041200
  0.817000, -0.027400
  0.819000, -0.013600
  0.821000,  0.000200
  0.823000,  0.013800
  0.825000,  0.027200
  0.827000,  0.040400
  0.829000,  0.053400
  0.831000,  0.066200
  0.833000,  0.078800
  0.835000,  0.091200
  0.837000,  0.103300
  0.839000,  0.115000
  0.841000,  0.126400
  0.843000,  0.137500
  0.845000,  0.148400
  0.847000,  0.158900
  0.849000,  0.169000
  0.851000,  0.178600
  0.853000,  0.187800
  0.855000,  0.196600
  0.857000,  0.205100
  0.859000,  0.213100
  0.861000,  0.220900
  0.863000,  0.228400
  0.865000,  0.235300
  0.867000,  0.241700
  0.869000,  0.247800
  0.871000,  0.253500
  0.873000,  0.258700
  0.875000,  0.263500
  0.877000,  0.267800
  0.879000,  0.271800
  0.881000,  0.275400
  0.883000,  0.278400
  0.885000,  0.281000
  0.887000,  0.283100
  0.889000,  0.284800
  0.891000,  0.286200
  0.893000,  0.287200
  0.895000,  0.287800
  0.897000,  0.288000
  0.899000,  0.287800
  0.901000,  0.287200
  0.903000,  0.286300
  0.905000,  0.285100
  0.907000,  0.283600
  0.909000,  0.281600
  0.911000,  0.279300
  0.913000,  0.276900
  0.915000,  0.274200
  0.917000,  0.271200
  0.919000,  0.267900
  0.921000,  0.264200
  0.923000,  0.260400
  0.925000,  0.256300
  0.927000,  0.251800
  0.929000,  0.247200
  0.931000,  0.242500
  0.933000,  0.237700
  0.935000,  0.232700
  0.937000,  0.227700
  0.939000,  0.222500
  0.941000,  0.217100
  0.943000,  0.211500
  0.945000,  0.205800
  0.947000,  0.200100
  0.949000,  0.194300
  0.951000,  0.188400
  0.953000,  0.182500
  0.955000,  0.176400
  0.957000,  0.170200
  0.959000,  0.164100
  0.961000,  0.158000
  0.963000,  0.151800
  0.965000,  0.145600
  0.967000,  0.139400
  0.969000,  0.133100
  0.971000,  0.126600
  0.973000,  0.120100
  0.975000,  0.113800
  0.977000,  0.107300
  0.979000,  0.100800
  0.981000,  0.094300
  0.983000,  0.088000
  0.985000,  0.081600
  0.987000,  0.075200
  0.989000,  0.068900
  0.991000,  0.062500
  0.993000,  0.056100
  0.995000,  0.049600
  0.997000,  0.043200
  0.999000,  0.036900
  1.001000,  0.030600
  1.003000,  0.024400
  1.005000,  0.018300
  1.007000,  0.012200
  1.009000,  0.006200
  1.011000,  0.000100
  1.013000, -0.005900
  1.015000, -0.011900
  1.017000, -0.017800
  1.019000, -0.023700
  1.021000, -0.029500
  1.023000, -0.035200
  1.025000, -0.040900
  1.027000, -0.046500
  1.029000, -0.052000
  1.031000, -0.057200
  1.033000, -0.062400
  1.035000, -0.067500
  1.037000, -0.072400
  1.039000, -0.077300
  1.041000, -0.082100
  1.043000, -0.086700
  1.045000, -0.091200
  1.047000, -0.095400
  1.049000, -0.099500
  1.051000, -0.103500
  1.053000, -0.107300
  1.055000, -0.110900
  1.057000, -0.114400
  1.059000, -0.117600
  1.061000, -0.120600
  1.063000, -0.123500
  1.065000, -0.126300
  1.067000, -0.128800
  1.069000, -0.131200
  1.071000, -0.133400
  1.073000, -0.135400
  1.075000, -0.137100
  1.077000, -0.138600
  1.079000, -0.140000
  1.081000, -0.141300
  1.083000, -0.142300
  1.085000, -0.143000
  1.087000, -0.143700
  1.089000, -0.144100
  1.091000, -0.144400
  1.093000, -0.144600
  1.095000, -0.144500
  1.097000, -0.144300
  1.099000, -0.144000
  1.101000, -0.143400
  1.103000, -0.142700
  1.105000, -0.141900
  1.107000, -0.141000
  1.109000, -0.139800
  1.111000, -0.138500
  1.113000, -0.137100
  1.115000, -0.135600
  1.117000, -0.134100
  1.119000, -0.132400
  1.121000, -0.130500
  1.123000, -0.128600
  1.125000, -0.126600
  1.127000, -0.124600
  1.129000, -0.122400
  1.131000, -0.120300
  1.133000, -0.118100
  1.135000, -0.115700
  1.137000, -0.113300
  1.139000, -0.110800
  1.141000, -0.108200
  1.143000, -0.105800
  1.145000, -0.103200
  1.147000, -0.100600
  1.149000, -0.097900
  1.151000, -0.095300
  1.153000, -0.092700
  1.155000, -0.090100
  1.157000, -0.087500
  1.159000, -0.084800
  1.161000, -0.081900
  1.163000, -0.079000
  1.165000, -0.076200
  1.167000, -0.073400
  1.169000, -0.070600
  1.171000, -0.067800
  1.173000, -0.064900
  1.175000, -0.062100
  1.177000, -0.059300
  1.179000, -0.056400
  1.181000, -0.053600
  1.183000, -0.050800
  1.185000, -0.048000
  1.187000, -0.045200
  1.189000, -0.042500
  1.191000, -0.039900
  1.193000, -0.037200
  1.195000, -0.034500
  1.197000, -0.031800
  1.199000, -0.029200
  1.201000, -0.026700
  1.203000, -0.024300
  1.205000, -0.022000
  1.207000, -0.019600
  1.209000, -0.017200
  1.211000, -0.014900
  1.213000, -0.012800
  1.215000, -0.010700
  1.217000, -0.008600
  1.219000, -0.006700
  1.221000, -0.004700
  1.223000, -0.002800
  1.225000, -0.001000
  1.227000,  0.000700
  1.229000,  0.002400
  1.231000,  0.003900
  1.233000,  0.005200
  1.235000,  0.006700
  1.237000,  0.008200
  1.239000,  0.009500
  1.241000,  0.010800
  1.243000,  0.011900
  1.245000,  0.012900
  1.247000,  0.013900
  1.249000,  0.014800
  1.251000,  0.015500
  1.253000,  0.016100
  1.255000,  0.016700
  1.257000,  0.017300
  1.259000,  0.017800
  1.261000,  0.018200
  1.263000,  0.018500
  1.265000,  0.018800
  1.267000,  0.018900
  1.269000,  0.018900
  1.271000,  0.018800
  1.273000,  0.018600
  1.275000,  0.018300
  1.277000,  0.018000
  1.279000,  0.017400
  1.281000,  0.016700
  1.283000,  0.015900
  1.285000,  0.015100
  1.287000,  0.014100
  1.289000,  0.012900
  1.291000,  0.011800
  1.293000,  0.010500
  1.295000,  0.009100
  1.297000,  0.007600
  1.299000,  0.006100
  1.301000,  0.004600
  1.303000,  0.003000
  1.305000,  0.001400
  1.307000, -0.000300
  1.309000, -0.002000
  1.311000, -0.003700
  1.313000, -0.005600
  1.315000, -0.007500
  1.317000, -0.009500
  1.319000, -0.011300
  1.321000, -0.013000
  1.323000, -0.014800
  1.325000, -0.016500
  1.327000, -0.018000
  1.329000, -0.019600
  1.331000, -0.021000
  1.333000, -0.022200
  1.335000, -0.023300
  1.337000, -0.024200
  1.339000, -0.025000
  1.341000, -0.025500
  1.343000, -0.025900
  1.345000, -0.026000
  1.347000, -0.025900
  1.349000, -0.025600
  1.351000, -0.025100
  1.353000, -0.024300
  1.355000, -0.023400
  1.357000, -0.022200
  1.359000, -0.020700
  1.361000, -0.018900
  1.363000, -0.016900
  1.365000, -0.014700
  1.367000, -0.012100
  1.369000, -0.009300
  1.371000, -0.006400
  1.373000, -0.003400
  1.375000, -0.000400
  1.377000,  0.002900
  1.379000,  0.006600
  1.381000,  0.010300
  1.383000,  0.014000
  1.385000,  0.017700
  1.387000,  0.021500
  1.389000,  0.025300
  1.391000,  0.028900
  1.393000,  0.032300
  1.395000,  0.035500
  1.397000,  0.038200
  1.399000,  0.040700
