# z (nm)   (kJ/mol)
  0.3330    6.40600
  0.3370    5.20520
  0.3390    4.57470
  0.3410    3.92170
  0.3430    3.31250
  0.3450    2.71360
  0.3470    2.08860
  0.3490    1.45620
  0.3510    0.81860
  0.3530    0.21360
  0.3550   -0.38060
  0.3570   -0.98470
  0.3590   -1.58340
  0.3610   -2.17620
  0.3630   -2.75790
  0.3650   -3.32600
  0.3670   -3.88510
  0.3690   -4.43160
  0.3710   -4.96380
  0.3730   -5.48460
  0.3750   -5.99310
  0.3770   -6.48690
  0.3790   -6.96050
  0.3810   -7.41810
  0.3830   -7.86750
  0.3850   -8.30650
  0.3870   -8.73210
  0.3890   -9.14240
  0.3910   -9.53770
  0.3930   -9.91660
  0.3950  -10.28430
  0.3970  -10.63950
  0.3990  -10.97870
  0.4010  -11.30490
  0.4030  -11.61310
  0.4050  -11.90600
  0.4070  -12.18590
  0.4090  -12.44840
  0.4110  -12.69360
  0.4130  -12.92150
  0.4150  -13.13120
  0.4170  -13.32570
  0.4190  -13.50420
  0.4210  -13.66580
  0.4230  -13.81040
  0.4250  -13.93880
  0.4270  -14.05100
  0.4290  -14.14750
  0.4310  -14.22800
  0.4330  -14.29130
  0.4350  -14.33890
  0.4370  -14.37260
  0.4390  -14.39240
  0.4410  -14.39820
  0.4430  -14.39060
  0.4450  -14.37020
  0.4470  -14.33800
  0.4490  -14.29350
  0.4510  -14.23860
  0.4530  -14.17420
  0.4550  -14.09990
  0.4570  -14.01650
  0.4590  -13.92540
  0.4610  -13.82630
  0.4630  -13.72010
  0.4650  -13.60920
  0.4670  -13.49230
  0.4690  -13.37070
  0.4710  -13.24460
  0.4730  -13.11440
  0.4750  -12.98220
  0.4770  -12.84730
  0.4790  -12.70990
  0.4810  -12.57080
  0.4830  -12.43100
  0.4850  -12.29080
  0.4870  -12.15020
  0.4890  -12.01020
  0.4910  -11.87170
  0.4930  -11.73470
  0.4950  -11.59900
  0.4970  -11.46530
  0.4990  -11.33370
  0.5010  -11.20410
  0.5030  -11.07680
  0.5050  -10.95230
  0.5070  -10.83080
  0.5090  -10.71180
  0.5110  -10.59580
  0.5130  -10.48350
  0.5150  -10.37490
  0.5170  -10.26950
  0.5190  -10.16720
  0.5210  -10.06890
  0.5230   -9.97290
  0.5250   -9.87900
  0.5270   -9.78900
  0.5290   -9.70280
  0.5310   -9.61880
  0.5330   -9.53720
  0.5350   -9.45810
  0.5370   -9.38190
  0.5390   -9.30860
  0.5410   -9.23640
  0.5430   -9.16600
  0.5450   -9.09810
  0.5470   -9.03150
  0.5490   -8.96570
  0.5510   -8.90080
  0.5530   -8.83660
  0.5550   -8.77250
  0.5570   -8.70920
  0.5590   -8.64720
  0.5610   -8.58470
  0.5630   -8.52220
  0.5650   -8.45890
  0.5670   -8.39430
  0.5690   -8.32950
  0.5710   -8.26400
  0.5730   -8.19720
  0.5750   -8.12890
  0.5770   -8.05900
  0.5790   -7.98790
  0.5810   -7.91480
  0.5830   -7.83970
  0.5850   -7.76280
  0.5870   -7.68430
  0.5890   -7.60360
  0.5910   -7.52040
  0.5930   -7.43520
  0.5950   -7.34790
  0.5970   -7.25840
  0.5990   -7.16700
  0.6010   -7.07380
  0.6030   -6.97830
  0.6050   -6.88090
  0.6070   -6.78160
  0.6090   -6.68090
  0.6110   -6.57910
  0.6130   -6.47580
  0.6150   -6.37140
  0.6170   -6.26590
  0.6190   -6.15930
  0.6210   -6.05130
  0.6230   -5.94240
  0.6250   -5.83310
  0.6270   -5.72340
  0.6290   -5.61350
  0.6310   -5.50410
  0.6330   -5.39480
  0.6350   -5.28560
  0.6370   -5.17690
  0.6390   -5.06980
  0.6410   -4.96400
  0.6430   -4.85880
  0.6450   -4.75510
  0.6470   -4.65270
  0.6490   -4.55120
  0.6510   -4.45160
  0.6530   -4.35420
  0.6550   -4.25860
  0.6570   -4.16500
  0.6590   -4.07370
  0.6610   -3.98440
  0.6630   -3.89710
  0.6650   -3.81230
  0.6670   -3.73000
  0.6690   -3.65000
  0.6710   -3.57250
  0.6730   -3.49760
  0.6750   -3.42530
  0.6770   -3.35580
  0.6790   -3.28830
  0.6810   -3.22300
  0.6830   -3.16030
  0.6850   -3.10010
  0.6870   -3.04210
  0.6890   -2.98660
  0.6910   -2.93310
  0.6930   -2.88180
  0.6950   -2.83270
  0.6970   -2.78600
  0.6990   -2.74150
  0.7010   -2.69850
  0.7030   -2.65760
  0.7050   -2.61850
  0.7070   -2.58150
  0.7090   -2.54580
  0.7110   -2.51150
  0.7130   -2.47900
  0.7150   -2.44780
  0.7170   -2.41770
  0.7190   -2.38890
  0.7210   -2.36160
  0.7230   -2.33510
  0.7250   -2.30940
  0.7270   -2.28480
  0.7290   -2.26130
  0.7310   -2.23860
  0.7330   -2.21650
  0.7350   -2.19510
  0.7370   -2.17420
  0.7390   -2.15400
  0.7410   -2.13440
  0.7430   -2.11510
  0.7450   -2.09650
  0.7470   -2.07840
  0.7490   -2.06080
  0.7510   -2.04370
  0.7530   -2.02660
  0.7550   -2.00980
  0.7570   -1.99340
  0.7590   -1.97710
  0.7610   -1.96090
  0.7630   -1.94490
  0.7650   -1.92920
  0.7670   -1.91360
  0.7690   -1.89820
  0.7710   -1.88320
  0.7730   -1.86850
  0.7750   -1.85400
  0.7770   -1.83950
  0.7790   -1.82480
  0.7810   -1.81000
  0.7830   -1.79580
  0.7850   -1.78180
  0.7870   -1.76800
  0.7890   -1.75400
  0.7910   -1.74000
  0.7930   -1.72650
  0.7950   -1.71300
  0.7970   -1.69930
  0.7990   -1.68580
  0.8010   -1.67240
  0.8030   -1.65920
  0.8050   -1.64600
  0.8070   -1.63290
  0.8090   -1.62020
  0.8110   -1.60740
  0.8130   -1.59470
  0.8150   -1.58220
  0.8170   -1.56960
  0.8190   -1.55680
  0.8210   -1.54410
  0.8230   -1.53180
  0.8250   -1.51950
  0.8270   -1.50720
  0.8290   -1.49470
  0.8310   -1.48230
  0.8330   -1.47000
  0.8350   -1.45790
  0.8370   -1.44560
  0.8390   -1.43340
  0.8410   -1.42120
  0.8430   -1.40880
  0.8450   -1.39650
  0.8470   -1.38410
  0.8490   -1.37180
  0.8510   -1.35970
  0.8530   -1.34740
  0.8550   -1.33470
  0.8570   -1.32180
  0.8590   -1.30900
  0.8610   -1.29630
  0.8630   -1.28310
  0.8650   -1.27010
  0.8670   -1.25730
  0.8690   -1.24410
  0.8710   -1.23070
  0.8730   -1.21740
  0.8750   -1.20430
  0.8770   -1.19100
  0.8790   -1.17750
  0.8810   -1.16390
  0.8830   -1.15050
  0.8850   -1.13710
  0.8870   -1.12360
  0.8890   -1.11000
  0.8910   -1.09660
  0.8930   -1.08300
  0.8950   -1.06930
  0.8970   -1.05590
  0.8990   -1.04260
  0.9010   -1.02920
  0.9030   -1.01570
  0.9050   -1.00230
  0.9070   -0.98900
  0.9090   -0.97580
  0.9110   -0.96280
  0.9130   -0.95000
  0.9150   -0.93700
  0.9170   -0.92410
  0.9190   -0.91150
  0.9210   -0.89900
  0.9230   -0.88660
  0.9250   -0.87430
  0.9270   -0.86240
  0.9290   -0.85060
  0.9310   -0.83870
  0.9330   -0.82720
  0.9350   -0.81590
  0.9370   -0.80460
  0.9390   -0.79380
  0.9410   -0.78300
  0.9430   -0.77250
  0.9450   -0.76240
  0.9470   -0.75270
  0.9490   -0.74310
  0.9510   -0.73360
  0.9530   -0.72430
  0.9550   -0.71520
  0.9570   -0.70620
  0.9590   -0.69740
  0.9610   -0.68900
  0.9630   -0.68060
  0.9650   -0.67250
  0.9670   -0.66460
  0.9690   -0.65680
  0.9710   -0.64910
  0.9730   -0.64170
  0.9750   -0.63440
  0.9770   -0.62730
  0.9790   -0.62040
  0.9810   -0.61350
  0.9830   -0.60690
  0.9850   -0.60030
  0.9870   -0.59370
  0.9890   -0.58730
  0.9910   -0.58100
  0.9930   -0.57470
  0.9950   -0.56850
  0.9970   -0.56220
  0.9990   -0.55610
  1.0010   -0.54990
  1.0030   -0.54360
  1.0050   -0.53750
  1.0070   -0.53160
  1.0090   -0.52550
  1.0110   -0.51920
  1.0130   -0.51300
  1.0150   -0.50680
  1.0170   -0.50070
  1.0190   -0.49450
  1.0210   -0.48830
  1.0230   -0.48220
  1.0250   -0.47590
  1.0270   -0.46960
  1.0290   -0.46330
  1.0310   -0.45700
  1.0330   -0.45090
  1.0350   -0.44460
  1.0370   -0.43830
  1.0390   -0.43210
  1.0410   -0.42590
  1.0430   -0.41970
  1.0450   -0.41350
  1.0470   -0.40740
  1.0490   -0.40130
  1.0510   -0.39530
  1.0530   -0.38930
  1.0550   -0.38330
  1.0570   -0.37750
  1.0590   -0.37180
  1.0610   -0.36620
  1.0630   -0.36070
  1.0650   -0.35520
  1.0670   -0.35000
  1.0690   -0.34510
  1.0710   -0.34010
  1.0730   -0.33520
  1.0750   -0.33040
  1.0770   -0.32580
  1.0790   -0.32120
  1.0810   -0.31670
  1.0830   -0.31240
  1.0850   -0.30840
  1.0870   -0.30450
  1.0890   -0.30060
  1.0910   -0.29670
  1.0930   -0.29300
  1.0950   -0.28930
  1.0970   -0.28570
  1.0990   -0.28260
  1.1010   -0.27950
  1.1030   -0.27650
  1.1050   -0.27360
  1.1070   -0.27060
  1.1090   -0.26750
  1.1110   -0.26470
  1.1130   -0.26190
  1.1150   -0.25890
  1.1170   -0.25610
  1.1190   -0.25330
  1.1210   -0.25070
  1.1230   -0.24810
  1.1250   -0.24540
  1.1270   -0.24260
  1.1290   -0.24000
  1.1310   -0.23740
  1.1330   -0.23470
  1.1350   -0.23210
  1.1370   -0.22960
  1.1390   -0.22680
  1.1410   -0.22400
  1.1430   -0.22140
  1.1450   -0.21870
  1.1470   -0.21590
  1.1490   -0.21310
  1.1510   -0.21020
  1.1530   -0.20730
  1.1550   -0.20440
  1.1570   -0.20150
  1.1590   -0.19860
  1.1610   -0.19540
  1.1630   -0.19220
  1.1650   -0.18930
  1.1670   -0.18640
  1.1690   -0.18340
  1.1710   -0.18040
  1.1730   -0.17740
  1.1750   -0.17450
  1.1770   -0.17150
  1.1790   -0.16850
  1.1810   -0.16570
  1.1830   -0.16280
  1.1850   -0.15990
  1.1870   -0.15700
  1.1890   -0.15420
  1.1910   -0.15150
  1.1930   -0.14870
  1.1950   -0.14610
  1.1970   -0.14370
  1.1990   -0.14120
  1.2010   -0.13880
  1.2030   -0.13640
  1.2050   -0.13400
  1.2070   -0.13170
  1.2090   -0.12940
  1.2110   -0.12710
  1.2130   -0.12490
  1.2150   -0.12290
  1.2170   -0.12100
  1.2190   -0.11900
  1.2210   -0.11700
  1.2230   -0.11530
  1.2250   -0.11350
  1.2270   -0.11160
  1.2290   -0.10980
  1.2310   -0.10800
  1.2330   -0.10620
  1.2350   -0.10440
  1.2370   -0.10260
  1.2390   -0.10080
  1.2410   -0.09910
  1.2430   -0.09720
  1.2450   -0.09530
  1.2470   -0.09340
  1.2490   -0.09160
  1.2510   -0.08960
  1.2530   -0.08750
  1.2550   -0.08540
  1.2570   -0.08320
  1.2590   -0.08080
  1.2610   -0.07830
  1.2630   -0.07570
  1.2650   -0.07300
  1.2670   -0.07030
  1.2690   -0.06760
  1.2710   -0.06480
  1.2730   -0.06190
  1.2750   -0.05890
  1.2770   -0.05570
  1.2790   -0.05230
  1.2810   -0.04910
  1.2830   -0.04570
  1.2850   -0.04220
  1.2870   -0.03840
  1.2890   -0.03460
  1.2910   -0.03080
  1.2930   -0.02690
  1.2950   -0.02280
  1.2970   -0.01880
  1.2990   -0.01470
  1.3010   -0.01040
  1.3030   -0.00630
  1.3050   -0.00200
  1.3070    0.00230
  1.3090    0.00660
  1.3110    0.01080
  1.3130    0.01510
  1.3150    0.01940
  1.3170    0.02370
  1.3190    0.02800
  1.3210    0.03220
  1.3230    0.03660
  1.3250    0.04090
  1.3270    0.04520
  1.3290    0.04940
  1.3310    0.05370
  1.3330    0.05790
  1.3350    0.06220
  1.3370    0.06650
  1.3390    0.07060
  1.3410    0.07460
  1.3430    0.07860
  1.3450    0.08250
  1.3470    0.08630
  1.3490    0.09020
  1.3510    0.09410
  1.3530    0.09800
  1.3550    0.10180
  1.3570    0.10560
  1.3590    0.10920
  1.3610    0.11280
  1.3630    0.11630
  1.3650    0.11980
  1.3670    0.12330
  1.3690    0.12700
  1.3710    0.13050
  1.3730    0.13390
  1.3750    0.13750
  1.3770    0.14110
  1.3790    0.14470
  1.3810    0.14810
  1.3830    0.15120
  1.3850    0.15420
  1.3870    0.15720
  1.3890    0.16000
  1.3910    0.16260
  1.3930    0.16500
  1.3950    0.16730
  1.3970    0.16940
  1.3990    0.17110
