# z (nm)   (kJ/mol)
  0.271000, 11.520100
  0.273000, 11.009900
  0.275000, 10.521000
  0.277000, 10.048800
  0.279000,  9.553100
  0.281000,  9.035200
  0.283000,  8.507500
  0.285000,  7.974000
  0.287000,  7.451100
  0.289000,  6.939400
  0.291000,  6.431900
  0.293000,  5.921100
  0.295000,  5.412900
  0.297000,  4.909900
  0.299000,  4.416800
  0.301000,  3.933200
  0.303000,  3.446800
  0.305000,  2.963900
  0.307000,  2.496700
  0.309000,  2.035800
  0.311000,  1.584200
  0.313000,  1.147300
  0.315000,  0.718500
  0.317000,  0.296200
  0.319000, -0.118900
  0.321000, -0.528000
  0.323000, -0.925700
  0.325000, -1.311500
  0.327000, -1.688700
  0.329000, -2.054400
  0.331000, -2.409200
  0.333000, -2.753500
  0.335000, -3.087200
  0.337000, -3.408400
  0.339000, -3.720000
  0.341000, -4.020500
  0.343000, -4.309900
  0.345000, -4.588700
  0.347000, -4.853800
  0.349000, -5.106500
  0.351000, -5.347700
  0.353000, -5.578000
  0.355000, -5.797400
  0.357000, -6.004800
  0.359000, -6.200400
  0.361000, -6.385600
  0.363000, -6.560100
  0.365000, -6.722800
  0.367000, -6.874000
  0.369000, -7.014700
  0.371000, -7.143300
  0.373000, -7.261400
  0.375000, -7.371100
  0.377000, -7.468600
  0.379000, -7.554600
  0.381000, -7.632800
  0.383000, -7.700200
  0.385000, -7.759700
  0.387000, -7.812200
  0.389000, -7.851600
  0.391000, -7.884600
  0.393000, -7.909100
  0.395000, -7.922600
  0.397000, -7.930300
  0.399000, -7.931800
  0.401000, -7.927800
  0.403000, -7.917400
  0.405000, -7.903400
  0.407000, -7.884600
  0.409000, -7.862700
  0.411000, -7.838000
  0.413000, -7.805800
  0.415000, -7.769500
  0.417000, -7.730300
  0.419000, -7.687700
  0.421000, -7.642700
  0.423000, -7.595100
  0.425000, -7.545400
  0.427000, -7.494700
  0.429000, -7.442200
  0.431000, -7.387400
  0.433000, -7.331300
  0.435000, -7.274200
  0.437000, -7.215800
  0.439000, -7.156600
  0.441000, -7.096500
  0.443000, -7.035300
  0.445000, -6.973200
  0.447000, -6.909900
  0.449000, -6.845400
  0.451000, -6.780200
  0.453000, -6.714000
  0.455000, -6.647100
  0.457000, -6.579200
  0.459000, -6.510400
  0.461000, -6.440800
  0.463000, -6.370200
  0.465000, -6.298500
  0.467000, -6.225600
  0.469000, -6.151600
  0.471000, -6.076600
  0.473000, -6.000800
  0.475000, -5.923700
  0.477000, -5.845400
  0.479000, -5.765600
  0.481000, -5.684300
  0.483000, -5.602500
  0.485000, -5.519700
  0.487000, -5.435500
  0.489000, -5.350300
  0.491000, -5.263700
  0.493000, -5.176200
  0.495000, -5.088300
  0.497000, -4.999600
  0.499000, -4.909800
  0.501000, -4.819200
  0.503000, -4.728100
  0.505000, -4.636600
  0.507000, -4.544800
  0.509000, -4.452500
  0.511000, -4.359500
  0.513000, -4.266400
  0.515000, -4.173300
  0.517000, -4.080200
  0.519000, -3.986900
  0.521000, -3.893900
  0.523000, -3.801200
  0.525000, -3.708700
  0.527000, -3.616500
  0.529000, -3.524500
  0.531000, -3.433300
  0.533000, -3.342900
  0.535000, -3.253000
  0.537000, -3.164300
  0.539000, -3.076600
  0.541000, -2.989600
  0.543000, -2.903600
  0.545000, -2.818600
  0.547000, -2.735100
  0.549000, -2.652700
  0.551000, -2.571800
  0.553000, -2.492200
  0.555000, -2.414200
  0.557000, -2.337700
  0.559000, -2.262400
  0.561000, -2.188400
  0.563000, -2.115900
  0.565000, -2.045300
  0.567000, -1.976100
  0.569000, -1.908600
  0.571000, -1.842700
  0.573000, -1.778200
  0.575000, -1.715300
  0.577000, -1.654300
  0.579000, -1.595000
  0.581000, -1.537100
  0.583000, -1.480800
  0.585000, -1.426300
  0.587000, -1.373400
  0.589000, -1.322200
  0.591000, -1.272200
  0.593000, -1.223900
  0.595000, -1.177300
  0.597000, -1.132300
  0.599000, -1.088800
  0.601000, -1.047100
  0.603000, -1.006800
  0.605000, -0.968000
  0.607000, -0.931000
  0.609000, -0.895500
  0.611000, -0.861300
  0.613000, -0.828500
  0.615000, -0.797500
  0.617000, -0.767700
  0.619000, -0.739200
  0.621000, -0.712400
  0.623000, -0.687100
  0.625000, -0.663200
  0.627000, -0.640600
  0.629000, -0.619700
  0.631000, -0.600100
  0.633000, -0.582000
  0.635000, -0.565600
  0.637000, -0.550500
  0.639000, -0.536700
  0.641000, -0.524300
  0.643000, -0.513100
  0.645000, -0.503200
  0.647000, -0.494800
  0.649000, -0.488000
  0.651000, -0.482400
  0.653000, -0.477900
  0.655000, -0.474800
  0.657000, -0.473000
  0.659000, -0.472600
  0.661000, -0.473500
  0.663000, -0.475500
  0.665000, -0.478600
  0.667000, -0.482700
  0.669000, -0.487700
  0.671000, -0.494200
  0.673000, -0.501500
  0.675000, -0.509500
  0.677000, -0.518400
  0.679000, -0.528100
  0.681000, -0.538800
  0.683000, -0.549900
  0.685000, -0.562100
  0.687000, -0.575300
  0.689000, -0.589200
  0.691000, -0.603300
  0.693000, -0.617800
  0.695000, -0.632900
  0.697000, -0.648600
  0.699000, -0.664400
  0.701000, -0.680300
  0.703000, -0.696400
  0.705000, -0.712600
  0.707000, -0.728900
  0.709000, -0.745500
  0.711000, -0.761900
  0.713000, -0.778100
  0.715000, -0.794300
  0.717000, -0.810400
  0.719000, -0.826400
  0.721000, -0.842000
  0.723000, -0.857400
  0.725000, -0.872500
  0.727000, -0.887000
  0.729000, -0.900900
  0.731000, -0.914300
  0.733000, -0.927400
  0.735000, -0.939800
  0.737000, -0.951400
  0.739000, -0.962400
  0.741000, -0.972900
  0.743000, -0.982800
  0.745000, -0.992000
  0.747000, -1.000400
  0.749000, -1.008000
  0.751000, -1.014900
  0.753000, -1.020900
  0.755000, -1.026100
  0.757000, -1.030600
  0.759000, -1.034200
  0.761000, -1.037000
  0.763000, -1.039100
  0.765000, -1.040400
  0.767000, -1.040800
  0.769000, -1.040400
  0.771000, -1.039300
  0.773000, -1.037400
  0.775000, -1.034700
  0.777000, -1.031400
  0.779000, -1.027300
  0.781000, -1.022500
  0.783000, -1.017000
  0.785000, -1.010600
  0.787000, -1.003700
  0.789000, -0.996200
  0.791000, -0.988200
  0.793000, -0.979500
  0.795000, -0.970200
  0.797000, -0.960500
  0.799000, -0.950400
  0.801000, -0.939900
  0.803000, -0.928800
  0.805000, -0.917200
  0.807000, -0.905200
  0.809000, -0.892900
  0.811000, -0.880200
  0.813000, -0.867000
  0.815000, -0.853500
  0.817000, -0.839700
  0.819000, -0.825600
  0.821000, -0.811400
  0.823000, -0.796800
  0.825000, -0.782000
  0.827000, -0.766800
  0.829000, -0.751400
  0.831000, -0.735900
  0.833000, -0.720100
  0.835000, -0.704300
  0.837000, -0.688300
  0.839000, -0.672100
  0.841000, -0.655900
  0.843000, -0.639600
  0.845000, -0.623200
  0.847000, -0.606600
  0.849000, -0.589900
  0.851000, -0.573300
  0.853000, -0.556700
  0.855000, -0.539800
  0.857000, -0.523000
  0.859000, -0.506100
  0.861000, -0.489200
  0.863000, -0.472400
  0.865000, -0.455800
  0.867000, -0.439100
  0.869000, -0.422500
  0.871000, -0.405900
  0.873000, -0.389600
  0.875000, -0.373400
  0.877000, -0.357300
  0.879000, -0.341400
  0.881000, -0.325600
  0.883000, -0.310000
  0.885000, -0.294600
  0.887000, -0.279400
  0.889000, -0.264400
  0.891000, -0.249600
  0.893000, -0.235200
  0.895000, -0.221100
  0.897000, -0.207100
  0.899000, -0.193600
  0.901000, -0.180400
  0.903000, -0.167700
  0.905000, -0.155300
  0.907000, -0.143200
  0.909000, -0.131500
  0.911000, -0.120200
  0.913000, -0.109200
  0.915000, -0.098600
  0.917000, -0.088500
  0.919000, -0.078900
  0.921000, -0.069600
  0.923000, -0.060800
  0.925000, -0.052500
  0.927000, -0.044600
  0.929000, -0.037100
  0.931000, -0.030100
  0.933000, -0.023600
  0.935000, -0.017600
  0.937000, -0.011900
  0.939000, -0.006700
  0.941000, -0.001900
  0.943000,  0.002500
  0.945000,  0.006500
  0.947000,  0.010000
  0.949000,  0.013200
  0.951000,  0.015900
  0.953000,  0.018200
  0.955000,  0.020100
  0.957000,  0.021800
  0.959000,  0.023100
  0.961000,  0.024000
  0.963000,  0.024700
  0.965000,  0.024900
  0.967000,  0.024900
  0.969000,  0.024700
  0.971000,  0.024100
  0.973000,  0.023000
  0.975000,  0.021900
  0.977000,  0.020600
  0.979000,  0.019000
  0.981000,  0.017200
  0.983000,  0.015200
  0.985000,  0.013000
  0.987000,  0.010700
  0.989000,  0.008300
  0.991000,  0.005800
  0.993000,  0.003000
  0.995000,  0.000100
  0.997000, -0.002900
  0.999000, -0.006000
  1.001000, -0.009200
  1.003000, -0.012400
  1.005000, -0.015800
  1.007000, -0.019100
  1.009000, -0.022700
  1.011000, -0.026200
  1.013000, -0.029700
  1.015000, -0.033300
  1.017000, -0.037000
  1.019000, -0.040700
  1.021000, -0.044400
  1.023000, -0.048100
  1.025000, -0.051800
  1.027000, -0.055700
  1.029000, -0.059600
  1.031000, -0.063400
  1.033000, -0.067200
  1.035000, -0.071000
  1.037000, -0.074800
  1.039000, -0.078600
  1.041000, -0.082400
  1.043000, -0.086300
  1.045000, -0.090100
  1.047000, -0.093800
  1.049000, -0.097500
  1.051000, -0.101100
  1.053000, -0.104800
  1.055000, -0.108300
  1.057000, -0.111600
  1.059000, -0.115000
  1.061000, -0.118300
  1.063000, -0.121500
  1.065000, -0.124600
  1.067000, -0.127500
  1.069000, -0.130300
  1.071000, -0.132900
  1.073000, -0.135600
  1.075000, -0.138000
  1.077000, -0.140100
  1.079000, -0.142200
  1.081000, -0.144200
  1.083000, -0.146000
  1.085000, -0.147600
  1.087000, -0.148900
  1.089000, -0.150100
  1.091000, -0.151200
  1.093000, -0.152100
  1.095000, -0.152700
  1.097000, -0.153000
  1.099000, -0.153000
  1.101000, -0.153000
  1.103000, -0.152800
  1.105000, -0.152400
  1.107000, -0.152100
  1.109000, -0.151600
  1.111000, -0.150800
  1.113000, -0.149500
  1.115000, -0.148000
  1.117000, -0.146600
  1.119000, -0.145000
  1.121000, -0.143100
  1.123000, -0.141300
  1.125000, -0.139400
  1.127000, -0.137300
  1.129000, -0.135000
  1.131000, -0.132800
  1.133000, -0.130400
  1.135000, -0.128000
  1.137000, -0.125500
  1.139000, -0.123000
  1.141000, -0.120200
  1.143000, -0.117500
  1.145000, -0.114900
  1.147000, -0.112300
  1.149000, -0.109400
  1.151000, -0.106600
  1.153000, -0.103900
  1.155000, -0.101200
  1.157000, -0.098600
  1.159000, -0.095900
  1.161000, -0.093300
  1.163000, -0.090700
  1.165000, -0.088200
  1.167000, -0.085800
  1.169000, -0.083500
  1.171000, -0.081100
  1.173000, -0.078700
  1.175000, -0.076500
  1.177000, -0.074200
  1.179000, -0.072000
  1.181000, -0.069900
  1.183000, -0.067900
  1.185000, -0.066100
  1.187000, -0.064200
  1.189000, -0.062300
  1.191000, -0.060600
  1.193000, -0.058900
  1.195000, -0.057300
  1.197000, -0.055700
  1.199000, -0.054000
  1.201000, -0.052500
  1.203000, -0.050900
  1.205000, -0.049300
  1.207000, -0.047800
  1.209000, -0.046500
  1.211000, -0.045100
  1.213000, -0.043700
  1.215000, -0.042400
  1.217000, -0.041100
  1.219000, -0.039700
  1.221000, -0.038300
  1.223000, -0.036900
  1.225000, -0.035500
  1.227000, -0.034200
  1.229000, -0.032900
  1.231000, -0.031400
  1.233000, -0.030000
  1.235000, -0.028800
  1.237000, -0.027600
  1.239000, -0.026400
  1.241000, -0.025200
  1.243000, -0.024000
  1.245000, -0.022800
  1.247000, -0.021600
  1.249000, -0.020600
  1.251000, -0.019500
  1.253000, -0.018300
  1.255000, -0.017100
  1.257000, -0.015900
  1.259000, -0.014700
  1.261000, -0.013500
  1.263000, -0.012500
  1.265000, -0.011500
  1.267000, -0.010500
  1.269000, -0.009600
  1.271000, -0.008900
  1.273000, -0.008100
  1.275000, -0.007300
  1.277000, -0.006700
  1.279000, -0.006100
  1.281000, -0.005500
  1.283000, -0.005100
  1.285000, -0.004800
  1.287000, -0.004400
  1.289000, -0.004100
  1.291000, -0.003800
  1.293000, -0.003400
  1.295000, -0.003200
  1.297000, -0.002800
  1.299000, -0.002500
  1.301000, -0.002500
  1.303000, -0.002500
  1.305000, -0.002500
  1.307000, -0.002400
  1.309000, -0.002300
  1.311000, -0.002200
  1.313000, -0.002200
  1.315000, -0.002100
  1.317000, -0.001900
  1.319000, -0.001600
  1.321000, -0.001400
  1.323000, -0.001000
  1.325000, -0.000700
  1.327000, -0.000300
  1.329000,  0.000200
  1.331000,  0.000800
  1.333000,  0.001500
  1.335000,  0.002300
  1.337000,  0.003200
  1.339000,  0.004300
  1.341000,  0.005600
  1.343000,  0.007000
  1.345000,  0.008500
  1.347000,  0.010200
  1.349000,  0.012000
  1.351000,  0.013900
  1.353000,  0.016000
  1.355000,  0.018100
  1.357000,  0.020300
  1.359000,  0.022800
  1.361000,  0.025400
  1.363000,  0.028000
  1.365000,  0.030800
  1.367000,  0.033700
  1.369000,  0.036700
  1.371000,  0.039800
  1.373000,  0.043000
  1.375000,  0.046100
  1.377000,  0.049300
  1.379000,  0.052400
  1.381000,  0.055600
  1.383000,  0.058900
  1.385000,  0.061900
  1.387000,  0.064600
  1.389000,  0.067200
  1.391000,  0.069600
  1.393000,  0.071700
  1.395000,  0.073400
  1.397000,  0.074700
  1.399000,  0.075800
