# z (nm)   (kJ/mol)
  0.275000,  3.381200
  0.277000,  2.698300
  0.279000,  2.014500
  0.281000,  1.290400
  0.283000,  0.619200
  0.285000, -0.038600
  0.287000, -0.648600
  0.289000, -1.236400
  0.291000, -1.845300
  0.293000, -2.460300
  0.295000, -3.045700
  0.297000, -3.595200
  0.299000, -4.137700
  0.301000, -4.667900
  0.303000, -5.174900
  0.305000, -5.660000
  0.307000, -6.123700
  0.309000, -6.570700
  0.311000, -6.996900
  0.313000, -7.401100
  0.315000, -7.791100
  0.317000, -8.162400
  0.319000, -8.510600
  0.321000, -8.838600
  0.323000, -9.143900
  0.325000, -9.427000
  0.327000, -9.690200
  0.329000, -9.931900
  0.331000,-10.152300
  0.333000,-10.352000
  0.335000,-10.530500
  0.337000,-10.686800
  0.339000,-10.822600
  0.341000,-10.938100
  0.343000,-11.030900
  0.345000,-11.102900
  0.347000,-11.155900
  0.349000,-11.191000
  0.351000,-11.211400
  0.353000,-11.215100
  0.355000,-11.203600
  0.357000,-11.180500
  0.359000,-11.146700
  0.361000,-11.102100
  0.363000,-11.046700
  0.365000,-10.984600
  0.367000,-10.915400
  0.369000,-10.836800
  0.371000,-10.747000
  0.373000,-10.644100
  0.375000,-10.529900
  0.377000,-10.406700
  0.379000,-10.277600
  0.381000,-10.140200
  0.383000, -9.998200
  0.385000, -9.853900
  0.387000, -9.697100
  0.389000, -9.532200
  0.391000, -9.362800
  0.393000, -9.187600
  0.395000, -9.012100
  0.397000, -8.830700
  0.399000, -8.642400
  0.401000, -8.452300
  0.403000, -8.263700
  0.405000, -8.077500
  0.407000, -7.889300
  0.409000, -7.701600
  0.411000, -7.509500
  0.413000, -7.319000
  0.415000, -7.134900
  0.417000, -6.948600
  0.419000, -6.764300
  0.421000, -6.582300
  0.423000, -6.400500
  0.425000, -6.223000
  0.427000, -6.049400
  0.429000, -5.878800
  0.431000, -5.710500
  0.433000, -5.541900
  0.435000, -5.374800
  0.437000, -5.214700
  0.439000, -5.060200
  0.441000, -4.907400
  0.443000, -4.758800
  0.445000, -4.618700
  0.447000, -4.483300
  0.449000, -4.353300
  0.451000, -4.233200
  0.453000, -4.120200
  0.455000, -4.015800
  0.457000, -3.920800
  0.459000, -3.832600
  0.461000, -3.751500
  0.463000, -3.682500
  0.465000, -3.625900
  0.467000, -3.572100
  0.469000, -3.520300
  0.471000, -3.476800
  0.473000, -3.437300
  0.475000, -3.396200
  0.477000, -3.359600
  0.479000, -3.328400
  0.481000, -3.298500
  0.483000, -3.269700
  0.485000, -3.241100
  0.487000, -3.213500
  0.489000, -3.188500
  0.491000, -3.164000
  0.493000, -3.138900
  0.495000, -3.113700
  0.497000, -3.089300
  0.499000, -3.065900
  0.501000, -3.043500
  0.503000, -3.020600
  0.505000, -2.995000
  0.507000, -2.969200
  0.509000, -2.944900
  0.511000, -2.920000
  0.513000, -2.893800
  0.515000, -2.867700
  0.517000, -2.841300
  0.519000, -2.813700
  0.521000, -2.786400
  0.523000, -2.759400
  0.525000, -2.732100
  0.527000, -2.703800
  0.529000, -2.674600
  0.531000, -2.645700
  0.533000, -2.616600
  0.535000, -2.586500
  0.537000, -2.556100
  0.539000, -2.525200
  0.541000, -2.493000
  0.543000, -2.459600
  0.545000, -2.426500
  0.547000, -2.393700
  0.549000, -2.360000
  0.551000, -2.325600
  0.553000, -2.291100
  0.555000, -2.256400
  0.557000, -2.221400
  0.559000, -2.186300
  0.561000, -2.150600
  0.563000, -2.114600
  0.565000, -2.078400
  0.567000, -2.042300
  0.569000, -2.005900
  0.571000, -1.969400
  0.573000, -1.932600
  0.575000, -1.895700
  0.577000, -1.858500
  0.579000, -1.820800
  0.581000, -1.782900
  0.583000, -1.744900
  0.585000, -1.706800
  0.587000, -1.668400
  0.589000, -1.629700
  0.591000, -1.591000
  0.593000, -1.552300
  0.595000, -1.513700
  0.597000, -1.474900
  0.599000, -1.436000
  0.601000, -1.397300
  0.603000, -1.358700
  0.605000, -1.320100
  0.607000, -1.281600
  0.609000, -1.243000
  0.611000, -1.204600
  0.613000, -1.166500
  0.615000, -1.128500
  0.617000, -1.090700
  0.619000, -1.053200
  0.621000, -1.016200
  0.623000, -0.979500
  0.625000, -0.943400
  0.627000, -0.907800
  0.629000, -0.872700
  0.631000, -0.837700
  0.633000, -0.803800
  0.635000, -0.771000
  0.637000, -0.738600
  0.639000, -0.706400
  0.641000, -0.675100
  0.643000, -0.644700
  0.645000, -0.615000
  0.647000, -0.586300
  0.649000, -0.558400
  0.651000, -0.531500
  0.653000, -0.505700
  0.655000, -0.481000
  0.657000, -0.457300
  0.659000, -0.434500
  0.661000, -0.413000
  0.663000, -0.392500
  0.665000, -0.373100
  0.667000, -0.354900
  0.669000, -0.337900
  0.671000, -0.322200
  0.673000, -0.308000
  0.675000, -0.294900
  0.677000, -0.282700
  0.679000, -0.271700
  0.681000, -0.262200
  0.683000, -0.253800
  0.685000, -0.246400
  0.687000, -0.240100
  0.689000, -0.234800
  0.691000, -0.230800
  0.693000, -0.227900
  0.695000, -0.226200
  0.697000, -0.225500
  0.699000, -0.225800
  0.701000, -0.227200
  0.703000, -0.229500
  0.705000, -0.232600
  0.707000, -0.236700
  0.709000, -0.241600
  0.711000, -0.247100
  0.713000, -0.253500
  0.715000, -0.260800
  0.717000, -0.268500
  0.719000, -0.276600
  0.721000, -0.285400
  0.723000, -0.294600
  0.725000, -0.304300
  0.727000, -0.314700
  0.729000, -0.325500
  0.731000, -0.336500
  0.733000, -0.347700
  0.735000, -0.359200
  0.737000, -0.370800
  0.739000, -0.382400
  0.741000, -0.394000
  0.743000, -0.405500
  0.745000, -0.417200
  0.747000, -0.429000
  0.749000, -0.440600
  0.751000, -0.451900
  0.753000, -0.462900
  0.755000, -0.473700
  0.757000, -0.484200
  0.759000, -0.494400
  0.761000, -0.504200
  0.763000, -0.513900
  0.765000, -0.523100
  0.767000, -0.531700
  0.769000, -0.539700
  0.771000, -0.547400
  0.773000, -0.554500
  0.775000, -0.561100
  0.777000, -0.566900
  0.779000, -0.572200
  0.781000, -0.576800
  0.783000, -0.581000
  0.785000, -0.584400
  0.787000, -0.587200
  0.789000, -0.589500
  0.791000, -0.591200
  0.793000, -0.592200
  0.795000, -0.592400
  0.797000, -0.591900
  0.799000, -0.590800
  0.801000, -0.589000
  0.803000, -0.586500
  0.805000, -0.583400
  0.807000, -0.579700
  0.809000, -0.575200
  0.811000, -0.570100
  0.813000, -0.564300
  0.815000, -0.558100
  0.817000, -0.551300
  0.819000, -0.543900
  0.821000, -0.535900
  0.823000, -0.527500
  0.825000, -0.518500
  0.827000, -0.509100
  0.829000, -0.499100
  0.831000, -0.488600
  0.833000, -0.477600
  0.835000, -0.466200
  0.837000, -0.454200
  0.839000, -0.442100
  0.841000, -0.429700
  0.843000, -0.416800
  0.845000, -0.403800
  0.847000, -0.390700
  0.849000, -0.377400
  0.851000, -0.363900
  0.853000, -0.350000
  0.855000, -0.335900
  0.857000, -0.321500
  0.859000, -0.307300
  0.861000, -0.293300
  0.863000, -0.279100
  0.865000, -0.264900
  0.867000, -0.250600
  0.869000, -0.236600
  0.871000, -0.222600
  0.873000, -0.208700
  0.875000, -0.194800
  0.877000, -0.181000
  0.879000, -0.167200
  0.881000, -0.153500
  0.883000, -0.140100
  0.885000, -0.127000
  0.887000, -0.114100
  0.889000, -0.101400
  0.891000, -0.088900
  0.893000, -0.076600
  0.895000, -0.064600
  0.897000, -0.052900
  0.899000, -0.041300
  0.901000, -0.030200
  0.903000, -0.019400
  0.905000, -0.009000
  0.907000,  0.000900
  0.909000,  0.010600
  0.911000,  0.020000
  0.913000,  0.029100
  0.915000,  0.037800
  0.917000,  0.046300
  0.919000,  0.054400
  0.921000,  0.062300
  0.923000,  0.069800
  0.925000,  0.077100
  0.927000,  0.083900
  0.929000,  0.090400
  0.931000,  0.096400
  0.933000,  0.102200
  0.935000,  0.107800
  0.937000,  0.113000
  0.939000,  0.117800
  0.941000,  0.122300
  0.943000,  0.126500
  0.945000,  0.130300
  0.947000,  0.133800
  0.949000,  0.137000
  0.951000,  0.140200
  0.953000,  0.143100
  0.955000,  0.145600
  0.957000,  0.147900
  0.959000,  0.150000
  0.961000,  0.151800
  0.963000,  0.153300
  0.965000,  0.154500
  0.967000,  0.155600
  0.969000,  0.156500
  0.971000,  0.157000
  0.973000,  0.157400
  0.975000,  0.157800
  0.977000,  0.157800
  0.979000,  0.157700
  0.981000,  0.157400
  0.983000,  0.156900
  0.985000,  0.156200
  0.987000,  0.155500
  0.989000,  0.154500
  0.991000,  0.153300
  0.993000,  0.152000
  0.995000,  0.150500
  0.997000,  0.149000
  0.999000,  0.147400
  1.001000,  0.145500
  1.003000,  0.143600
  1.005000,  0.141500
  1.007000,  0.139400
  1.009000,  0.137200
  1.011000,  0.134900
  1.013000,  0.132500
  1.015000,  0.130100
  1.017000,  0.127800
  1.019000,  0.125400
  1.021000,  0.122800
  1.023000,  0.120200
  1.025000,  0.117500
  1.027000,  0.114900
  1.029000,  0.112400
  1.031000,  0.109700
  1.033000,  0.106900
  1.035000,  0.104200
  1.037000,  0.101600
  1.039000,  0.098900
  1.041000,  0.096500
  1.043000,  0.094000
  1.045000,  0.091700
  1.047000,  0.089400
  1.049000,  0.087100
  1.051000,  0.084900
  1.053000,  0.082900
  1.055000,  0.081000
  1.057000,  0.079000
  1.059000,  0.077200
  1.061000,  0.075500
  1.063000,  0.073900
  1.065000,  0.072500
  1.067000,  0.071200
  1.069000,  0.069800
  1.071000,  0.068600
  1.073000,  0.067600
  1.075000,  0.066700
  1.077000,  0.066000
  1.079000,  0.065300
  1.081000,  0.064700
  1.083000,  0.064200
  1.085000,  0.063600
  1.087000,  0.063200
  1.089000,  0.063000
  1.091000,  0.062900
  1.093000,  0.062800
  1.095000,  0.062800
  1.097000,  0.062800
  1.099000,  0.062800
  1.101000,  0.063000
  1.103000,  0.063200
  1.105000,  0.063500
  1.107000,  0.063900
  1.109000,  0.064100
  1.111000,  0.064400
  1.113000,  0.064700
  1.115000,  0.065100
  1.117000,  0.065500
  1.119000,  0.065900
  1.121000,  0.066200
  1.123000,  0.066400
  1.125000,  0.066500
  1.127000,  0.066700
  1.129000,  0.066900
  1.131000,  0.067000
  1.133000,  0.067000
  1.135000,  0.067000
  1.137000,  0.066900
  1.139000,  0.066600
  1.141000,  0.066200
  1.143000,  0.065900
  1.145000,  0.065500
  1.147000,  0.065100
  1.149000,  0.064600
  1.151000,  0.064000
  1.153000,  0.063400
  1.155000,  0.062900
  1.157000,  0.062200
  1.159000,  0.061400
  1.161000,  0.060700
  1.163000,  0.059700
  1.165000,  0.058800
  1.167000,  0.058100
  1.169000,  0.057200
  1.171000,  0.056300
  1.173000,  0.055200
  1.175000,  0.054100
  1.177000,  0.053200
  1.179000,  0.052200
  1.181000,  0.051200
  1.183000,  0.050300
  1.185000,  0.049400
  1.187000,  0.048600
  1.189000,  0.047600
  1.191000,  0.046800
  1.193000,  0.045800
  1.195000,  0.044700
  1.197000,  0.044000
  1.199000,  0.043300
  1.201000,  0.042500
  1.203000,  0.041700
  1.205000,  0.041100
  1.207000,  0.040400
  1.209000,  0.039900
  1.211000,  0.039500
  1.213000,  0.038900
  1.215000,  0.038500
  1.217000,  0.038100
  1.219000,  0.037600
  1.221000,  0.037100
  1.223000,  0.036800
  1.225000,  0.036500
  1.227000,  0.036200
  1.229000,  0.035800
  1.231000,  0.035300
  1.233000,  0.035000
  1.235000,  0.034500
  1.237000,  0.034100
  1.239000,  0.033700
  1.241000,  0.033200
  1.243000,  0.032700
  1.245000,  0.032300
  1.247000,  0.031700
  1.249000,  0.031000
  1.251000,  0.030400
  1.253000,  0.029800
  1.255000,  0.029100
  1.257000,  0.028200
  1.259000,  0.027400
  1.261000,  0.026700
  1.263000,  0.025700
  1.265000,  0.024500
  1.267000,  0.023200
  1.269000,  0.022100
  1.271000,  0.020900
  1.273000,  0.019700
  1.275000,  0.018500
  1.277000,  0.017000
  1.279000,  0.015600
  1.281000,  0.014000
  1.283000,  0.012400
  1.285000,  0.010800
  1.287000,  0.009400
  1.289000,  0.007800
  1.291000,  0.006100
  1.293000,  0.004500
  1.295000,  0.002900
  1.297000,  0.001200
  1.299000, -0.000500
  1.301000, -0.002200
  1.303000, -0.003900
  1.305000, -0.005400
  1.307000, -0.007000
  1.309000, -0.008600
  1.311000, -0.010200
  1.313000, -0.011800
  1.315000, -0.013500
  1.317000, -0.015200
  1.319000, -0.016600
  1.321000, -0.018100
  1.323000, -0.019500
  1.325000, -0.020900
  1.327000, -0.022200
  1.329000, -0.023400
  1.331000, -0.024600
  1.333000, -0.025700
  1.335000, -0.026700
  1.337000, -0.027700
  1.339000, -0.028700
  1.341000, -0.029500
  1.343000, -0.030200
  1.345000, -0.031000
  1.347000, -0.031700
  1.349000, -0.032300
  1.351000, -0.032700
  1.353000, -0.033100
  1.355000, -0.033400
  1.357000, -0.033700
  1.359000, -0.034000
  1.361000, -0.034100
  1.363000, -0.034200
  1.365000, -0.034400
  1.367000, -0.034500
  1.369000, -0.034500
  1.371000, -0.034600
  1.373000, -0.034700
  1.375000, -0.034800
  1.377000, -0.034900
  1.379000, -0.035200
  1.381000, -0.035400
  1.383000, -0.035600
  1.385000, -0.036100
  1.387000, -0.036600
  1.389000, -0.037200
  1.391000, -0.038000
  1.393000, -0.039200
  1.395000, -0.040700
  1.397000, -0.042500
  1.399000, -0.044900
