# z (nm)   (kJ/mol)
  0.2750    3.38120
  0.2770    2.69830
  0.2790    2.01450
  0.2810    1.29040
  0.2830    0.61920
  0.2850   -0.03860
  0.2870   -0.64860
  0.2890   -1.23640
  0.2910   -1.84530
  0.2930   -2.46030
  0.2950   -3.04570
  0.2970   -3.59520
  0.2990   -4.13770
  0.3010   -4.66790
  0.3030   -5.17490
  0.3050   -5.66000
  0.3070   -6.12370
  0.3090   -6.57070
  0.3110   -6.99690
  0.3130   -7.40110
  0.3150   -7.79110
  0.3170   -8.16240
  0.3190   -8.51060
  0.3210   -8.83860
  0.3230   -9.14390
  0.3250   -9.42700
  0.3270   -9.69020
  0.3290   -9.93190
  0.3310  -10.15230
  0.3330  -10.35200
  0.3350  -10.53050
  0.3370  -10.68680
  0.3390  -10.82260
  0.3410  -10.93810
  0.3430  -11.03090
  0.3450  -11.10290
  0.3470  -11.15590
  0.3490  -11.19100
  0.3510  -11.21140
  0.3530  -11.21510
  0.3550  -11.20360
  0.3570  -11.18050
  0.3590  -11.14670
  0.3610  -11.10210
  0.3630  -11.04670
  0.3650  -10.98460
  0.3670  -10.91540
  0.3690  -10.83680
  0.3710  -10.74700
  0.3730  -10.64410
  0.3750  -10.52990
  0.3770  -10.40670
  0.3790  -10.27760
  0.3810  -10.14020
  0.3830   -9.99820
  0.3850   -9.85390
  0.3870   -9.69710
  0.3890   -9.53220
  0.3910   -9.36280
  0.3930   -9.18760
  0.3950   -9.01210
  0.3970   -8.83070
  0.3990   -8.64240
  0.4010   -8.45230
  0.4030   -8.26370
  0.4050   -8.07750
  0.4070   -7.88930
  0.4090   -7.70160
  0.4110   -7.50950
  0.4130   -7.31900
  0.4150   -7.13490
  0.4170   -6.94860
  0.4190   -6.76430
  0.4210   -6.58230
  0.4230   -6.40050
  0.4250   -6.22300
  0.4270   -6.04940
  0.4290   -5.87880
  0.4310   -5.71050
  0.4330   -5.54190
  0.4350   -5.37480
  0.4370   -5.21470
  0.4390   -5.06020
  0.4410   -4.90740
  0.4430   -4.75880
  0.4450   -4.61870
  0.4470   -4.48330
  0.4490   -4.35330
  0.4510   -4.23320
  0.4530   -4.12020
  0.4550   -4.01580
  0.4570   -3.92080
  0.4590   -3.83260
  0.4610   -3.75150
  0.4630   -3.68250
  0.4650   -3.62590
  0.4670   -3.57210
  0.4690   -3.52030
  0.4710   -3.47680
  0.4730   -3.43730
  0.4750   -3.39620
  0.4770   -3.35960
  0.4790   -3.32840
  0.4810   -3.29850
  0.4830   -3.26970
  0.4850   -3.24110
  0.4870   -3.21350
  0.4890   -3.18850
  0.4910   -3.16400
  0.4930   -3.13890
  0.4950   -3.11370
  0.4970   -3.08930
  0.4990   -3.06590
  0.5010   -3.04350
  0.5030   -3.02060
  0.5050   -2.99500
  0.5070   -2.96920
  0.5090   -2.94490
  0.5110   -2.92000
  0.5130   -2.89380
  0.5150   -2.86770
  0.5170   -2.84130
  0.5190   -2.81370
  0.5210   -2.78640
  0.5230   -2.75940
  0.5250   -2.73210
  0.5270   -2.70380
  0.5290   -2.67460
  0.5310   -2.64570
  0.5330   -2.61660
  0.5350   -2.58650
  0.5370   -2.55610
  0.5390   -2.52520
  0.5410   -2.49300
  0.5430   -2.45960
  0.5450   -2.42650
  0.5470   -2.39370
  0.5490   -2.36000
  0.5510   -2.32560
  0.5530   -2.29110
  0.5550   -2.25640
  0.5570   -2.22140
  0.5590   -2.18630
  0.5610   -2.15060
  0.5630   -2.11460
  0.5650   -2.07840
  0.5670   -2.04230
  0.5690   -2.00590
  0.5710   -1.96940
  0.5730   -1.93260
  0.5750   -1.89570
  0.5770   -1.85850
  0.5790   -1.82080
  0.5810   -1.78290
  0.5830   -1.74490
  0.5850   -1.70680
  0.5870   -1.66840
  0.5890   -1.62970
  0.5910   -1.59100
  0.5930   -1.55230
  0.5950   -1.51370
  0.5970   -1.47490
  0.5990   -1.43600
  0.6010   -1.39730
  0.6030   -1.35870
  0.6050   -1.32010
  0.6070   -1.28160
  0.6090   -1.24300
  0.6110   -1.20460
  0.6130   -1.16650
  0.6150   -1.12850
  0.6170   -1.09070
  0.6190   -1.05320
  0.6210   -1.01620
  0.6230   -0.97950
  0.6250   -0.94340
  0.6270   -0.90780
  0.6290   -0.87270
  0.6310   -0.83770
  0.6330   -0.80380
  0.6350   -0.77100
  0.6370   -0.73860
  0.6390   -0.70640
  0.6410   -0.67510
  0.6430   -0.64470
  0.6450   -0.61500
  0.6470   -0.58630
  0.6490   -0.55840
  0.6510   -0.53150
  0.6530   -0.50570
  0.6550   -0.48100
  0.6570   -0.45730
  0.6590   -0.43450
  0.6610   -0.41300
  0.6630   -0.39250
  0.6650   -0.37310
  0.6670   -0.35490
  0.6690   -0.33790
  0.6710   -0.32220
  0.6730   -0.30800
  0.6750   -0.29490
  0.6770   -0.28270
  0.6790   -0.27170
  0.6810   -0.26220
  0.6830   -0.25380
  0.6850   -0.24640
  0.6870   -0.24010
  0.6890   -0.23480
  0.6910   -0.23080
  0.6930   -0.22790
  0.6950   -0.22620
  0.6970   -0.22550
  0.6990   -0.22580
  0.7010   -0.22720
  0.7030   -0.22950
  0.7050   -0.23260
  0.7070   -0.23670
  0.7090   -0.24160
  0.7110   -0.24710
  0.7130   -0.25350
  0.7150   -0.26080
  0.7170   -0.26850
  0.7190   -0.27660
  0.7210   -0.28540
  0.7230   -0.29460
  0.7250   -0.30430
  0.7270   -0.31470
  0.7290   -0.32550
  0.7310   -0.33650
  0.7330   -0.34770
  0.7350   -0.35920
  0.7370   -0.37080
  0.7390   -0.38240
  0.7410   -0.39400
  0.7430   -0.40550
  0.7450   -0.41720
  0.7470   -0.42900
  0.7490   -0.44060
  0.7510   -0.45190
  0.7530   -0.46290
  0.7550   -0.47370
  0.7570   -0.48420
  0.7590   -0.49440
  0.7610   -0.50420
  0.7630   -0.51390
  0.7650   -0.52310
  0.7670   -0.53170
  0.7690   -0.53970
  0.7710   -0.54740
  0.7730   -0.55450
  0.7750   -0.56110
  0.7770   -0.56690
  0.7790   -0.57220
  0.7810   -0.57680
  0.7830   -0.58100
  0.7850   -0.58440
  0.7870   -0.58720
  0.7890   -0.58950
  0.7910   -0.59120
  0.7930   -0.59220
  0.7950   -0.59240
  0.7970   -0.59190
  0.7990   -0.59080
  0.8010   -0.58900
  0.8030   -0.58650
  0.8050   -0.58340
  0.8070   -0.57970
  0.8090   -0.57520
  0.8110   -0.57010
  0.8130   -0.56430
  0.8150   -0.55810
  0.8170   -0.55130
  0.8190   -0.54390
  0.8210   -0.53590
  0.8230   -0.52750
  0.8250   -0.51850
  0.8270   -0.50910
  0.8290   -0.49910
  0.8310   -0.48860
  0.8330   -0.47760
  0.8350   -0.46620
  0.8370   -0.45420
  0.8390   -0.44210
  0.8410   -0.42970
  0.8430   -0.41680
  0.8450   -0.40380
  0.8470   -0.39070
  0.8490   -0.37740
  0.8510   -0.36390
  0.8530   -0.35000
  0.8550   -0.33590
  0.8570   -0.32150
  0.8590   -0.30730
  0.8610   -0.29330
  0.8630   -0.27910
  0.8650   -0.26490
  0.8670   -0.25060
  0.8690   -0.23660
  0.8710   -0.22260
  0.8730   -0.20870
  0.8750   -0.19480
  0.8770   -0.18100
  0.8790   -0.16720
  0.8810   -0.15350
  0.8830   -0.14010
  0.8850   -0.12700
  0.8870   -0.11410
  0.8890   -0.10140
  0.8910   -0.08890
  0.8930   -0.07660
  0.8950   -0.06460
  0.8970   -0.05290
  0.8990   -0.04130
  0.9010   -0.03020
  0.9030   -0.01940
  0.9050   -0.00900
  0.9070    0.00090
  0.9090    0.01060
  0.9110    0.02000
  0.9130    0.02910
  0.9150    0.03780
  0.9170    0.04630
  0.9190    0.05440
  0.9210    0.06230
  0.9230    0.06980
  0.9250    0.07710
  0.9270    0.08390
  0.9290    0.09040
  0.9310    0.09640
  0.9330    0.10220
  0.9350    0.10780
  0.9370    0.11300
  0.9390    0.11780
  0.9410    0.12230
  0.9430    0.12650
  0.9450    0.13030
  0.9470    0.13380
  0.9490    0.13700
  0.9510    0.14020
  0.9530    0.14310
  0.9550    0.14560
  0.9570    0.14790
  0.9590    0.15000
  0.9610    0.15180
  0.9630    0.15330
  0.9650    0.15450
  0.9670    0.15560
  0.9690    0.15650
  0.9710    0.15700
  0.9730    0.15740
  0.9750    0.15780
  0.9770    0.15780
  0.9790    0.15770
  0.9810    0.15740
  0.9830    0.15690
  0.9850    0.15620
  0.9870    0.15550
  0.9890    0.15450
  0.9910    0.15330
  0.9930    0.15200
  0.9950    0.15050
  0.9970    0.14900
  0.9990    0.14740
  1.0010    0.14550
  1.0030    0.14360
  1.0050    0.14150
  1.0070    0.13940
  1.0090    0.13720
  1.0110    0.13490
  1.0130    0.13250
  1.0150    0.13010
  1.0170    0.12780
  1.0190    0.12540
  1.0210    0.12280
  1.0230    0.12020
  1.0250    0.11750
  1.0270    0.11490
  1.0290    0.11240
  1.0310    0.10970
  1.0330    0.10690
  1.0350    0.10420
  1.0370    0.10160
  1.0390    0.09890
  1.0410    0.09650
  1.0430    0.09400
  1.0450    0.09170
  1.0470    0.08940
  1.0490    0.08710
  1.0510    0.08490
  1.0530    0.08290
  1.0550    0.08100
  1.0570    0.07900
  1.0590    0.07720
  1.0610    0.07550
  1.0630    0.07390
  1.0650    0.07250
  1.0670    0.07120
  1.0690    0.06980
  1.0710    0.06860
  1.0730    0.06760
  1.0750    0.06670
  1.0770    0.06600
  1.0790    0.06530
  1.0810    0.06470
  1.0830    0.06420
  1.0850    0.06360
  1.0870    0.06320
  1.0890    0.06300
  1.0910    0.06290
  1.0930    0.06280
  1.0950    0.06280
  1.0970    0.06280
  1.0990    0.06280
  1.1010    0.06300
  1.1030    0.06320
  1.1050    0.06350
  1.1070    0.06390
  1.1090    0.06410
  1.1110    0.06440
  1.1130    0.06470
  1.1150    0.06510
  1.1170    0.06550
  1.1190    0.06590
  1.1210    0.06620
  1.1230    0.06640
  1.1250    0.06650
  1.1270    0.06670
  1.1290    0.06690
  1.1310    0.06700
  1.1330    0.06700
  1.1350    0.06700
  1.1370    0.06690
  1.1390    0.06660
  1.1410    0.06620
  1.1430    0.06590
  1.1450    0.06550
  1.1470    0.06510
  1.1490    0.06460
  1.1510    0.06400
  1.1530    0.06340
  1.1550    0.06290
  1.1570    0.06220
  1.1590    0.06140
  1.1610    0.06070
  1.1630    0.05970
  1.1650    0.05880
  1.1670    0.05810
  1.1690    0.05720
  1.1710    0.05630
  1.1730    0.05520
  1.1750    0.05410
  1.1770    0.05320
  1.1790    0.05220
  1.1810    0.05120
  1.1830    0.05030
  1.1850    0.04940
  1.1870    0.04860
  1.1890    0.04760
  1.1910    0.04680
  1.1930    0.04580
  1.1950    0.04470
  1.1970    0.04400
  1.1990    0.04330
  1.2010    0.04250
  1.2030    0.04170
  1.2050    0.04110
  1.2070    0.04040
  1.2090    0.03990
  1.2110    0.03950
  1.2130    0.03890
  1.2150    0.03850
  1.2170    0.03810
  1.2190    0.03760
  1.2210    0.03710
  1.2230    0.03680
  1.2250    0.03650
  1.2270    0.03620
  1.2290    0.03580
  1.2310    0.03530
  1.2330    0.03500
  1.2350    0.03450
  1.2370    0.03410
  1.2390    0.03370
  1.2410    0.03320
  1.2430    0.03270
  1.2450    0.03230
  1.2470    0.03170
  1.2490    0.03100
  1.2510    0.03040
  1.2530    0.02980
  1.2550    0.02910
  1.2570    0.02820
  1.2590    0.02740
  1.2610    0.02670
  1.2630    0.02570
  1.2650    0.02450
  1.2670    0.02320
  1.2690    0.02210
  1.2710    0.02090
  1.2730    0.01970
  1.2750    0.01850
  1.2770    0.01700
  1.2790    0.01560
  1.2810    0.01400
  1.2830    0.01240
  1.2850    0.01080
  1.2870    0.00940
  1.2890    0.00780
  1.2910    0.00610
  1.2930    0.00450
  1.2950    0.00290
  1.2970    0.00120
  1.2990   -0.00050
  1.3010   -0.00220
  1.3030   -0.00390
  1.3050   -0.00540
  1.3070   -0.00700
  1.3090   -0.00860
  1.3110   -0.01020
  1.3130   -0.01180
  1.3150   -0.01350
  1.3170   -0.01520
  1.3190   -0.01660
  1.3210   -0.01810
  1.3230   -0.01950
  1.3250   -0.02090
  1.3270   -0.02220
  1.3290   -0.02340
  1.3310   -0.02460
  1.3330   -0.02570
  1.3350   -0.02670
  1.3370   -0.02770
  1.3390   -0.02870
  1.3410   -0.02950
  1.3430   -0.03020
  1.3450   -0.03100
  1.3470   -0.03170
  1.3490   -0.03230
  1.3510   -0.03270
  1.3530   -0.03310
  1.3550   -0.03340
  1.3570   -0.03370
  1.3590   -0.03400
  1.3610   -0.03410
  1.3630   -0.03420
  1.3650   -0.03440
  1.3670   -0.03450
  1.3690   -0.03450
  1.3710   -0.03460
  1.3730   -0.03470
  1.3750   -0.03480
  1.3770   -0.03490
  1.3790   -0.03520
  1.3810   -0.03540
  1.3830   -0.03560
  1.3850   -0.03610
  1.3870   -0.03660
  1.3890   -0.03720
  1.3910   -0.03800
  1.3930   -0.03920
  1.3950   -0.04070
  1.3970   -0.04250
  1.3990   -0.04490
