# z (nm)   (kJ/mol)
  0.381000,  9.365600
  0.383000,  8.813400
  0.385000,  8.228700
  0.387000,  7.586300
  0.389000,  6.939600
  0.391000,  6.304900
  0.393000,  5.676500
  0.395000,  5.040000
  0.397000,  4.374200
  0.399000,  3.697100
  0.401000,  3.026700
  0.403000,  2.347100
  0.405000,  1.651300
  0.407000,  0.952600
  0.409000,  0.256100
  0.411000, -0.439200
  0.413000, -1.129700
  0.415000, -1.814700
  0.417000, -2.495400
  0.419000, -3.164900
  0.421000, -3.822400
  0.423000, -4.474900
  0.425000, -5.117500
  0.427000, -5.747000
  0.429000, -6.358900
  0.431000, -6.952200
  0.433000, -7.527700
  0.435000, -8.080800
  0.437000, -8.615600
  0.439000, -9.134700
  0.441000, -9.634000
  0.443000,-10.115200
  0.445000,-10.580400
  0.447000,-11.026700
  0.449000,-11.448700
  0.451000,-11.848900
  0.453000,-12.231200
  0.455000,-12.592900
  0.457000,-12.933000
  0.459000,-13.253700
  0.461000,-13.552600
  0.463000,-13.831900
  0.465000,-14.092700
  0.467000,-14.332800
  0.469000,-14.553800
  0.471000,-14.758600
  0.473000,-14.945200
  0.475000,-15.114000
  0.477000,-15.266200
  0.479000,-15.404200
  0.481000,-15.528300
  0.483000,-15.637200
  0.485000,-15.731500
  0.487000,-15.810300
  0.489000,-15.876800
  0.491000,-15.927700
  0.493000,-15.963200
  0.495000,-15.988600
  0.497000,-16.001800
  0.499000,-16.003700
  0.501000,-15.996300
  0.503000,-15.979600
  0.505000,-15.955400
  0.507000,-15.919700
  0.509000,-15.873400
  0.511000,-15.820800
  0.513000,-15.762000
  0.515000,-15.697500
  0.517000,-15.627000
  0.519000,-15.551700
  0.521000,-15.470800
  0.523000,-15.384000
  0.525000,-15.292800
  0.527000,-15.198200
  0.529000,-15.101200
  0.531000,-14.999900
  0.533000,-14.894000
  0.535000,-14.787200
  0.537000,-14.679500
  0.539000,-14.569800
  0.541000,-14.458400
  0.543000,-14.343800
  0.545000,-14.227600
  0.547000,-14.110800
  0.549000,-13.992400
  0.551000,-13.872700
  0.553000,-13.751300
  0.555000,-13.628800
  0.557000,-13.506300
  0.559000,-13.382000
  0.561000,-13.256400
  0.563000,-13.130800
  0.565000,-13.004200
  0.567000,-12.876100
  0.569000,-12.747100
  0.571000,-12.617600
  0.573000,-12.487200
  0.575000,-12.355600
  0.577000,-12.223600
  0.579000,-12.090700
  0.581000,-11.956100
  0.583000,-11.820200
  0.585000,-11.684200
  0.587000,-11.547700
  0.589000,-11.409500
  0.591000,-11.270700
  0.593000,-11.131700
  0.595000,-10.992000
  0.597000,-10.851700
  0.599000,-10.710400
  0.601000,-10.568900
  0.603000,-10.427200
  0.605000,-10.285100
  0.607000,-10.142700
  0.609000, -9.999700
  0.611000, -9.856500
  0.613000, -9.713500
  0.615000, -9.570600
  0.617000, -9.428000
  0.619000, -9.285200
  0.621000, -9.142800
  0.623000, -9.000900
  0.625000, -8.859500
  0.627000, -8.718700
  0.629000, -8.578400
  0.631000, -8.439200
  0.633000, -8.301200
  0.635000, -8.164000
  0.637000, -8.027700
  0.639000, -7.892900
  0.641000, -7.759200
  0.643000, -7.626700
  0.645000, -7.496000
  0.647000, -7.366900
  0.649000, -7.239400
  0.651000, -7.113700
  0.653000, -6.989500
  0.655000, -6.867400
  0.657000, -6.747500
  0.659000, -6.629500
  0.661000, -6.514100
  0.663000, -6.400800
  0.665000, -6.289200
  0.667000, -6.179300
  0.669000, -6.072200
  0.671000, -5.967500
  0.673000, -5.865100
  0.675000, -5.765000
  0.677000, -5.666700
  0.679000, -5.570800
  0.681000, -5.476900
  0.683000, -5.385400
  0.685000, -5.296800
  0.687000, -5.210300
  0.689000, -5.125200
  0.691000, -5.042000
  0.693000, -4.961400
  0.695000, -4.883200
  0.697000, -4.807400
  0.699000, -4.733300
  0.701000, -4.661000
  0.703000, -4.590600
  0.705000, -4.522200
  0.707000, -4.455900
  0.709000, -4.390500
  0.711000, -4.326400
  0.713000, -4.264000
  0.715000, -4.203300
  0.717000, -4.144300
  0.719000, -4.086500
  0.721000, -4.030100
  0.723000, -3.974600
  0.725000, -3.920200
  0.727000, -3.867700
  0.729000, -3.816600
  0.731000, -3.767000
  0.733000, -3.718000
  0.735000, -3.669800
  0.737000, -3.622800
  0.739000, -3.576700
  0.741000, -3.531300
  0.743000, -3.486800
  0.745000, -3.443100
  0.747000, -3.400400
  0.749000, -3.358200
  0.751000, -3.316700
  0.753000, -3.276300
  0.755000, -3.237500
  0.757000, -3.199600
  0.759000, -3.162000
  0.761000, -3.125000
  0.763000, -3.088500
  0.765000, -3.052700
  0.767000, -3.017800
  0.769000, -2.983700
  0.771000, -2.950100
  0.773000, -2.917000
  0.775000, -2.884500
  0.777000, -2.852700
  0.779000, -2.821700
  0.781000, -2.791200
  0.783000, -2.761400
  0.785000, -2.732600
  0.787000, -2.704200
  0.789000, -2.676500
  0.791000, -2.649700
  0.793000, -2.623300
  0.795000, -2.597400
  0.797000, -2.572200
  0.799000, -2.547700
  0.801000, -2.523900
  0.803000, -2.500900
  0.805000, -2.478800
  0.807000, -2.457100
  0.809000, -2.435800
  0.811000, -2.414900
  0.813000, -2.394100
  0.815000, -2.373900
  0.817000, -2.354200
  0.819000, -2.335000
  0.821000, -2.316300
  0.823000, -2.297700
  0.825000, -2.279600
  0.827000, -2.261700
  0.829000, -2.244000
  0.831000, -2.226700
  0.833000, -2.209700
  0.835000, -2.193100
  0.837000, -2.176700
  0.839000, -2.160400
  0.841000, -2.144300
  0.843000, -2.128100
  0.845000, -2.111900
  0.847000, -2.095800
  0.849000, -2.079800
  0.851000, -2.063800
  0.853000, -2.047900
  0.855000, -2.031800
  0.857000, -2.015700
  0.859000, -1.999600
  0.861000, -1.983300
  0.863000, -1.966800
  0.865000, -1.950300
  0.867000, -1.933800
  0.869000, -1.917100
  0.871000, -1.900200
  0.873000, -1.883100
  0.875000, -1.865600
  0.877000, -1.848000
  0.879000, -1.830200
  0.881000, -1.812200
  0.883000, -1.793900
  0.885000, -1.775500
  0.887000, -1.756900
  0.889000, -1.737900
  0.891000, -1.718800
  0.893000, -1.699600
  0.895000, -1.680000
  0.897000, -1.660400
  0.899000, -1.640500
  0.901000, -1.620400
  0.903000, -1.600200
  0.905000, -1.579500
  0.907000, -1.558900
  0.909000, -1.538100
  0.911000, -1.517300
  0.913000, -1.496400
  0.915000, -1.475300
  0.917000, -1.453900
  0.919000, -1.432700
  0.921000, -1.411800
  0.923000, -1.390700
  0.925000, -1.369400
  0.927000, -1.348100
  0.929000, -1.327100
  0.931000, -1.306000
  0.933000, -1.284700
  0.935000, -1.263300
  0.937000, -1.242100
  0.939000, -1.221100
  0.941000, -1.200300
  0.943000, -1.179700
  0.945000, -1.159200
  0.947000, -1.139100
  0.949000, -1.119400
  0.951000, -1.099600
  0.953000, -1.079900
  0.955000, -1.060400
  0.957000, -1.041200
  0.959000, -1.022100
  0.961000, -1.003300
  0.963000, -0.984900
  0.965000, -0.966500
  0.967000, -0.948300
  0.969000, -0.930300
  0.971000, -0.912600
  0.973000, -0.895300
  0.975000, -0.878300
  0.977000, -0.861700
  0.979000, -0.845200
  0.981000, -0.829100
  0.983000, -0.813100
  0.985000, -0.797300
  0.987000, -0.781800
  0.989000, -0.766600
  0.991000, -0.751600
  0.993000, -0.736700
  0.995000, -0.722200
  0.997000, -0.708200
  0.999000, -0.694500
  1.001000, -0.680900
  1.003000, -0.667400
  1.005000, -0.654200
  1.007000, -0.641200
  1.009000, -0.628600
  1.011000, -0.616200
  1.013000, -0.604000
  1.015000, -0.591900
  1.017000, -0.579800
  1.019000, -0.568100
  1.021000, -0.556700
  1.023000, -0.545400
  1.025000, -0.534400
  1.027000, -0.523400
  1.029000, -0.512600
  1.031000, -0.502200
  1.033000, -0.491600
  1.035000, -0.481200
  1.037000, -0.471200
  1.039000, -0.461400
  1.041000, -0.451800
  1.043000, -0.442200
  1.045000, -0.432700
  1.047000, -0.423300
  1.049000, -0.414100
  1.051000, -0.405000
  1.053000, -0.396000
  1.055000, -0.387100
  1.057000, -0.378300
  1.059000, -0.369700
  1.061000, -0.361300
  1.063000, -0.353000
  1.065000, -0.344700
  1.067000, -0.336700
  1.069000, -0.328800
  1.071000, -0.321000
  1.073000, -0.313300
  1.075000, -0.305800
  1.077000, -0.298500
  1.079000, -0.291400
  1.081000, -0.284600
  1.083000, -0.277800
  1.085000, -0.271300
  1.087000, -0.265000
  1.089000, -0.258800
  1.091000, -0.252900
  1.093000, -0.247200
  1.095000, -0.241700
  1.097000, -0.236300
  1.099000, -0.231100
  1.101000, -0.226200
  1.103000, -0.221600
  1.105000, -0.217000
  1.107000, -0.212700
  1.109000, -0.208600
  1.111000, -0.204700
  1.113000, -0.201000
  1.115000, -0.197600
  1.117000, -0.194500
  1.119000, -0.191600
  1.121000, -0.188800
  1.123000, -0.186300
  1.125000, -0.184000
  1.127000, -0.181900
  1.129000, -0.179900
  1.131000, -0.178200
  1.133000, -0.176600
  1.135000, -0.175300
  1.137000, -0.174300
  1.139000, -0.173500
  1.141000, -0.172800
  1.143000, -0.172000
  1.145000, -0.171600
  1.147000, -0.171400
  1.149000, -0.171100
  1.151000, -0.170900
  1.153000, -0.170900
  1.155000, -0.171100
  1.157000, -0.171400
  1.159000, -0.171700
  1.161000, -0.172100
  1.163000, -0.172500
  1.165000, -0.173100
  1.167000, -0.173700
  1.169000, -0.174200
  1.171000, -0.174800
  1.173000, -0.175400
  1.175000, -0.176100
  1.177000, -0.176700
  1.179000, -0.177200
  1.181000, -0.177600
  1.183000, -0.177900
  1.185000, -0.178300
  1.187000, -0.178700
  1.189000, -0.178800
  1.191000, -0.178700
  1.193000, -0.178500
  1.195000, -0.178200
  1.197000, -0.177800
  1.199000, -0.177200
  1.201000, -0.176500
  1.203000, -0.175600
  1.205000, -0.174700
  1.207000, -0.173500
  1.209000, -0.172100
  1.211000, -0.170700
  1.213000, -0.169200
  1.215000, -0.167500
  1.217000, -0.165500
  1.219000, -0.163500
  1.221000, -0.161200
  1.223000, -0.158700
  1.225000, -0.156100
  1.227000, -0.153300
  1.229000, -0.150400
  1.231000, -0.147300
  1.233000, -0.144100
  1.235000, -0.140600
  1.237000, -0.137100
  1.239000, -0.133500
  1.241000, -0.129600
  1.243000, -0.125800
  1.245000, -0.122000
  1.247000, -0.117900
  1.249000, -0.113700
  1.251000, -0.109400
  1.253000, -0.105300
  1.255000, -0.101000
  1.257000, -0.096600
  1.259000, -0.092100
  1.261000, -0.087600
  1.263000, -0.083100
  1.265000, -0.078500
  1.267000, -0.073800
  1.269000, -0.069200
  1.271000, -0.064500
  1.273000, -0.059900
  1.275000, -0.055200
  1.277000, -0.050500
  1.279000, -0.045800
  1.281000, -0.041100
  1.283000, -0.036500
  1.285000, -0.031900
  1.287000, -0.027200
  1.289000, -0.022800
  1.291000, -0.018200
  1.293000, -0.013700
  1.295000, -0.009200
  1.297000, -0.004800
  1.299000, -0.000400
  1.301000,  0.004000
  1.303000,  0.008500
  1.305000,  0.013000
  1.307000,  0.017400
  1.309000,  0.021700
  1.311000,  0.025900
  1.313000,  0.030200
  1.315000,  0.034600
  1.317000,  0.039000
  1.319000,  0.043200
  1.321000,  0.047500
  1.323000,  0.051700
  1.325000,  0.056000
  1.327000,  0.060300
  1.329000,  0.064400
  1.331000,  0.068500
  1.333000,  0.072800
  1.335000,  0.077200
  1.337000,  0.081600
  1.339000,  0.086200
  1.341000,  0.090500
  1.343000,  0.094700
  1.345000,  0.099100
  1.347000,  0.103400
  1.349000,  0.107700
  1.351000,  0.112100
  1.353000,  0.116400
  1.355000,  0.120700
  1.357000,  0.125000
  1.359000,  0.129400
  1.361000,  0.133600
  1.363000,  0.137700
  1.365000,  0.141800
  1.367000,  0.145900
  1.369000,  0.149800
  1.371000,  0.153800
  1.373000,  0.157700
  1.375000,  0.161500
  1.377000,  0.165100
  1.379000,  0.168600
  1.381000,  0.172200
  1.383000,  0.175500
  1.385000,  0.178700
  1.387000,  0.181700
  1.389000,  0.184400
  1.391000,  0.186900
  1.393000,  0.189100
  1.395000,  0.191000
  1.397000,  0.192500
  1.399000,  0.193400
