# z (nm)   (kJ/mol)
  0.301000,  9.658500
  0.303000,  9.192600
  0.305000,  8.735800
  0.307000,  8.216200
  0.309000,  7.692000
  0.311000,  7.149800
  0.313000,  6.605300
  0.315000,  6.068900
  0.317000,  5.533400
  0.319000,  5.001000
  0.321000,  4.471300
  0.323000,  3.942700
  0.325000,  3.415700
  0.327000,  2.897700
  0.329000,  2.382100
  0.331000,  1.871100
  0.333000,  1.369800
  0.335000,  0.876600
  0.337000,  0.395700
  0.339000, -0.071200
  0.341000, -0.530700
  0.343000, -0.984500
  0.345000, -1.428100
  0.347000, -1.857500
  0.349000, -2.274300
  0.351000, -2.678800
  0.353000, -3.071800
  0.355000, -3.453600
  0.357000, -3.817400
  0.359000, -4.167600
  0.361000, -4.505500
  0.363000, -4.828500
  0.365000, -5.138600
  0.367000, -5.435300
  0.369000, -5.719700
  0.371000, -5.991600
  0.373000, -6.248900
  0.375000, -6.492800
  0.377000, -6.722400
  0.379000, -6.938100
  0.381000, -7.141100
  0.383000, -7.331100
  0.385000, -7.509600
  0.387000, -7.675600
  0.389000, -7.828000
  0.391000, -7.969400
  0.393000, -8.101200
  0.395000, -8.221300
  0.397000, -8.328900
  0.399000, -8.426000
  0.401000, -8.511800
  0.403000, -8.587200
  0.405000, -8.652900
  0.407000, -8.708400
  0.409000, -8.756200
  0.411000, -8.795000
  0.413000, -8.824300
  0.415000, -8.845800
  0.417000, -8.859200
  0.419000, -8.865200
  0.421000, -8.865200
  0.423000, -8.859400
  0.425000, -8.846400
  0.427000, -8.827000
  0.429000, -8.803500
  0.431000, -8.775400
  0.433000, -8.742400
  0.435000, -8.705700
  0.437000, -8.666100
  0.439000, -8.622200
  0.441000, -8.574000
  0.443000, -8.523700
  0.445000, -8.471800
  0.447000, -8.417400
  0.449000, -8.360200
  0.451000, -8.301700
  0.453000, -8.242500
  0.455000, -8.181300
  0.457000, -8.118200
  0.459000, -8.054600
  0.461000, -7.989800
  0.463000, -7.923900
  0.465000, -7.857000
  0.467000, -7.789900
  0.469000, -7.722900
  0.471000, -7.655600
  0.473000, -7.587400
  0.475000, -7.518800
  0.477000, -7.450100
  0.479000, -7.381100
  0.481000, -7.311300
  0.483000, -7.241100
  0.485000, -7.170900
  0.487000, -7.100500
  0.489000, -7.029700
  0.491000, -6.958600
  0.493000, -6.886800
  0.495000, -6.814600
  0.497000, -6.742400
  0.499000, -6.669800
  0.501000, -6.596700
  0.503000, -6.523300
  0.505000, -6.449600
  0.507000, -6.375600
  0.509000, -6.301400
  0.511000, -6.226900
  0.513000, -6.152200
  0.515000, -6.077300
  0.517000, -6.002200
  0.519000, -5.926900
  0.521000, -5.851100
  0.523000, -5.774900
  0.525000, -5.698900
  0.527000, -5.622500
  0.529000, -5.545700
  0.531000, -5.469400
  0.533000, -5.393100
  0.535000, -5.316900
  0.537000, -5.240700
  0.539000, -5.164000
  0.541000, -5.087200
  0.543000, -5.010800
  0.545000, -4.934800
  0.547000, -4.859000
  0.549000, -4.783500
  0.551000, -4.708000
  0.553000, -4.632800
  0.555000, -4.558100
  0.557000, -4.483600
  0.559000, -4.409000
  0.561000, -4.335000
  0.563000, -4.261500
  0.565000, -4.188500
  0.567000, -4.115900
  0.569000, -4.043700
  0.571000, -3.972000
  0.573000, -3.900900
  0.575000, -3.829900
  0.577000, -3.759300
  0.579000, -3.689100
  0.581000, -3.619400
  0.583000, -3.550500
  0.585000, -3.482000
  0.587000, -3.413800
  0.589000, -3.346200
  0.591000, -3.279400
  0.593000, -3.213100
  0.595000, -3.147100
  0.597000, -3.081800
  0.599000, -3.016900
  0.601000, -2.952500
  0.603000, -2.889000
  0.605000, -2.826000
  0.607000, -2.763400
  0.609000, -2.701400
  0.611000, -2.639900
  0.613000, -2.579100
  0.615000, -2.519100
  0.617000, -2.459200
  0.619000, -2.400000
  0.621000, -2.342000
  0.623000, -2.284800
  0.625000, -2.228100
  0.627000, -2.172100
  0.629000, -2.117000
  0.631000, -2.062700
  0.633000, -2.008900
  0.635000, -1.956100
  0.637000, -1.904400
  0.639000, -1.853500
  0.641000, -1.803700
  0.643000, -1.755100
  0.645000, -1.707400
  0.647000, -1.660800
  0.649000, -1.615200
  0.651000, -1.570600
  0.653000, -1.526600
  0.655000, -1.483800
  0.657000, -1.442100
  0.659000, -1.401500
  0.661000, -1.362100
  0.663000, -1.324300
  0.665000, -1.287700
  0.667000, -1.251900
  0.669000, -1.217600
  0.671000, -1.184800
  0.673000, -1.153500
  0.675000, -1.123300
  0.677000, -1.094200
  0.679000, -1.066500
  0.681000, -1.039800
  0.683000, -1.014800
  0.685000, -0.991200
  0.687000, -0.969200
  0.689000, -0.948800
  0.691000, -0.929500
  0.693000, -0.911400
  0.695000, -0.894900
  0.697000, -0.879400
  0.699000, -0.865100
  0.701000, -0.852300
  0.703000, -0.840900
  0.705000, -0.830700
  0.707000, -0.821600
  0.709000, -0.813700
  0.711000, -0.806900
  0.713000, -0.801200
  0.715000, -0.796600
  0.717000, -0.793100
  0.719000, -0.790500
  0.721000, -0.788900
  0.723000, -0.788300
  0.725000, -0.788500
  0.727000, -0.789500
  0.729000, -0.791100
  0.731000, -0.793400
  0.733000, -0.796500
  0.735000, -0.800200
  0.737000, -0.804500
  0.739000, -0.809200
  0.741000, -0.814400
  0.743000, -0.819900
  0.745000, -0.825800
  0.747000, -0.832000
  0.749000, -0.838600
  0.751000, -0.845200
  0.753000, -0.851700
  0.755000, -0.858400
  0.757000, -0.865100
  0.759000, -0.871900
  0.761000, -0.878600
  0.763000, -0.885300
  0.765000, -0.891800
  0.767000, -0.898000
  0.769000, -0.904100
  0.771000, -0.910000
  0.773000, -0.915600
  0.775000, -0.920700
  0.777000, -0.925500
  0.779000, -0.930300
  0.781000, -0.934700
  0.783000, -0.938800
  0.785000, -0.942600
  0.787000, -0.945900
  0.789000, -0.948700
  0.791000, -0.951200
  0.793000, -0.953400
  0.795000, -0.955000
  0.797000, -0.956100
  0.799000, -0.956900
  0.801000, -0.957200
  0.803000, -0.957000
  0.805000, -0.956400
  0.807000, -0.955400
  0.809000, -0.953900
  0.811000, -0.952000
  0.813000, -0.949700
  0.815000, -0.947000
  0.817000, -0.943800
  0.819000, -0.940300
  0.821000, -0.936200
  0.823000, -0.931800
  0.825000, -0.926900
  0.827000, -0.921600
  0.829000, -0.915900
  0.831000, -0.909700
  0.833000, -0.903100
  0.835000, -0.896200
  0.837000, -0.888700
  0.839000, -0.880900
  0.841000, -0.872900
  0.843000, -0.864400
  0.845000, -0.855600
  0.847000, -0.846400
  0.849000, -0.836800
  0.851000, -0.826700
  0.853000, -0.816200
  0.855000, -0.805500
  0.857000, -0.794500
  0.859000, -0.783000
  0.861000, -0.771100
  0.863000, -0.758900
  0.865000, -0.746400
  0.867000, -0.733700
  0.869000, -0.720700
  0.871000, -0.707300
  0.873000, -0.693700
  0.875000, -0.679900
  0.877000, -0.665800
  0.879000, -0.651600
  0.881000, -0.637100
  0.883000, -0.622200
  0.885000, -0.607300
  0.887000, -0.592400
  0.889000, -0.577500
  0.891000, -0.562400
  0.893000, -0.547100
  0.895000, -0.531800
  0.897000, -0.516400
  0.899000, -0.501000
  0.901000, -0.485700
  0.903000, -0.470200
  0.905000, -0.454800
  0.907000, -0.439600
  0.909000, -0.424500
  0.911000, -0.409400
  0.913000, -0.394400
  0.915000, -0.379700
  0.917000, -0.365000
  0.919000, -0.350600
  0.921000, -0.336400
  0.923000, -0.322400
  0.925000, -0.308500
  0.927000, -0.294700
  0.929000, -0.281300
  0.931000, -0.268400
  0.933000, -0.255700
  0.935000, -0.243400
  0.937000, -0.231200
  0.939000, -0.219300
  0.941000, -0.207900
  0.943000, -0.196700
  0.945000, -0.185900
  0.947000, -0.175500
  0.949000, -0.165400
  0.951000, -0.155600
  0.953000, -0.146200
  0.955000, -0.137200
  0.957000, -0.128600
  0.959000, -0.120500
  0.961000, -0.112700
  0.963000, -0.105300
  0.965000, -0.098200
  0.967000, -0.091600
  0.969000, -0.085300
  0.971000, -0.079400
  0.973000, -0.073900
  0.975000, -0.068700
  0.977000, -0.063800
  0.979000, -0.059400
  0.981000, -0.055400
  0.983000, -0.051700
  0.985000, -0.048200
  0.987000, -0.045000
  0.989000, -0.042200
  0.991000, -0.039900
  0.993000, -0.037800
  0.995000, -0.035900
  0.997000, -0.034400
  0.999000, -0.033000
  1.001000, -0.031900
  1.003000, -0.031000
  1.005000, -0.030400
  1.007000, -0.030100
  1.009000, -0.029900
  1.011000, -0.030100
  1.013000, -0.030400
  1.015000, -0.030800
  1.017000, -0.031400
  1.019000, -0.032200
  1.021000, -0.033200
  1.023000, -0.034300
  1.025000, -0.035600
  1.027000, -0.037000
  1.029000, -0.038500
  1.031000, -0.040100
  1.033000, -0.041800
  1.035000, -0.043500
  1.037000, -0.045300
  1.039000, -0.047200
  1.041000, -0.049000
  1.043000, -0.050800
  1.045000, -0.052600
  1.047000, -0.054400
  1.049000, -0.056100
  1.051000, -0.058000
  1.053000, -0.059800
  1.055000, -0.061600
  1.057000, -0.063500
  1.059000, -0.065100
  1.061000, -0.066800
  1.063000, -0.068400
  1.065000, -0.069900
  1.067000, -0.071300
  1.069000, -0.072700
  1.071000, -0.074100
  1.073000, -0.075400
  1.075000, -0.076600
  1.077000, -0.077700
  1.079000, -0.078900
  1.081000, -0.080000
  1.083000, -0.081000
  1.085000, -0.081900
  1.087000, -0.083000
  1.089000, -0.084100
  1.091000, -0.085100
  1.093000, -0.086000
  1.095000, -0.087000
  1.097000, -0.087800
  1.099000, -0.088600
  1.101000, -0.089400
  1.103000, -0.090100
  1.105000, -0.090900
  1.107000, -0.091600
  1.109000, -0.092400
  1.111000, -0.093000
  1.113000, -0.093700
  1.115000, -0.094500
  1.117000, -0.095300
  1.119000, -0.096000
  1.121000, -0.096700
  1.123000, -0.097400
  1.125000, -0.098000
  1.127000, -0.098700
  1.129000, -0.099400
  1.131000, -0.100100
  1.133000, -0.100800
  1.135000, -0.101500
  1.137000, -0.102200
  1.139000, -0.102700
  1.141000, -0.103100
  1.143000, -0.103500
  1.145000, -0.103800
  1.147000, -0.104100
  1.149000, -0.104300
  1.151000, -0.104400
  1.153000, -0.104400
  1.155000, -0.104400
  1.157000, -0.104200
  1.159000, -0.103900
  1.161000, -0.103700
  1.163000, -0.103200
  1.165000, -0.102600
  1.167000, -0.101800
  1.169000, -0.100900
  1.171000, -0.099800
  1.173000, -0.098700
  1.175000, -0.097500
  1.177000, -0.096200
  1.179000, -0.094900
  1.181000, -0.093400
  1.183000, -0.091800
  1.185000, -0.090200
  1.187000, -0.088200
  1.189000, -0.086100
  1.191000, -0.084100
  1.193000, -0.082000
  1.195000, -0.079600
  1.197000, -0.077200
  1.199000, -0.074700
  1.201000, -0.072200
  1.203000, -0.069700
  1.205000, -0.067300
  1.207000, -0.064900
  1.209000, -0.062300
  1.211000, -0.059700
  1.213000, -0.057100
  1.215000, -0.054500
  1.217000, -0.051900
  1.219000, -0.049300
  1.221000, -0.046800
  1.223000, -0.044300
  1.225000, -0.041700
  1.227000, -0.039300
  1.229000, -0.036800
  1.231000, -0.034300
  1.233000, -0.032100
  1.235000, -0.029900
  1.237000, -0.027800
  1.239000, -0.025900
  1.241000, -0.023900
  1.243000, -0.022100
  1.245000, -0.020300
  1.247000, -0.018600
  1.249000, -0.017000
  1.251000, -0.015500
  1.253000, -0.014100
  1.255000, -0.012800
  1.257000, -0.011600
  1.259000, -0.010500
  1.261000, -0.009600
  1.263000, -0.008700
  1.265000, -0.007900
  1.267000, -0.007300
  1.269000, -0.006700
  1.271000, -0.006200
  1.273000, -0.005700
  1.275000, -0.005300
  1.277000, -0.004700
  1.279000, -0.004300
  1.281000, -0.004100
  1.283000, -0.003900
  1.285000, -0.003700
  1.287000, -0.003600
  1.289000, -0.003300
  1.291000, -0.003100
  1.293000, -0.003000
  1.295000, -0.002800
  1.297000, -0.002800
  1.299000, -0.002700
  1.301000, -0.002500
  1.303000, -0.002300
  1.305000, -0.002100
  1.307000, -0.002000
  1.309000, -0.001800
  1.311000, -0.001500
  1.313000, -0.001200
  1.315000, -0.001000
  1.317000, -0.000800
  1.319000, -0.000500
  1.321000, -0.000100
  1.323000,  0.000400
  1.325000,  0.001000
  1.327000,  0.001700
  1.329000,  0.002400
  1.331000,  0.003300
  1.333000,  0.004200
  1.335000,  0.005200
  1.337000,  0.006300
  1.339000,  0.007500
  1.341000,  0.008900
  1.343000,  0.010400
  1.345000,  0.012100
  1.347000,  0.013700
  1.349000,  0.015500
  1.351000,  0.017400
  1.353000,  0.019500
  1.355000,  0.021500
  1.357000,  0.023700
  1.359000,  0.026100
  1.361000,  0.028500
  1.363000,  0.031200
  1.365000,  0.034000
  1.367000,  0.036900
  1.369000,  0.039700
  1.371000,  0.042500
  1.373000,  0.045400
  1.375000,  0.048500
  1.377000,  0.051800
  1.379000,  0.055000
  1.381000,  0.058000
  1.383000,  0.061100
  1.385000,  0.064200
  1.387000,  0.067600
  1.389000,  0.070800
  1.391000,  0.073800
  1.393000,  0.076300
  1.395000,  0.078700
  1.397000,  0.080700
  1.399000,  0.082200
