# z (nm)   (kJ/mol)
  0.303000, 12.171500
  0.307000, 11.260400
  0.309000, 10.808400
  0.311000, 10.356800
  0.313000,  9.861700
  0.315000,  9.391500
  0.317000,  8.933500
  0.319000,  8.436000
  0.321000,  7.943200
  0.323000,  7.448700
  0.325000,  6.945100
  0.327000,  6.442300
  0.329000,  5.937600
  0.331000,  5.438500
  0.333000,  4.950100
  0.335000,  4.469200
  0.337000,  3.979100
  0.339000,  3.489000
  0.341000,  2.998100
  0.343000,  2.516000
  0.345000,  2.044200
  0.347000,  1.577800
  0.349000,  1.112900
  0.351000,  0.651800
  0.353000,  0.201800
  0.355000, -0.245300
  0.357000, -0.686200
  0.359000, -1.113900
  0.361000, -1.528100
  0.363000, -1.936000
  0.365000, -2.333300
  0.367000, -2.716500
  0.369000, -3.090200
  0.371000, -3.454300
  0.373000, -3.805900
  0.375000, -4.143400
  0.377000, -4.470000
  0.379000, -4.782200
  0.381000, -5.078400
  0.383000, -5.361600
  0.385000, -5.631300
  0.387000, -5.887100
  0.389000, -6.130600
  0.391000, -6.362500
  0.393000, -6.580900
  0.395000, -6.786000
  0.397000, -6.978700
  0.399000, -7.158300
  0.401000, -7.325100
  0.403000, -7.479800
  0.405000, -7.622300
  0.407000, -7.753900
  0.409000, -7.874800
  0.411000, -7.983300
  0.413000, -8.080700
  0.415000, -8.167900
  0.417000, -8.245300
  0.419000, -8.312900
  0.421000, -8.369800
  0.423000, -8.418700
  0.425000, -8.460300
  0.427000, -8.491000
  0.429000, -8.512900
  0.431000, -8.528800
  0.433000, -8.536700
  0.435000, -8.538300
  0.437000, -8.533500
  0.439000, -8.520900
  0.441000, -8.502500
  0.443000, -8.478600
  0.445000, -8.450400
  0.447000, -8.417600
  0.449000, -8.377900
  0.451000, -8.332900
  0.453000, -8.284100
  0.455000, -8.231400
  0.457000, -8.175000
  0.459000, -8.116000
  0.461000, -8.054700
  0.463000, -7.990500
  0.465000, -7.923300
  0.467000, -7.852900
  0.469000, -7.780700
  0.471000, -7.706100
  0.473000, -7.629800
  0.475000, -7.552500
  0.477000, -7.473900
  0.479000, -7.395000
  0.481000, -7.314900
  0.483000, -7.233700
  0.485000, -7.151400
  0.487000, -7.068200
  0.489000, -6.984400
  0.491000, -6.899500
  0.493000, -6.814600
  0.495000, -6.729200
  0.497000, -6.643400
  0.499000, -6.557000
  0.501000, -6.470200
  0.503000, -6.383200
  0.505000, -6.295900
  0.507000, -6.208700
  0.509000, -6.121100
  0.511000, -6.033200
  0.513000, -5.945100
  0.515000, -5.856600
  0.517000, -5.768100
  0.519000, -5.679600
  0.521000, -5.590700
  0.523000, -5.501700
  0.525000, -5.413000
  0.527000, -5.324400
  0.529000, -5.235400
  0.531000, -5.146400
  0.533000, -5.057500
  0.535000, -4.968800
  0.537000, -4.880100
  0.539000, -4.791500
  0.541000, -4.703100
  0.543000, -4.615100
  0.545000, -4.527500
  0.547000, -4.440200
  0.549000, -4.353200
  0.551000, -4.266600
  0.553000, -4.180300
  0.555000, -4.094600
  0.557000, -4.009400
  0.559000, -3.924500
  0.561000, -3.840000
  0.563000, -3.756200
  0.565000, -3.673100
  0.567000, -3.590300
  0.569000, -3.508000
  0.571000, -3.426400
  0.573000, -3.345700
  0.575000, -3.265800
  0.577000, -3.186600
  0.579000, -3.108000
  0.581000, -3.030300
  0.583000, -2.953500
  0.585000, -2.877400
  0.587000, -2.802000
  0.589000, -2.727700
  0.591000, -2.654500
  0.593000, -2.582100
  0.595000, -2.510900
  0.597000, -2.440700
  0.599000, -2.371400
  0.601000, -2.302900
  0.603000, -2.235400
  0.605000, -2.169000
  0.607000, -2.103800
  0.609000, -2.039600
  0.611000, -1.976600
  0.613000, -1.914500
  0.615000, -1.853300
  0.617000, -1.793500
  0.619000, -1.735000
  0.621000, -1.677800
  0.623000, -1.621800
  0.625000, -1.566800
  0.627000, -1.513100
  0.629000, -1.460700
  0.631000, -1.409600
  0.633000, -1.360000
  0.635000, -1.312000
  0.637000, -1.264800
  0.639000, -1.218900
  0.641000, -1.174400
  0.643000, -1.131000
  0.645000, -1.089000
  0.647000, -1.048500
  0.649000, -1.009300
  0.651000, -0.971400
  0.653000, -0.935200
  0.655000, -0.900400
  0.657000, -0.867200
  0.659000, -0.835600
  0.661000, -0.805100
  0.663000, -0.776000
  0.665000, -0.748500
  0.667000, -0.722800
  0.669000, -0.698500
  0.671000, -0.675600
  0.673000, -0.654400
  0.675000, -0.635000
  0.677000, -0.616800
  0.679000, -0.600200
  0.681000, -0.585200
  0.683000, -0.571700
  0.685000, -0.559400
  0.687000, -0.548500
  0.689000, -0.539300
  0.691000, -0.531900
  0.693000, -0.525700
  0.695000, -0.521000
  0.697000, -0.517800
  0.699000, -0.515400
  0.701000, -0.514200
  0.703000, -0.515600
  0.705000, -0.518300
  0.707000, -0.521500
  0.709000, -0.525700
  0.711000, -0.531000
  0.713000, -0.537800
  0.715000, -0.545900
  0.717000, -0.555000
  0.719000, -0.564500
  0.721000, -0.574900
  0.723000, -0.586200
  0.725000, -0.598200
  0.727000, -0.611000
  0.729000, -0.624000
  0.731000, -0.637400
  0.733000, -0.651800
  0.735000, -0.666900
  0.737000, -0.682400
  0.739000, -0.698300
  0.741000, -0.714600
  0.743000, -0.731100
  0.745000, -0.747700
  0.747000, -0.764200
  0.749000, -0.781200
  0.751000, -0.798100
  0.753000, -0.814800
  0.755000, -0.831300
  0.757000, -0.847800
  0.759000, -0.864100
  0.761000, -0.880000
  0.763000, -0.895600
  0.765000, -0.910900
  0.767000, -0.925900
  0.769000, -0.940400
  0.771000, -0.954300
  0.773000, -0.967500
  0.775000, -0.980200
  0.777000, -0.992200
  0.779000, -1.003700
  0.781000, -1.014700
  0.783000, -1.024800
  0.785000, -1.034100
  0.787000, -1.042800
  0.789000, -1.050800
  0.791000, -1.057900
  0.793000, -1.064200
  0.795000, -1.069700
  0.797000, -1.074400
  0.799000, -1.078100
  0.801000, -1.081200
  0.803000, -1.083500
  0.805000, -1.085100
  0.807000, -1.085700
  0.809000, -1.085600
  0.811000, -1.084800
  0.813000, -1.083000
  0.815000, -1.080300
  0.817000, -1.077000
  0.819000, -1.073100
  0.821000, -1.068300
  0.823000, -1.062800
  0.825000, -1.056600
  0.827000, -1.049700
  0.829000, -1.042200
  0.831000, -1.034200
  0.833000, -1.025500
  0.835000, -1.016300
  0.837000, -1.006500
  0.839000, -0.995900
  0.841000, -0.984900
  0.843000, -0.973400
  0.845000, -0.961400
  0.847000, -0.949100
  0.849000, -0.936500
  0.851000, -0.923500
  0.853000, -0.910200
  0.855000, -0.896700
  0.857000, -0.882700
  0.859000, -0.868400
  0.861000, -0.853600
  0.863000, -0.838500
  0.865000, -0.823200
  0.867000, -0.807800
  0.869000, -0.792100
  0.871000, -0.776300
  0.873000, -0.760300
  0.875000, -0.744300
  0.877000, -0.728100
  0.879000, -0.711900
  0.881000, -0.695600
  0.883000, -0.679200
  0.885000, -0.662700
  0.887000, -0.646200
  0.889000, -0.629600
  0.891000, -0.613200
  0.893000, -0.596700
  0.895000, -0.580300
  0.897000, -0.563800
  0.899000, -0.547300
  0.901000, -0.531100
  0.903000, -0.514900
  0.905000, -0.498800
  0.907000, -0.482800
  0.909000, -0.467100
  0.911000, -0.451500
  0.913000, -0.436000
  0.915000, -0.420700
  0.917000, -0.405500
  0.919000, -0.390800
  0.921000, -0.376100
  0.923000, -0.361600
  0.925000, -0.347400
  0.927000, -0.333400
  0.929000, -0.319700
  0.931000, -0.306300
  0.933000, -0.293200
  0.935000, -0.280500
  0.937000, -0.268100
  0.939000, -0.256200
  0.941000, -0.244700
  0.943000, -0.233300
  0.945000, -0.222400
  0.947000, -0.211700
  0.949000, -0.201500
  0.951000, -0.191900
  0.953000, -0.182600
  0.955000, -0.173600
  0.957000, -0.165200
  0.959000, -0.157200
  0.961000, -0.149600
  0.963000, -0.142300
  0.965000, -0.135500
  0.967000, -0.129200
  0.969000, -0.123400
  0.971000, -0.118000
  0.973000, -0.113000
  0.975000, -0.108400
  0.977000, -0.104400
  0.979000, -0.100900
  0.981000, -0.097900
  0.983000, -0.095000
  0.985000, -0.092600
  0.987000, -0.090800
  0.989000, -0.089300
  0.991000, -0.088200
  0.993000, -0.087600
  0.995000, -0.087300
  0.997000, -0.087400
  0.999000, -0.087800
  1.001000, -0.088600
  1.003000, -0.089600
  1.005000, -0.090900
  1.007000, -0.092500
  1.009000, -0.094400
  1.011000, -0.096500
  1.013000, -0.099000
  1.015000, -0.101700
  1.017000, -0.104500
  1.019000, -0.107500
  1.021000, -0.110800
  1.023000, -0.114100
  1.025000, -0.117600
  1.027000, -0.121200
  1.029000, -0.125000
  1.031000, -0.128800
  1.033000, -0.132700
  1.035000, -0.136800
  1.037000, -0.140900
  1.039000, -0.144900
  1.041000, -0.148900
  1.043000, -0.153000
  1.045000, -0.157000
  1.047000, -0.161000
  1.049000, -0.164800
  1.051000, -0.168400
  1.053000, -0.172000
  1.055000, -0.175700
  1.057000, -0.179100
  1.059000, -0.182300
  1.061000, -0.185500
  1.063000, -0.188500
  1.065000, -0.191300
  1.067000, -0.193900
  1.069000, -0.196100
  1.071000, -0.198100
  1.073000, -0.199900
  1.075000, -0.201500
  1.077000, -0.202900
  1.079000, -0.204100
  1.081000, -0.204900
  1.083000, -0.205400
  1.085000, -0.205700
  1.087000, -0.205800
  1.089000, -0.205600
  1.091000, -0.205200
  1.093000, -0.204400
  1.095000, -0.203600
  1.097000, -0.202500
  1.099000, -0.201200
  1.101000, -0.199600
  1.103000, -0.197800
  1.105000, -0.195800
  1.107000, -0.193700
  1.109000, -0.191400
  1.111000, -0.188700
  1.113000, -0.185900
  1.115000, -0.183100
  1.117000, -0.180200
  1.119000, -0.177000
  1.121000, -0.173700
  1.123000, -0.170400
  1.125000, -0.167100
  1.127000, -0.164000
  1.129000, -0.160700
  1.131000, -0.157400
  1.133000, -0.154000
  1.135000, -0.150600
  1.137000, -0.147200
  1.139000, -0.143800
  1.141000, -0.140400
  1.143000, -0.137000
  1.145000, -0.133700
  1.147000, -0.130400
  1.149000, -0.127200
  1.151000, -0.124000
  1.153000, -0.121100
  1.155000, -0.118300
  1.157000, -0.115300
  1.159000, -0.112400
  1.161000, -0.109700
  1.163000, -0.107000
  1.165000, -0.104200
  1.167000, -0.101600
  1.169000, -0.099100
  1.171000, -0.096800
  1.173000, -0.094400
  1.175000, -0.091900
  1.177000, -0.089400
  1.179000, -0.087100
  1.181000, -0.085000
  1.183000, -0.082800
  1.185000, -0.080700
  1.187000, -0.078700
  1.189000, -0.076800
  1.191000, -0.075000
  1.193000, -0.073200
  1.195000, -0.071500
  1.197000, -0.069700
  1.199000, -0.068000
  1.201000, -0.066300
  1.203000, -0.064400
  1.205000, -0.062500
  1.207000, -0.060700
  1.209000, -0.059000
  1.211000, -0.057400
  1.213000, -0.055600
  1.215000, -0.053900
  1.217000, -0.052200
  1.219000, -0.050700
  1.221000, -0.049100
  1.223000, -0.047400
  1.225000, -0.045700
  1.227000, -0.044000
  1.229000, -0.042400
  1.231000, -0.040900
  1.233000, -0.039400
  1.235000, -0.037800
  1.237000, -0.036400
  1.239000, -0.034900
  1.241000, -0.033600
  1.243000, -0.032300
  1.245000, -0.031000
  1.247000, -0.029900
  1.249000, -0.028800
  1.251000, -0.027800
  1.253000, -0.026900
  1.255000, -0.026100
  1.257000, -0.025200
  1.259000, -0.024500
  1.261000, -0.023800
  1.263000, -0.023100
  1.265000, -0.022500
  1.267000, -0.021900
  1.269000, -0.021400
  1.271000, -0.021100
  1.273000, -0.020600
  1.275000, -0.020000
  1.277000, -0.019700
  1.279000, -0.019300
  1.281000, -0.019000
  1.283000, -0.018700
  1.285000, -0.018500
  1.287000, -0.018300
  1.289000, -0.018000
  1.291000, -0.017700
  1.293000, -0.017300
  1.295000, -0.016800
  1.297000, -0.016400
  1.299000, -0.015900
  1.301000, -0.015300
  1.303000, -0.014800
  1.305000, -0.014100
  1.307000, -0.013200
  1.309000, -0.012300
  1.311000, -0.011200
  1.313000, -0.010100
  1.315000, -0.009100
  1.317000, -0.007900
  1.319000, -0.006500
  1.321000, -0.004900
  1.323000, -0.003200
  1.325000, -0.001600
  1.327000,  0.000100
  1.329000,  0.002200
  1.331000,  0.004300
  1.333000,  0.006500
  1.335000,  0.008800
  1.337000,  0.011400
  1.339000,  0.013900
  1.341000,  0.016700
  1.343000,  0.019500
  1.345000,  0.022400
  1.347000,  0.025400
  1.349000,  0.028400
  1.351000,  0.031500
  1.353000,  0.034800
  1.355000,  0.038000
  1.357000,  0.041400
  1.359000,  0.044700
  1.361000,  0.048200
  1.363000,  0.051700
  1.365000,  0.055300
  1.367000,  0.058700
  1.369000,  0.062100
  1.371000,  0.065500
  1.373000,  0.068700
  1.375000,  0.071800
  1.377000,  0.074800
  1.379000,  0.077900
  1.381000,  0.080700
  1.383000,  0.083100
  1.385000,  0.085600
  1.387000,  0.088000
  1.389000,  0.090200
  1.391000,  0.091900
  1.393000,  0.093600
  1.395000,  0.094600
  1.397000,  0.095000
  1.399000,  0.094800
