# z (nm)   (kJ/mol)
  0.3030   12.17150
  0.3070   11.26040
  0.3090   10.80840
  0.3110   10.35680
  0.3130    9.86170
  0.3150    9.39150
  0.3170    8.93350
  0.3190    8.43600
  0.3210    7.94320
  0.3230    7.44870
  0.3250    6.94510
  0.3270    6.44230
  0.3290    5.93760
  0.3310    5.43850
  0.3330    4.95010
  0.3350    4.46920
  0.3370    3.97910
  0.3390    3.48900
  0.3410    2.99810
  0.3430    2.51600
  0.3450    2.04420
  0.3470    1.57780
  0.3490    1.11290
  0.3510    0.65180
  0.3530    0.20180
  0.3550   -0.24530
  0.3570   -0.68620
  0.3590   -1.11390
  0.3610   -1.52810
  0.3630   -1.93600
  0.3650   -2.33330
  0.3670   -2.71650
  0.3690   -3.09020
  0.3710   -3.45430
  0.3730   -3.80590
  0.3750   -4.14340
  0.3770   -4.47000
  0.3790   -4.78220
  0.3810   -5.07840
  0.3830   -5.36160
  0.3850   -5.63130
  0.3870   -5.88710
  0.3890   -6.13060
  0.3910   -6.36250
  0.3930   -6.58090
  0.3950   -6.78600
  0.3970   -6.97870
  0.3990   -7.15830
  0.4010   -7.32510
  0.4030   -7.47980
  0.4050   -7.62230
  0.4070   -7.75390
  0.4090   -7.87480
  0.4110   -7.98330
  0.4130   -8.08070
  0.4150   -8.16790
  0.4170   -8.24530
  0.4190   -8.31290
  0.4210   -8.36980
  0.4230   -8.41870
  0.4250   -8.46030
  0.4270   -8.49100
  0.4290   -8.51290
  0.4310   -8.52880
  0.4330   -8.53670
  0.4350   -8.53830
  0.4370   -8.53350
  0.4390   -8.52090
  0.4410   -8.50250
  0.4430   -8.47860
  0.4450   -8.45040
  0.4470   -8.41760
  0.4490   -8.37790
  0.4510   -8.33290
  0.4530   -8.28410
  0.4550   -8.23140
  0.4570   -8.17500
  0.4590   -8.11600
  0.4610   -8.05470
  0.4630   -7.99050
  0.4650   -7.92330
  0.4670   -7.85290
  0.4690   -7.78070
  0.4710   -7.70610
  0.4730   -7.62980
  0.4750   -7.55250
  0.4770   -7.47390
  0.4790   -7.39500
  0.4810   -7.31490
  0.4830   -7.23370
  0.4850   -7.15140
  0.4870   -7.06820
  0.4890   -6.98440
  0.4910   -6.89950
  0.4930   -6.81460
  0.4950   -6.72920
  0.4970   -6.64340
  0.4990   -6.55700
  0.5010   -6.47020
  0.5030   -6.38320
  0.5050   -6.29590
  0.5070   -6.20870
  0.5090   -6.12110
  0.5110   -6.03320
  0.5130   -5.94510
  0.5150   -5.85660
  0.5170   -5.76810
  0.5190   -5.67960
  0.5210   -5.59070
  0.5230   -5.50170
  0.5250   -5.41300
  0.5270   -5.32440
  0.5290   -5.23540
  0.5310   -5.14640
  0.5330   -5.05750
  0.5350   -4.96880
  0.5370   -4.88010
  0.5390   -4.79150
  0.5410   -4.70310
  0.5430   -4.61510
  0.5450   -4.52750
  0.5470   -4.44020
  0.5490   -4.35320
  0.5510   -4.26660
  0.5530   -4.18030
  0.5550   -4.09460
  0.5570   -4.00940
  0.5590   -3.92450
  0.5610   -3.84000
  0.5630   -3.75620
  0.5650   -3.67310
  0.5670   -3.59030
  0.5690   -3.50800
  0.5710   -3.42640
  0.5730   -3.34570
  0.5750   -3.26580
  0.5770   -3.18660
  0.5790   -3.10800
  0.5810   -3.03030
  0.5830   -2.95350
  0.5850   -2.87740
  0.5870   -2.80200
  0.5890   -2.72770
  0.5910   -2.65450
  0.5930   -2.58210
  0.5950   -2.51090
  0.5970   -2.44070
  0.5990   -2.37140
  0.6010   -2.30290
  0.6030   -2.23540
  0.6050   -2.16900
  0.6070   -2.10380
  0.6090   -2.03960
  0.6110   -1.97660
  0.6130   -1.91450
  0.6150   -1.85330
  0.6170   -1.79350
  0.6190   -1.73500
  0.6210   -1.67780
  0.6230   -1.62180
  0.6250   -1.56680
  0.6270   -1.51310
  0.6290   -1.46070
  0.6310   -1.40960
  0.6330   -1.36000
  0.6350   -1.31200
  0.6370   -1.26480
  0.6390   -1.21890
  0.6410   -1.17440
  0.6430   -1.13100
  0.6450   -1.08900
  0.6470   -1.04850
  0.6490   -1.00930
  0.6510   -0.97140
  0.6530   -0.93520
  0.6550   -0.90040
  0.6570   -0.86720
  0.6590   -0.83560
  0.6610   -0.80510
  0.6630   -0.77600
  0.6650   -0.74850
  0.6670   -0.72280
  0.6690   -0.69850
  0.6710   -0.67560
  0.6730   -0.65440
  0.6750   -0.63500
  0.6770   -0.61680
  0.6790   -0.60020
  0.6810   -0.58520
  0.6830   -0.57170
  0.6850   -0.55940
  0.6870   -0.54850
  0.6890   -0.53930
  0.6910   -0.53190
  0.6930   -0.52570
  0.6950   -0.52100
  0.6970   -0.51780
  0.6990   -0.51540
  0.7010   -0.51420
  0.7030   -0.51560
  0.7050   -0.51830
  0.7070   -0.52150
  0.7090   -0.52570
  0.7110   -0.53100
  0.7130   -0.53780
  0.7150   -0.54590
  0.7170   -0.55500
  0.7190   -0.56450
  0.7210   -0.57490
  0.7230   -0.58620
  0.7250   -0.59820
  0.7270   -0.61100
  0.7290   -0.62400
  0.7310   -0.63740
  0.7330   -0.65180
  0.7350   -0.66690
  0.7370   -0.68240
  0.7390   -0.69830
  0.7410   -0.71460
  0.7430   -0.73110
  0.7450   -0.74770
  0.7470   -0.76420
  0.7490   -0.78120
  0.7510   -0.79810
  0.7530   -0.81480
  0.7550   -0.83130
  0.7570   -0.84780
  0.7590   -0.86410
  0.7610   -0.88000
  0.7630   -0.89560
  0.7650   -0.91090
  0.7670   -0.92590
  0.7690   -0.94040
  0.7710   -0.95430
  0.7730   -0.96750
  0.7750   -0.98020
  0.7770   -0.99220
  0.7790   -1.00370
  0.7810   -1.01470
  0.7830   -1.02480
  0.7850   -1.03410
  0.7870   -1.04280
  0.7890   -1.05080
  0.7910   -1.05790
  0.7930   -1.06420
  0.7950   -1.06970
  0.7970   -1.07440
  0.7990   -1.07810
  0.8010   -1.08120
  0.8030   -1.08350
  0.8050   -1.08510
  0.8070   -1.08570
  0.8090   -1.08560
  0.8110   -1.08480
  0.8130   -1.08300
  0.8150   -1.08030
  0.8170   -1.07700
  0.8190   -1.07310
  0.8210   -1.06830
  0.8230   -1.06280
  0.8250   -1.05660
  0.8270   -1.04970
  0.8290   -1.04220
  0.8310   -1.03420
  0.8330   -1.02550
  0.8350   -1.01630
  0.8370   -1.00650
  0.8390   -0.99590
  0.8410   -0.98490
  0.8430   -0.97340
  0.8450   -0.96140
  0.8470   -0.94910
  0.8490   -0.93650
  0.8510   -0.92350
  0.8530   -0.91020
  0.8550   -0.89670
  0.8570   -0.88270
  0.8590   -0.86840
  0.8610   -0.85360
  0.8630   -0.83850
  0.8650   -0.82320
  0.8670   -0.80780
  0.8690   -0.79210
  0.8710   -0.77630
  0.8730   -0.76030
  0.8750   -0.74430
  0.8770   -0.72810
  0.8790   -0.71190
  0.8810   -0.69560
  0.8830   -0.67920
  0.8850   -0.66270
  0.8870   -0.64620
  0.8890   -0.62960
  0.8910   -0.61320
  0.8930   -0.59670
  0.8950   -0.58030
  0.8970   -0.56380
  0.8990   -0.54730
  0.9010   -0.53110
  0.9030   -0.51490
  0.9050   -0.49880
  0.9070   -0.48280
  0.9090   -0.46710
  0.9110   -0.45150
  0.9130   -0.43600
  0.9150   -0.42070
  0.9170   -0.40550
  0.9190   -0.39080
  0.9210   -0.37610
  0.9230   -0.36160
  0.9250   -0.34740
  0.9270   -0.33340
  0.9290   -0.31970
  0.9310   -0.30630
  0.9330   -0.29320
  0.9350   -0.28050
  0.9370   -0.26810
  0.9390   -0.25620
  0.9410   -0.24470
  0.9430   -0.23330
  0.9450   -0.22240
  0.9470   -0.21170
  0.9490   -0.20150
  0.9510   -0.19190
  0.9530   -0.18260
  0.9550   -0.17360
  0.9570   -0.16520
  0.9590   -0.15720
  0.9610   -0.14960
  0.9630   -0.14230
  0.9650   -0.13550
  0.9670   -0.12920
  0.9690   -0.12340
  0.9710   -0.11800
  0.9730   -0.11300
  0.9750   -0.10840
  0.9770   -0.10440
  0.9790   -0.10090
  0.9810   -0.09790
  0.9830   -0.09500
  0.9850   -0.09260
  0.9870   -0.09080
  0.9890   -0.08930
  0.9910   -0.08820
  0.9930   -0.08760
  0.9950   -0.08730
  0.9970   -0.08740
  0.9990   -0.08780
  1.0010   -0.08860
  1.0030   -0.08960
  1.0050   -0.09090
  1.0070   -0.09250
  1.0090   -0.09440
  1.0110   -0.09650
  1.0130   -0.09900
  1.0150   -0.10170
  1.0170   -0.10450
  1.0190   -0.10750
  1.0210   -0.11080
  1.0230   -0.11410
  1.0250   -0.11760
  1.0270   -0.12120
  1.0290   -0.12500
  1.0310   -0.12880
  1.0330   -0.13270
  1.0350   -0.13680
  1.0370   -0.14090
  1.0390   -0.14490
  1.0410   -0.14890
  1.0430   -0.15300
  1.0450   -0.15700
  1.0470   -0.16100
  1.0490   -0.16480
  1.0510   -0.16840
  1.0530   -0.17200
  1.0550   -0.17570
  1.0570   -0.17910
  1.0590   -0.18230
  1.0610   -0.18550
  1.0630   -0.18850
  1.0650   -0.19130
  1.0670   -0.19390
  1.0690   -0.19610
  1.0710   -0.19810
  1.0730   -0.19990
  1.0750   -0.20150
  1.0770   -0.20290
  1.0790   -0.20410
  1.0810   -0.20490
  1.0830   -0.20540
  1.0850   -0.20570
  1.0870   -0.20580
  1.0890   -0.20560
  1.0910   -0.20520
  1.0930   -0.20440
  1.0950   -0.20360
  1.0970   -0.20250
  1.0990   -0.20120
  1.1010   -0.19960
  1.1030   -0.19780
  1.1050   -0.19580
  1.1070   -0.19370
  1.1090   -0.19140
  1.1110   -0.18870
  1.1130   -0.18590
  1.1150   -0.18310
  1.1170   -0.18020
  1.1190   -0.17700
  1.1210   -0.17370
  1.1230   -0.17040
  1.1250   -0.16710
  1.1270   -0.16400
  1.1290   -0.16070
  1.1310   -0.15740
  1.1330   -0.15400
  1.1350   -0.15060
  1.1370   -0.14720
  1.1390   -0.14380
  1.1410   -0.14040
  1.1430   -0.13700
  1.1450   -0.13370
  1.1470   -0.13040
  1.1490   -0.12720
  1.1510   -0.12400
  1.1530   -0.12110
  1.1550   -0.11830
  1.1570   -0.11530
  1.1590   -0.11240
  1.1610   -0.10970
  1.1630   -0.10700
  1.1650   -0.10420
  1.1670   -0.10160
  1.1690   -0.09910
  1.1710   -0.09680
  1.1730   -0.09440
  1.1750   -0.09190
  1.1770   -0.08940
  1.1790   -0.08710
  1.1810   -0.08500
  1.1830   -0.08280
  1.1850   -0.08070
  1.1870   -0.07870
  1.1890   -0.07680
  1.1910   -0.07500
  1.1930   -0.07320
  1.1950   -0.07150
  1.1970   -0.06970
  1.1990   -0.06800
  1.2010   -0.06630
  1.2030   -0.06440
  1.2050   -0.06250
  1.2070   -0.06070
  1.2090   -0.05900
  1.2110   -0.05740
  1.2130   -0.05560
  1.2150   -0.05390
  1.2170   -0.05220
  1.2190   -0.05070
  1.2210   -0.04910
  1.2230   -0.04740
  1.2250   -0.04570
  1.2270   -0.04400
  1.2290   -0.04240
  1.2310   -0.04090
  1.2330   -0.03940
  1.2350   -0.03780
  1.2370   -0.03640
  1.2390   -0.03490
  1.2410   -0.03360
  1.2430   -0.03230
  1.2450   -0.03100
  1.2470   -0.02990
  1.2490   -0.02880
  1.2510   -0.02780
  1.2530   -0.02690
  1.2550   -0.02610
  1.2570   -0.02520
  1.2590   -0.02450
  1.2610   -0.02380
  1.2630   -0.02310
  1.2650   -0.02250
  1.2670   -0.02190
  1.2690   -0.02140
  1.2710   -0.02110
  1.2730   -0.02060
  1.2750   -0.02000
  1.2770   -0.01970
  1.2790   -0.01930
  1.2810   -0.01900
  1.2830   -0.01870
  1.2850   -0.01850
  1.2870   -0.01830
  1.2890   -0.01800
  1.2910   -0.01770
  1.2930   -0.01730
  1.2950   -0.01680
  1.2970   -0.01640
  1.2990   -0.01590
  1.3010   -0.01530
  1.3030   -0.01480
  1.3050   -0.01410
  1.3070   -0.01320
  1.3090   -0.01230
  1.3110   -0.01120
  1.3130   -0.01010
  1.3150   -0.00910
  1.3170   -0.00790
  1.3190   -0.00650
  1.3210   -0.00490
  1.3230   -0.00320
  1.3250   -0.00160
  1.3270    0.00010
  1.3290    0.00220
  1.3310    0.00430
  1.3330    0.00650
  1.3350    0.00880
  1.3370    0.01140
  1.3390    0.01390
  1.3410    0.01670
  1.3430    0.01950
  1.3450    0.02240
  1.3470    0.02540
  1.3490    0.02840
  1.3510    0.03150
  1.3530    0.03480
  1.3550    0.03800
  1.3570    0.04140
  1.3590    0.04470
  1.3610    0.04820
  1.3630    0.05170
  1.3650    0.05530
  1.3670    0.05870
  1.3690    0.06210
  1.3710    0.06550
  1.3730    0.06870
  1.3750    0.07180
  1.3770    0.07480
  1.3790    0.07790
  1.3810    0.08070
  1.3830    0.08310
  1.3850    0.08560
  1.3870    0.08800
  1.3890    0.09020
  1.3910    0.09190
  1.3930    0.09360
  1.3950    0.09460
  1.3970    0.09500
  1.3990    0.09480
