# z (nm)   (kJ/mol)
  0.297000,  8.936100
  0.299000,  8.462300
  0.301000,  7.957500
  0.303000,  7.459700
  0.305000,  7.009700
  0.307000,  6.543000
  0.309000,  6.015800
  0.311000,  5.492200
  0.313000,  4.974300
  0.315000,  4.470900
  0.317000,  3.974000
  0.319000,  3.472700
  0.321000,  2.975000
  0.323000,  2.473300
  0.325000,  1.976200
  0.327000,  1.490600
  0.329000,  1.010000
  0.331000,  0.528900
  0.333000,  0.055400
  0.335000, -0.404300
  0.337000, -0.858500
  0.339000, -1.308000
  0.341000, -1.751000
  0.343000, -2.186500
  0.345000, -2.608900
  0.347000, -3.020400
  0.349000, -3.422100
  0.351000, -3.814100
  0.353000, -4.197500
  0.355000, -4.570600
  0.357000, -4.929900
  0.359000, -5.274700
  0.361000, -5.609400
  0.363000, -5.934800
  0.365000, -6.248500
  0.367000, -6.549900
  0.369000, -6.841300
  0.371000, -7.121800
  0.373000, -7.388400
  0.375000, -7.641500
  0.377000, -7.883700
  0.379000, -8.114500
  0.381000, -8.332200
  0.383000, -8.537400
  0.385000, -8.729900
  0.387000, -8.910400
  0.389000, -9.080200
  0.391000, -9.237200
  0.393000, -9.382000
  0.395000, -9.516400
  0.397000, -9.639000
  0.399000, -9.750800
  0.401000, -9.851400
  0.403000, -9.939700
  0.405000,-10.018900
  0.407000,-10.088300
  0.409000,-10.147300
  0.411000,-10.196500
  0.413000,-10.235600
  0.415000,-10.267400
  0.417000,-10.290400
  0.419000,-10.303500
  0.421000,-10.309700
  0.423000,-10.309200
  0.425000,-10.301000
  0.427000,-10.285600
  0.429000,-10.263100
  0.431000,-10.234600
  0.433000,-10.200800
  0.435000,-10.161900
  0.437000,-10.118400
  0.439000,-10.069000
  0.441000,-10.014700
  0.443000, -9.956400
  0.445000, -9.895300
  0.447000, -9.831400
  0.449000, -9.763900
  0.451000, -9.693500
  0.453000, -9.619800
  0.455000, -9.543500
  0.457000, -9.464900
  0.459000, -9.384400
  0.461000, -9.301900
  0.463000, -9.216700
  0.465000, -9.129400
  0.467000, -9.040600
  0.469000, -8.950500
  0.471000, -8.858800
  0.473000, -8.765300
  0.475000, -8.670500
  0.477000, -8.574500
  0.479000, -8.477500
  0.481000, -8.380100
  0.483000, -8.281700
  0.485000, -8.181800
  0.487000, -8.080400
  0.489000, -7.977600
  0.491000, -7.873700
  0.493000, -7.769400
  0.495000, -7.665100
  0.497000, -7.560500
  0.499000, -7.454900
  0.501000, -7.348600
  0.503000, -7.241900
  0.505000, -7.134700
  0.507000, -7.026900
  0.509000, -6.918600
  0.511000, -6.809800
  0.513000, -6.701100
  0.515000, -6.592300
  0.517000, -6.483000
  0.519000, -6.373300
  0.521000, -6.263400
  0.523000, -6.153600
  0.525000, -6.043600
  0.527000, -5.933900
  0.529000, -5.824500
  0.531000, -5.714900
  0.533000, -5.605600
  0.535000, -5.496800
  0.537000, -5.387800
  0.539000, -5.278800
  0.541000, -5.170600
  0.543000, -5.062900
  0.545000, -4.955600
  0.547000, -4.848600
  0.549000, -4.742200
  0.551000, -4.636700
  0.553000, -4.532100
  0.555000, -4.428400
  0.557000, -4.325600
  0.559000, -4.223800
  0.561000, -4.123300
  0.563000, -4.023800
  0.565000, -3.925300
  0.567000, -3.828000
  0.569000, -3.731700
  0.571000, -3.636200
  0.573000, -3.542700
  0.575000, -3.450500
  0.577000, -3.359400
  0.579000, -3.270000
  0.581000, -3.181900
  0.583000, -3.095600
  0.585000, -3.010700
  0.587000, -2.927300
  0.589000, -2.845600
  0.591000, -2.765700
  0.593000, -2.687700
  0.595000, -2.611600
  0.597000, -2.537300
  0.599000, -2.464600
  0.601000, -2.393600
  0.603000, -2.324400
  0.605000, -2.257100
  0.607000, -2.191900
  0.609000, -2.128500
  0.611000, -2.066700
  0.613000, -2.006500
  0.615000, -1.948400
  0.617000, -1.892200
  0.619000, -1.838100
  0.621000, -1.785600
  0.623000, -1.734900
  0.625000, -1.686300
  0.627000, -1.639200
  0.629000, -1.593900
  0.631000, -1.550100
  0.633000, -1.508100
  0.635000, -1.467900
  0.637000, -1.429400
  0.639000, -1.392500
  0.641000, -1.357300
  0.643000, -1.323400
  0.645000, -1.291100
  0.647000, -1.260400
  0.649000, -1.231100
  0.651000, -1.203300
  0.653000, -1.176900
  0.655000, -1.151900
  0.657000, -1.128300
  0.659000, -1.106000
  0.661000, -1.085000
  0.663000, -1.065300
  0.665000, -1.046700
  0.667000, -1.029400
  0.669000, -1.013400
  0.671000, -0.998400
  0.673000, -0.984500
  0.675000, -0.971800
  0.677000, -0.959900
  0.679000, -0.949200
  0.681000, -0.939400
  0.683000, -0.930600
  0.685000, -0.922900
  0.687000, -0.915900
  0.689000, -0.909800
  0.691000, -0.904500
  0.693000, -0.900000
  0.695000, -0.896400
  0.697000, -0.893600
  0.699000, -0.891300
  0.701000, -0.889700
  0.703000, -0.888800
  0.705000, -0.888700
  0.707000, -0.889200
  0.709000, -0.890300
  0.711000, -0.892000
  0.713000, -0.894100
  0.715000, -0.896600
  0.717000, -0.899400
  0.719000, -0.902600
  0.721000, -0.906300
  0.723000, -0.910200
  0.725000, -0.914600
  0.727000, -0.919400
  0.729000, -0.924400
  0.731000, -0.929700
  0.733000, -0.935100
  0.735000, -0.940600
  0.737000, -0.946000
  0.739000, -0.951500
  0.741000, -0.956900
  0.743000, -0.962300
  0.745000, -0.968000
  0.747000, -0.973600
  0.749000, -0.979200
  0.751000, -0.984700
  0.753000, -0.990100
  0.755000, -0.995100
  0.757000, -0.999900
  0.759000, -1.004600
  0.761000, -1.009000
  0.763000, -1.013000
  0.765000, -1.016600
  0.767000, -1.019900
  0.769000, -1.022800
  0.771000, -1.025300
  0.773000, -1.027300
  0.775000, -1.028800
  0.777000, -1.030000
  0.779000, -1.030700
  0.781000, -1.031000
  0.783000, -1.030700
  0.785000, -1.029800
  0.787000, -1.028500
  0.789000, -1.026700
  0.791000, -1.024200
  0.793000, -1.021200
  0.795000, -1.017800
  0.797000, -1.013900
  0.799000, -1.009300
  0.801000, -1.004200
  0.803000, -0.998100
  0.805000, -0.991500
  0.807000, -0.984400
  0.809000, -0.976600
  0.811000, -0.968200
  0.813000, -0.959400
  0.815000, -0.950000
  0.817000, -0.940000
  0.819000, -0.929600
  0.821000, -0.918500
  0.823000, -0.906900
  0.825000, -0.894800
  0.827000, -0.882300
  0.829000, -0.869400
  0.831000, -0.856000
  0.833000, -0.842100
  0.835000, -0.827800
  0.837000, -0.813100
  0.839000, -0.798200
  0.841000, -0.782900
  0.843000, -0.767400
  0.845000, -0.751800
  0.847000, -0.735800
  0.849000, -0.719600
  0.851000, -0.703100
  0.853000, -0.686600
  0.855000, -0.670100
  0.857000, -0.653300
  0.859000, -0.636300
  0.861000, -0.619300
  0.863000, -0.602400
  0.865000, -0.585400
  0.867000, -0.568400
  0.869000, -0.551600
  0.871000, -0.534800
  0.873000, -0.518300
  0.875000, -0.501900
  0.877000, -0.485600
  0.879000, -0.469300
  0.881000, -0.453300
  0.883000, -0.437500
  0.885000, -0.421800
  0.887000, -0.406300
  0.889000, -0.391300
  0.891000, -0.376400
  0.893000, -0.361700
  0.895000, -0.347200
  0.897000, -0.332900
  0.899000, -0.318900
  0.901000, -0.305500
  0.903000, -0.292400
  0.905000, -0.279500
  0.907000, -0.266800
  0.909000, -0.254400
  0.911000, -0.242300
  0.913000, -0.230700
  0.915000, -0.219300
  0.917000, -0.208200
  0.919000, -0.197300
  0.921000, -0.186900
  0.923000, -0.177000
  0.925000, -0.167400
  0.927000, -0.158100
  0.929000, -0.149000
  0.931000, -0.140100
  0.933000, -0.131700
  0.935000, -0.123700
  0.937000, -0.115800
  0.939000, -0.108200
  0.941000, -0.101200
  0.943000, -0.094700
  0.945000, -0.088600
  0.947000, -0.082800
  0.949000, -0.077200
  0.951000, -0.072200
  0.953000, -0.067400
  0.955000, -0.062900
  0.957000, -0.058800
  0.959000, -0.054900
  0.961000, -0.051600
  0.963000, -0.048500
  0.965000, -0.045900
  0.967000, -0.043600
  0.969000, -0.041500
  0.971000, -0.039900
  0.973000, -0.038800
  0.975000, -0.038100
  0.977000, -0.037700
  0.979000, -0.037600
  0.981000, -0.037800
  0.983000, -0.038400
  0.985000, -0.039500
  0.987000, -0.040900
  0.989000, -0.042600
  0.991000, -0.044700
  0.993000, -0.047000
  0.995000, -0.049700
  0.997000, -0.052700
  0.999000, -0.056000
  1.001000, -0.059400
  1.003000, -0.063200
  1.005000, -0.067200
  1.007000, -0.071400
  1.009000, -0.075800
  1.011000, -0.080100
  1.013000, -0.084600
  1.015000, -0.089400
  1.017000, -0.094300
  1.019000, -0.099200
  1.021000, -0.104300
  1.023000, -0.109600
  1.025000, -0.114900
  1.027000, -0.120000
  1.029000, -0.125000
  1.031000, -0.130100
  1.033000, -0.135300
  1.035000, -0.140400
  1.037000, -0.145500
  1.039000, -0.150600
  1.041000, -0.155400
  1.043000, -0.160200
  1.045000, -0.164900
  1.047000, -0.169400
  1.049000, -0.173700
  1.051000, -0.177800
  1.053000, -0.181800
  1.055000, -0.185600
  1.057000, -0.189200
  1.059000, -0.192600
  1.061000, -0.195900
  1.063000, -0.198900
  1.065000, -0.201700
  1.067000, -0.204400
  1.069000, -0.206700
  1.071000, -0.208900
  1.073000, -0.211000
  1.075000, -0.212900
  1.077000, -0.214400
  1.079000, -0.215700
  1.081000, -0.216900
  1.083000, -0.217800
  1.085000, -0.218500
  1.087000, -0.219000
  1.089000, -0.219100
  1.091000, -0.219100
  1.093000, -0.219000
  1.095000, -0.218600
  1.097000, -0.217900
  1.099000, -0.217000
  1.101000, -0.216000
  1.103000, -0.214700
  1.105000, -0.213100
  1.107000, -0.211400
  1.109000, -0.209400
  1.111000, -0.207200
  1.113000, -0.204800
  1.115000, -0.202200
  1.117000, -0.199600
  1.119000, -0.196700
  1.121000, -0.193900
  1.123000, -0.190900
  1.125000, -0.187700
  1.127000, -0.184300
  1.129000, -0.180900
  1.131000, -0.177400
  1.133000, -0.173700
  1.135000, -0.169900
  1.137000, -0.166000
  1.139000, -0.162000
  1.141000, -0.157900
  1.143000, -0.153800
  1.145000, -0.149700
  1.147000, -0.145600
  1.149000, -0.141400
  1.151000, -0.137300
  1.153000, -0.133200
  1.155000, -0.129000
  1.157000, -0.124900
  1.159000, -0.120700
  1.161000, -0.116600
  1.163000, -0.112600
  1.165000, -0.108700
  1.167000, -0.104700
  1.169000, -0.100900
  1.171000, -0.097300
  1.173000, -0.093700
  1.175000, -0.090100
  1.177000, -0.086700
  1.179000, -0.083300
  1.181000, -0.079900
  1.183000, -0.076800
  1.185000, -0.073800
  1.187000, -0.070800
  1.189000, -0.067900
  1.191000, -0.065100
  1.193000, -0.062500
  1.195000, -0.060000
  1.197000, -0.057700
  1.199000, -0.055400
  1.201000, -0.053200
  1.203000, -0.051100
  1.205000, -0.049100
  1.207000, -0.047400
  1.209000, -0.045500
  1.211000, -0.043700
  1.213000, -0.042000
  1.215000, -0.040500
  1.217000, -0.039000
  1.219000, -0.037500
  1.221000, -0.036300
  1.223000, -0.035000
  1.225000, -0.033700
  1.227000, -0.032600
  1.229000, -0.031400
  1.231000, -0.030300
  1.233000, -0.029300
  1.235000, -0.028200
  1.237000, -0.027100
  1.239000, -0.026000
  1.241000, -0.025000
  1.243000, -0.023800
  1.245000, -0.022700
  1.247000, -0.021800
  1.249000, -0.020800
  1.251000, -0.019700
  1.253000, -0.018700
  1.255000, -0.017800
  1.257000, -0.016900
  1.259000, -0.016000
  1.261000, -0.015100
  1.263000, -0.014100
  1.265000, -0.013300
  1.267000, -0.012500
  1.269000, -0.011700
  1.271000, -0.011000
  1.273000, -0.010300
  1.275000, -0.009500
  1.277000, -0.008800
  1.279000, -0.008100
  1.281000, -0.007500
  1.283000, -0.006800
  1.285000, -0.006200
  1.287000, -0.005600
  1.289000, -0.005000
  1.291000, -0.004600
  1.293000, -0.004300
  1.295000, -0.003900
  1.297000, -0.003500
  1.299000, -0.003100
  1.301000, -0.002900
  1.303000, -0.002600
  1.305000, -0.002400
  1.307000, -0.002200
  1.309000, -0.002000
  1.311000, -0.001700
  1.313000, -0.001600
  1.315000, -0.001600
  1.317000, -0.001600
  1.319000, -0.001500
  1.321000, -0.001300
  1.323000, -0.001000
  1.325000, -0.000700
  1.327000, -0.000400
  1.329000, -0.000000
  1.331000,  0.000500
  1.333000,  0.001100
  1.335000,  0.001900
  1.337000,  0.002700
  1.339000,  0.003700
  1.341000,  0.004600
  1.343000,  0.005800
  1.345000,  0.007100
  1.347000,  0.008500
  1.349000,  0.010200
  1.351000,  0.012000
  1.353000,  0.014000
  1.355000,  0.016200
  1.357000,  0.018400
  1.359000,  0.020800
  1.361000,  0.023400
  1.363000,  0.026200
  1.365000,  0.028900
  1.367000,  0.031900
  1.369000,  0.035000
  1.371000,  0.038300
  1.373000,  0.041700
  1.375000,  0.045200
  1.377000,  0.048800
  1.379000,  0.052400
  1.381000,  0.056100
  1.383000,  0.059700
  1.385000,  0.063400
  1.387000,  0.067500
  1.389000,  0.071400
  1.391000,  0.075100
  1.393000,  0.078500
  1.395000,  0.081200
  1.397000,  0.083600
  1.399000,  0.085900
