# z (nm)   (kJ/mol)
  0.333000,  7.038500
  0.335000,  6.571400
  0.337000,  6.073300
  0.339000,  5.536100
  0.341000,  5.021300
  0.343000,  4.511300
  0.345000,  3.984100
  0.347000,  3.435100
  0.349000,  2.896900
  0.351000,  2.363100
  0.353000,  1.828700
  0.355000,  1.302100
  0.357000,  0.782600
  0.359000,  0.260500
  0.361000, -0.266000
  0.363000, -0.782200
  0.365000, -1.290700
  0.367000, -1.795900
  0.369000, -2.294700
  0.371000, -2.784400
  0.373000, -3.265300
  0.375000, -3.740300
  0.377000, -4.209700
  0.379000, -4.666000
  0.381000, -5.110000
  0.383000, -5.544800
  0.385000, -5.969500
  0.387000, -6.383100
  0.389000, -6.784000
  0.391000, -7.171600
  0.393000, -7.546200
  0.395000, -7.906900
  0.397000, -8.253200
  0.399000, -8.585400
  0.401000, -8.904100
  0.403000, -9.207400
  0.405000, -9.495300
  0.407000, -9.768200
  0.409000,-10.026000
  0.411000,-10.269000
  0.413000,-10.497100
  0.415000,-10.710100
  0.417000,-10.909100
  0.419000,-11.093200
  0.421000,-11.260200
  0.423000,-11.414700
  0.425000,-11.557400
  0.427000,-11.686200
  0.429000,-11.799700
  0.431000,-11.900800
  0.433000,-11.989400
  0.435000,-12.063200
  0.437000,-12.127300
  0.439000,-12.179900
  0.441000,-12.219200
  0.443000,-12.249500
  0.445000,-12.269300
  0.447000,-12.280600
  0.449000,-12.284300
  0.451000,-12.277600
  0.453000,-12.263000
  0.455000,-12.240400
  0.457000,-12.209500
  0.459000,-12.168600
  0.461000,-12.118700
  0.463000,-12.065100
  0.465000,-12.008100
  0.467000,-11.945300
  0.469000,-11.876700
  0.471000,-11.803900
  0.473000,-11.727200
  0.475000,-11.644700
  0.477000,-11.557600
  0.479000,-11.467000
  0.481000,-11.372300
  0.483000,-11.274800
  0.485000,-11.174700
  0.487000,-11.071500
  0.489000,-10.965200
  0.491000,-10.856100
  0.493000,-10.744200
  0.495000,-10.629800
  0.497000,-10.513200
  0.499000,-10.393900
  0.501000,-10.271800
  0.503000,-10.147900
  0.505000,-10.021900
  0.507000, -9.893400
  0.509000, -9.762700
  0.511000, -9.630200
  0.513000, -9.496500
  0.515000, -9.360700
  0.517000, -9.222500
  0.519000, -9.082800
  0.521000, -8.941600
  0.523000, -8.799000
  0.525000, -8.654700
  0.527000, -8.508800
  0.529000, -8.361700
  0.531000, -8.213000
  0.533000, -8.063300
  0.535000, -7.913000
  0.537000, -7.761900
  0.539000, -7.609700
  0.541000, -7.457100
  0.543000, -7.304100
  0.545000, -7.150800
  0.547000, -6.997400
  0.549000, -6.844100
  0.551000, -6.691100
  0.553000, -6.538700
  0.555000, -6.386600
  0.557000, -6.235100
  0.559000, -6.084900
  0.561000, -5.935600
  0.563000, -5.787500
  0.565000, -5.640700
  0.567000, -5.495500
  0.569000, -5.351900
  0.571000, -5.210000
  0.573000, -5.070700
  0.575000, -4.933800
  0.577000, -4.798700
  0.579000, -4.666100
  0.581000, -4.536500
  0.583000, -4.409500
  0.585000, -4.285100
  0.587000, -4.163800
  0.589000, -4.045800
  0.591000, -3.930800
  0.593000, -3.818800
  0.595000, -3.709900
  0.597000, -3.603600
  0.599000, -3.500100
  0.601000, -3.400100
  0.603000, -3.303900
  0.605000, -3.211200
  0.607000, -3.121700
  0.609000, -3.035900
  0.611000, -2.953200
  0.613000, -2.873600
  0.615000, -2.797300
  0.617000, -2.724500
  0.619000, -2.655400
  0.621000, -2.589500
  0.623000, -2.526100
  0.625000, -2.466000
  0.627000, -2.409700
  0.629000, -2.356100
  0.631000, -2.305100
  0.633000, -2.257200
  0.635000, -2.211900
  0.637000, -2.169300
  0.639000, -2.129500
  0.641000, -2.092200
  0.643000, -2.057600
  0.645000, -2.025500
  0.647000, -1.995800
  0.649000, -1.968300
  0.651000, -1.943100
  0.653000, -1.920000
  0.655000, -1.899000
  0.657000, -1.880200
  0.659000, -1.863300
  0.661000, -1.848300
  0.663000, -1.835000
  0.665000, -1.823500
  0.667000, -1.813700
  0.669000, -1.805500
  0.671000, -1.798600
  0.673000, -1.793200
  0.675000, -1.789200
  0.677000, -1.786400
  0.679000, -1.784900
  0.681000, -1.784400
  0.683000, -1.785100
  0.685000, -1.786900
  0.687000, -1.789300
  0.689000, -1.792800
  0.691000, -1.797300
  0.693000, -1.802400
  0.695000, -1.808300
  0.697000, -1.814800
  0.699000, -1.821800
  0.701000, -1.829100
  0.703000, -1.836800
  0.705000, -1.844900
  0.707000, -1.853200
  0.709000, -1.861800
  0.711000, -1.870700
  0.713000, -1.879700
  0.715000, -1.888800
  0.717000, -1.897800
  0.719000, -1.906900
  0.721000, -1.915800
  0.723000, -1.924400
  0.725000, -1.932700
  0.727000, -1.940600
  0.729000, -1.948200
  0.731000, -1.955600
  0.733000, -1.962700
  0.735000, -1.969300
  0.737000, -1.975600
  0.739000, -1.981300
  0.741000, -1.986400
  0.743000, -1.990800
  0.745000, -1.994700
  0.747000, -1.998200
  0.749000, -2.001000
  0.751000, -2.003100
  0.753000, -2.004400
  0.755000, -2.005100
  0.757000, -2.005000
  0.759000, -2.004100
  0.761000, -2.002400
  0.763000, -1.999900
  0.765000, -1.996900
  0.767000, -1.992900
  0.769000, -1.988000
  0.771000, -1.982600
  0.773000, -1.976600
  0.775000, -1.969900
  0.777000, -1.962600
  0.779000, -1.954400
  0.781000, -1.945700
  0.783000, -1.936000
  0.785000, -1.925500
  0.787000, -1.914300
  0.789000, -1.902400
  0.791000, -1.890100
  0.793000, -1.877300
  0.795000, -1.864000
  0.797000, -1.850100
  0.799000, -1.835600
  0.801000, -1.820500
  0.803000, -1.805000
  0.805000, -1.789200
  0.807000, -1.772800
  0.809000, -1.756000
  0.811000, -1.738900
  0.813000, -1.721500
  0.815000, -1.703600
  0.817000, -1.685400
  0.819000, -1.666900
  0.821000, -1.648200
  0.823000, -1.629300
  0.825000, -1.610200
  0.827000, -1.590900
  0.829000, -1.571400
  0.831000, -1.551700
  0.833000, -1.531800
  0.835000, -1.511700
  0.837000, -1.491400
  0.839000, -1.471100
  0.841000, -1.450600
  0.843000, -1.430100
  0.845000, -1.409600
  0.847000, -1.389000
  0.849000, -1.368500
  0.851000, -1.348000
  0.853000, -1.327600
  0.855000, -1.307100
  0.857000, -1.286700
  0.859000, -1.266300
  0.861000, -1.246000
  0.863000, -1.225800
  0.865000, -1.205600
  0.867000, -1.185600
  0.869000, -1.165700
  0.871000, -1.146000
  0.873000, -1.126400
  0.875000, -1.106900
  0.877000, -1.087500
  0.879000, -1.068200
  0.881000, -1.049200
  0.883000, -1.030400
  0.885000, -1.012000
  0.887000, -0.993600
  0.889000, -0.975500
  0.891000, -0.957800
  0.893000, -0.940200
  0.895000, -0.922800
  0.897000, -0.905700
  0.899000, -0.888700
  0.901000, -0.872100
  0.903000, -0.855700
  0.905000, -0.839500
  0.907000, -0.823600
  0.909000, -0.808000
  0.911000, -0.792800
  0.913000, -0.777800
  0.915000, -0.763100
  0.917000, -0.748600
  0.919000, -0.734400
  0.921000, -0.720500
  0.923000, -0.706800
  0.925000, -0.693400
  0.927000, -0.680300
  0.929000, -0.667500
  0.931000, -0.654800
  0.933000, -0.642400
  0.935000, -0.630300
  0.937000, -0.618400
  0.939000, -0.606700
  0.941000, -0.595300
  0.943000, -0.584200
  0.945000, -0.573300
  0.947000, -0.562700
  0.949000, -0.552400
  0.951000, -0.542200
  0.953000, -0.532300
  0.955000, -0.522600
  0.957000, -0.513000
  0.959000, -0.503600
  0.961000, -0.494400
  0.963000, -0.485500
  0.965000, -0.476800
  0.967000, -0.468300
  0.969000, -0.459900
  0.971000, -0.451700
  0.973000, -0.443800
  0.975000, -0.436000
  0.977000, -0.428500
  0.979000, -0.421300
  0.981000, -0.414200
  0.983000, -0.407100
  0.985000, -0.400300
  0.987000, -0.393800
  0.989000, -0.387500
  0.991000, -0.381200
  0.993000, -0.375100
  0.995000, -0.369100
  0.997000, -0.363300
  0.999000, -0.357700
  1.001000, -0.352200
  1.003000, -0.346700
  1.005000, -0.341500
  1.007000, -0.336400
  1.009000, -0.331500
  1.011000, -0.326800
  1.013000, -0.322100
  1.015000, -0.317400
  1.017000, -0.312900
  1.019000, -0.308400
  1.021000, -0.304000
  1.023000, -0.299800
  1.025000, -0.295800
  1.027000, -0.291800
  1.029000, -0.288100
  1.031000, -0.284400
  1.033000, -0.280700
  1.035000, -0.277100
  1.037000, -0.273700
  1.039000, -0.270100
  1.041000, -0.266700
  1.043000, -0.263400
  1.045000, -0.260100
  1.047000, -0.257000
  1.049000, -0.254000
  1.051000, -0.250900
  1.053000, -0.247800
  1.055000, -0.244700
  1.057000, -0.241800
  1.059000, -0.238800
  1.061000, -0.235900
  1.063000, -0.233000
  1.065000, -0.230200
  1.067000, -0.227400
  1.069000, -0.224900
  1.071000, -0.222300
  1.073000, -0.219600
  1.075000, -0.217200
  1.077000, -0.214800
  1.079000, -0.212500
  1.081000, -0.210100
  1.083000, -0.207700
  1.085000, -0.205500
  1.087000, -0.203300
  1.089000, -0.201100
  1.091000, -0.199100
  1.093000, -0.197100
  1.095000, -0.195100
  1.097000, -0.193300
  1.099000, -0.191400
  1.101000, -0.189500
  1.103000, -0.187700
  1.105000, -0.186000
  1.107000, -0.184400
  1.109000, -0.182800
  1.111000, -0.181200
  1.113000, -0.179800
  1.115000, -0.178400
  1.117000, -0.177100
  1.119000, -0.175900
  1.121000, -0.174600
  1.123000, -0.173500
  1.125000, -0.172300
  1.127000, -0.171200
  1.129000, -0.170200
  1.131000, -0.169200
  1.133000, -0.168200
  1.135000, -0.167100
  1.137000, -0.166000
  1.139000, -0.164900
  1.141000, -0.163900
  1.143000, -0.163000
  1.145000, -0.162000
  1.147000, -0.161100
  1.149000, -0.160200
  1.151000, -0.159400
  1.153000, -0.158500
  1.155000, -0.157600
  1.157000, -0.156500
  1.159000, -0.155400
  1.161000, -0.154300
  1.163000, -0.153300
  1.165000, -0.152100
  1.167000, -0.150900
  1.169000, -0.149700
  1.171000, -0.148500
  1.173000, -0.147400
  1.175000, -0.146100
  1.177000, -0.144800
  1.179000, -0.143400
  1.181000, -0.141900
  1.183000, -0.140400
  1.185000, -0.138800
  1.187000, -0.137200
  1.189000, -0.135600
  1.191000, -0.133900
  1.193000, -0.132000
  1.195000, -0.130100
  1.197000, -0.128100
  1.199000, -0.126200
  1.201000, -0.124100
  1.203000, -0.122000
  1.205000, -0.119800
  1.207000, -0.117600
  1.209000, -0.115300
  1.211000, -0.113000
  1.213000, -0.110600
  1.215000, -0.108200
  1.217000, -0.105900
  1.219000, -0.103500
  1.221000, -0.101100
  1.223000, -0.098700
  1.225000, -0.096200
  1.227000, -0.093600
  1.229000, -0.091100
  1.231000, -0.088700
  1.233000, -0.086200
  1.235000, -0.083700
  1.237000, -0.081100
  1.239000, -0.078400
  1.241000, -0.075900
  1.243000, -0.073300
  1.245000, -0.070900
  1.247000, -0.068400
  1.249000, -0.065900
  1.251000, -0.063300
  1.253000, -0.060800
  1.255000, -0.058300
  1.257000, -0.055900
  1.259000, -0.053600
  1.261000, -0.051300
  1.263000, -0.049000
  1.265000, -0.046700
  1.267000, -0.044400
  1.269000, -0.042200
  1.271000, -0.040000
  1.273000, -0.037800
  1.275000, -0.035700
  1.277000, -0.033500
  1.279000, -0.031500
  1.281000, -0.029600
  1.283000, -0.027600
  1.285000, -0.025600
  1.287000, -0.023600
  1.289000, -0.021700
  1.291000, -0.019800
  1.293000, -0.017900
  1.295000, -0.016000
  1.297000, -0.014100
  1.299000, -0.012100
  1.301000, -0.010100
  1.303000, -0.008000
  1.305000, -0.005900
  1.307000, -0.003900
  1.309000, -0.001900
  1.311000,  0.000300
  1.313000,  0.002600
  1.315000,  0.004800
  1.317000,  0.007100
  1.319000,  0.009400
  1.321000,  0.011900
  1.323000,  0.014300
  1.325000,  0.016800
  1.327000,  0.019400
  1.329000,  0.022100
  1.331000,  0.025000
  1.333000,  0.028100
  1.335000,  0.031200
  1.337000,  0.034500
  1.339000,  0.037800
  1.341000,  0.041200
  1.343000,  0.044800
  1.345000,  0.048600
  1.347000,  0.052500
  1.349000,  0.056500
  1.351000,  0.060600
  1.353000,  0.064800
  1.355000,  0.069200
  1.357000,  0.073700
  1.359000,  0.078400
  1.361000,  0.083200
  1.363000,  0.088100
  1.365000,  0.093200
  1.367000,  0.098300
  1.369000,  0.103400
  1.371000,  0.108400
  1.373000,  0.113600
  1.375000,  0.119100
  1.377000,  0.124800
  1.379000,  0.130100
  1.381000,  0.135500
  1.383000,  0.140600
  1.385000,  0.145700
  1.387000,  0.150800
  1.389000,  0.155400
  1.391000,  0.159900
  1.393000,  0.164200
  1.395000,  0.168400
  1.397000,  0.172300
  1.399000,  0.175900
