# z (nm)   (kJ/mol)
  0.335000,  8.731000
  0.339000,  8.481400
  0.343000,  8.167600
  0.345000,  7.756000
  0.347000,  7.308800
  0.349000,  6.843700
  0.351000,  6.354000
  0.353000,  5.876500
  0.355000,  5.411300
  0.357000,  4.926900
  0.359000,  4.427200
  0.361000,  3.915300
  0.363000,  3.408100
  0.365000,  2.905100
  0.367000,  2.405000
  0.369000,  1.910600
  0.371000,  1.418300
  0.373000,  0.918600
  0.375000,  0.421500
  0.377000, -0.066500
  0.379000, -0.545700
  0.381000, -1.013500
  0.383000, -1.472600
  0.385000, -1.924900
  0.387000, -2.367600
  0.389000, -2.794900
  0.391000, -3.211300
  0.393000, -3.616100
  0.395000, -4.009400
  0.397000, -4.391800
  0.399000, -4.756200
  0.401000, -5.106400
  0.403000, -5.441600
  0.405000, -5.761300
  0.407000, -6.069300
  0.409000, -6.363000
  0.411000, -6.639000
  0.413000, -6.897400
  0.415000, -7.140800
  0.417000, -7.369100
  0.419000, -7.582600
  0.421000, -7.782100
  0.423000, -7.966400
  0.425000, -8.136100
  0.427000, -8.291900
  0.429000, -8.433500
  0.431000, -8.561200
  0.433000, -8.675500
  0.435000, -8.776300
  0.437000, -8.864300
  0.439000, -8.939700
  0.441000, -9.003800
  0.443000, -9.056300
  0.445000, -9.097000
  0.447000, -9.127700
  0.449000, -9.148600
  0.451000, -9.159600
  0.453000, -9.161400
  0.455000, -9.153500
  0.457000, -9.136100
  0.459000, -9.111100
  0.461000, -9.080100
  0.463000, -9.043400
  0.465000, -9.000900
  0.467000, -8.952900
  0.469000, -8.899200
  0.471000, -8.840700
  0.473000, -8.778400
  0.475000, -8.711300
  0.477000, -8.639900
  0.479000, -8.566600
  0.481000, -8.491500
  0.483000, -8.413200
  0.485000, -8.332200
  0.487000, -8.249600
  0.489000, -8.166100
  0.491000, -8.081400
  0.493000, -7.995700
  0.495000, -7.909300
  0.497000, -7.822200
  0.499000, -7.735500
  0.501000, -7.648800
  0.503000, -7.561600
  0.505000, -7.474700
  0.507000, -7.388200
  0.509000, -7.301900
  0.511000, -7.216000
  0.513000, -7.131000
  0.515000, -7.046800
  0.517000, -6.963300
  0.519000, -6.880200
  0.521000, -6.797800
  0.523000, -6.715900
  0.525000, -6.634800
  0.527000, -6.555100
  0.529000, -6.476000
  0.531000, -6.397400
  0.533000, -6.319300
  0.535000, -6.242100
  0.537000, -6.166000
  0.539000, -6.090100
  0.541000, -6.014600
  0.543000, -5.939700
  0.545000, -5.865400
  0.547000, -5.791400
  0.549000, -5.717800
  0.551000, -5.645100
  0.553000, -5.573000
  0.555000, -5.500900
  0.557000, -5.429500
  0.559000, -5.358500
  0.561000, -5.287600
  0.563000, -5.217100
  0.565000, -5.146800
  0.567000, -5.076600
  0.569000, -5.006800
  0.571000, -4.937400
  0.573000, -4.867800
  0.575000, -4.798100
  0.577000, -4.728800
  0.579000, -4.659800
  0.581000, -4.591100
  0.583000, -4.522400
  0.585000, -4.454100
  0.587000, -4.386500
  0.589000, -4.319000
  0.591000, -4.251900
  0.593000, -4.185700
  0.595000, -4.119700
  0.597000, -4.053600
  0.599000, -3.987800
  0.601000, -3.922700
  0.603000, -3.858200
  0.605000, -3.794500
  0.607000, -3.731000
  0.609000, -3.667500
  0.611000, -3.605100
  0.613000, -3.543400
  0.615000, -3.481500
  0.617000, -3.420200
  0.619000, -3.360200
  0.621000, -3.301100
  0.623000, -3.243000
  0.625000, -3.185800
  0.627000, -3.129500
  0.629000, -3.074200
  0.631000, -3.019600
  0.633000, -2.966100
  0.635000, -2.914000
  0.637000, -2.862900
  0.639000, -2.813000
  0.641000, -2.764500
  0.643000, -2.717400
  0.645000, -2.671800
  0.647000, -2.627500
  0.649000, -2.584300
  0.651000, -2.543000
  0.653000, -2.503000
  0.655000, -2.464200
  0.657000, -2.426800
  0.659000, -2.391000
  0.661000, -2.356700
  0.663000, -2.323600
  0.665000, -2.291900
  0.667000, -2.261700
  0.669000, -2.232600
  0.671000, -2.204800
  0.673000, -2.178600
  0.675000, -2.153900
  0.677000, -2.130500
  0.679000, -2.108600
  0.681000, -2.087500
  0.683000, -2.067400
  0.685000, -2.049000
  0.687000, -2.031700
  0.689000, -2.015600
  0.691000, -2.000400
  0.693000, -1.985700
  0.695000, -1.972200
  0.697000, -1.960100
  0.699000, -1.948900
  0.701000, -1.938100
  0.703000, -1.927700
  0.705000, -1.918200
  0.707000, -1.909600
  0.709000, -1.901700
  0.711000, -1.894400
  0.713000, -1.887100
  0.715000, -1.880200
  0.717000, -1.874300
  0.719000, -1.868700
  0.721000, -1.863500
  0.723000, -1.858400
  0.725000, -1.853400
  0.727000, -1.848700
  0.729000, -1.844200
  0.731000, -1.839900
  0.733000, -1.835800
  0.735000, -1.831600
  0.737000, -1.827300
  0.739000, -1.822900
  0.741000, -1.818100
  0.743000, -1.813600
  0.745000, -1.809000
  0.747000, -1.804100
  0.749000, -1.798900
  0.751000, -1.793900
  0.753000, -1.788600
  0.755000, -1.782900
  0.757000, -1.776700
  0.759000, -1.770300
  0.761000, -1.763700
  0.763000, -1.756700
  0.765000, -1.749500
  0.767000, -1.741900
  0.769000, -1.734000
  0.771000, -1.725600
  0.773000, -1.716900
  0.775000, -1.707800
  0.777000, -1.698300
  0.779000, -1.688400
  0.781000, -1.677900
  0.783000, -1.667300
  0.785000, -1.656400
  0.787000, -1.645100
  0.789000, -1.633400
  0.791000, -1.621200
  0.793000, -1.608700
  0.795000, -1.595800
  0.797000, -1.582600
  0.799000, -1.568900
  0.801000, -1.555100
  0.803000, -1.541000
  0.805000, -1.526500
  0.807000, -1.511700
  0.809000, -1.496400
  0.811000, -1.480900
  0.813000, -1.465100
  0.815000, -1.448900
  0.817000, -1.432500
  0.819000, -1.416000
  0.821000, -1.399100
  0.823000, -1.381900
  0.825000, -1.364500
  0.827000, -1.347000
  0.829000, -1.329300
  0.831000, -1.311300
  0.833000, -1.293400
  0.835000, -1.275400
  0.837000, -1.257400
  0.839000, -1.239100
  0.841000, -1.220600
  0.843000, -1.201900
  0.845000, -1.183600
  0.847000, -1.165400
  0.849000, -1.147300
  0.851000, -1.129100
  0.853000, -1.110800
  0.855000, -1.092700
  0.857000, -1.074500
  0.859000, -1.056400
  0.861000, -1.038400
  0.863000, -1.020600
  0.865000, -1.003200
  0.867000, -0.985800
  0.869000, -0.968600
  0.871000, -0.951600
  0.873000, -0.934900
  0.875000, -0.918400
  0.877000, -0.902000
  0.879000, -0.885900
  0.881000, -0.870000
  0.883000, -0.854400
  0.885000, -0.839100
  0.887000, -0.824100
  0.889000, -0.809500
  0.891000, -0.795000
  0.893000, -0.780800
  0.895000, -0.767000
  0.897000, -0.753600
  0.899000, -0.740600
  0.901000, -0.727700
  0.903000, -0.715000
  0.905000, -0.702700
  0.907000, -0.690900
  0.909000, -0.679300
  0.911000, -0.668000
  0.913000, -0.657000
  0.915000, -0.646300
  0.917000, -0.635800
  0.919000, -0.625700
  0.921000, -0.615800
  0.923000, -0.606300
  0.925000, -0.596900
  0.927000, -0.587900
  0.929000, -0.579300
  0.931000, -0.571000
  0.933000, -0.562900
  0.935000, -0.555100
  0.937000, -0.547600
  0.939000, -0.540500
  0.941000, -0.533600
  0.943000, -0.526900
  0.945000, -0.520500
  0.947000, -0.514400
  0.949000, -0.508500
  0.951000, -0.502900
  0.953000, -0.497500
  0.955000, -0.492400
  0.957000, -0.487500
  0.959000, -0.482700
  0.961000, -0.478200
  0.963000, -0.473900
  0.965000, -0.469900
  0.967000, -0.466100
  0.969000, -0.462500
  0.971000, -0.459000
  0.973000, -0.455700
  0.975000, -0.452600
  0.977000, -0.449700
  0.979000, -0.446700
  0.981000, -0.443900
  0.983000, -0.441500
  0.985000, -0.439100
  0.987000, -0.436800
  0.989000, -0.434700
  0.991000, -0.432700
  0.993000, -0.430700
  0.995000, -0.428700
  0.997000, -0.426800
  0.999000, -0.425000
  1.001000, -0.423200
  1.003000, -0.421400
  1.005000, -0.419700
  1.007000, -0.418000
  1.009000, -0.416300
  1.011000, -0.414500
  1.013000, -0.412700
  1.015000, -0.410800
  1.017000, -0.408800
  1.019000, -0.406900
  1.021000, -0.405000
  1.023000, -0.403100
  1.025000, -0.401200
  1.027000, -0.399100
  1.029000, -0.397000
  1.031000, -0.394900
  1.033000, -0.392600
  1.035000, -0.390200
  1.037000, -0.387700
  1.039000, -0.385000
  1.041000, -0.382200
  1.043000, -0.379500
  1.045000, -0.376700
  1.047000, -0.373900
  1.049000, -0.370800
  1.051000, -0.367500
  1.053000, -0.364100
  1.055000, -0.360800
  1.057000, -0.357700
  1.059000, -0.354200
  1.061000, -0.350800
  1.063000, -0.347500
  1.065000, -0.344100
  1.067000, -0.340500
  1.069000, -0.336800
  1.071000, -0.333000
  1.073000, -0.329200
  1.075000, -0.325500
  1.077000, -0.321600
  1.079000, -0.317800
  1.081000, -0.313900
  1.083000, -0.309900
  1.085000, -0.306000
  1.087000, -0.302300
  1.089000, -0.298500
  1.091000, -0.294700
  1.093000, -0.291200
  1.095000, -0.287700
  1.097000, -0.284100
  1.099000, -0.280700
  1.101000, -0.277300
  1.103000, -0.274000
  1.105000, -0.270600
  1.107000, -0.267300
  1.109000, -0.264100
  1.111000, -0.261000
  1.113000, -0.258000
  1.115000, -0.254900
  1.117000, -0.252000
  1.119000, -0.249300
  1.121000, -0.246700
  1.123000, -0.244000
  1.125000, -0.241300
  1.127000, -0.238800
  1.129000, -0.236500
  1.131000, -0.234200
  1.133000, -0.232100
  1.135000, -0.230000
  1.137000, -0.228000
  1.139000, -0.226100
  1.141000, -0.224100
  1.143000, -0.222200
  1.145000, -0.220500
  1.147000, -0.218800
  1.149000, -0.217100
  1.151000, -0.215500
  1.153000, -0.213800
  1.155000, -0.212000
  1.157000, -0.210300
  1.159000, -0.208900
  1.161000, -0.207300
  1.163000, -0.205800
  1.165000, -0.204200
  1.167000, -0.202600
  1.169000, -0.201000
  1.171000, -0.199500
  1.173000, -0.198000
  1.175000, -0.196500
  1.177000, -0.194900
  1.179000, -0.193300
  1.181000, -0.191700
  1.183000, -0.190100
  1.185000, -0.188400
  1.187000, -0.186600
  1.189000, -0.184800
  1.191000, -0.183000
  1.193000, -0.181200
  1.195000, -0.179300
  1.197000, -0.177400
  1.199000, -0.175500
  1.201000, -0.173500
  1.203000, -0.171300
  1.205000, -0.169200
  1.207000, -0.167000
  1.209000, -0.164800
  1.211000, -0.162500
  1.213000, -0.160000
  1.215000, -0.157400
  1.217000, -0.154900
  1.219000, -0.152300
  1.221000, -0.149700
  1.223000, -0.146900
  1.225000, -0.144000
  1.227000, -0.141100
  1.229000, -0.138200
  1.231000, -0.135200
  1.233000, -0.132200
  1.235000, -0.129100
  1.237000, -0.125900
  1.239000, -0.122800
  1.241000, -0.119600
  1.243000, -0.116200
  1.245000, -0.112800
  1.247000, -0.109300
  1.249000, -0.105900
  1.251000, -0.102300
  1.253000, -0.098700
  1.255000, -0.095000
  1.257000, -0.091200
  1.259000, -0.087400
  1.261000, -0.083600
  1.263000, -0.079700
  1.265000, -0.075900
  1.267000, -0.071800
  1.269000, -0.067700
  1.271000, -0.063600
  1.273000, -0.059500
  1.275000, -0.055500
  1.277000, -0.051500
  1.279000, -0.047600
  1.281000, -0.043600
  1.283000, -0.039500
  1.285000, -0.035400
  1.287000, -0.031400
  1.289000, -0.027400
  1.291000, -0.023400
  1.293000, -0.019300
  1.295000, -0.015300
  1.297000, -0.011200
  1.299000, -0.007200
  1.301000, -0.003100
  1.303000,  0.001000
  1.305000,  0.005100
  1.307000,  0.009000
  1.309000,  0.012900
  1.311000,  0.016900
  1.313000,  0.020900
  1.315000,  0.024900
  1.317000,  0.028900
  1.319000,  0.032900
  1.321000,  0.036900
  1.323000,  0.040900
  1.325000,  0.045000
  1.327000,  0.049100
  1.329000,  0.053400
  1.331000,  0.057500
  1.333000,  0.061500
  1.335000,  0.065500
  1.337000,  0.069800
  1.339000,  0.074200
  1.341000,  0.078700
  1.343000,  0.083100
  1.345000,  0.087700
  1.347000,  0.092300
  1.349000,  0.096700
  1.351000,  0.101300
  1.353000,  0.106000
  1.355000,  0.110800
  1.357000,  0.115700
  1.359000,  0.120500
  1.361000,  0.125500
  1.363000,  0.130500
  1.365000,  0.135500
  1.367000,  0.140600
  1.369000,  0.145800
  1.371000,  0.151000
  1.373000,  0.156100
  1.375000,  0.161200
  1.377000,  0.166300
  1.379000,  0.171400
  1.381000,  0.176500
  1.383000,  0.181300
  1.385000,  0.186000
  1.387000,  0.190400
  1.389000,  0.194700
  1.391000,  0.198900
  1.393000,  0.202900
  1.395000,  0.206700
  1.397000,  0.210200
  1.399000,  0.213200
