# z (nm)   (kJ/mol)
  0.345000, 10.132000
  0.355000,  8.647600
  0.357000,  8.246800
  0.359000,  7.686300
  0.361000,  7.142200
  0.363000,  6.604200
  0.365000,  6.075700
  0.367000,  5.524700
  0.369000,  4.972000
  0.371000,  4.438500
  0.373000,  3.900400
  0.375000,  3.355200
  0.377000,  2.811600
  0.379000,  2.278400
  0.381000,  1.749600
  0.383000,  1.231200
  0.385000,  0.713400
  0.387000,  0.195000
  0.389000, -0.314100
  0.391000, -0.815300
  0.393000, -1.311300
  0.395000, -1.797700
  0.397000, -2.271400
  0.399000, -2.738000
  0.401000, -3.193200
  0.403000, -3.632800
  0.405000, -4.061000
  0.407000, -4.475600
  0.409000, -4.872100
  0.411000, -5.252300
  0.413000, -5.618200
  0.415000, -5.970200
  0.417000, -6.309900
  0.419000, -6.635400
  0.421000, -6.945100
  0.423000, -7.240200
  0.425000, -7.520600
  0.427000, -7.783100
  0.429000, -8.029300
  0.431000, -8.261600
  0.433000, -8.479100
  0.435000, -8.681800
  0.437000, -8.869200
  0.439000, -9.040500
  0.441000, -9.196100
  0.443000, -9.336900
  0.445000, -9.463100
  0.447000, -9.576000
  0.449000, -9.674800
  0.451000, -9.760000
  0.453000, -9.832400
  0.455000, -9.892000
  0.457000, -9.937500
  0.459000, -9.970200
  0.461000, -9.993300
  0.463000,-10.006300
  0.465000,-10.008900
  0.467000, -9.999700
  0.469000, -9.979700
  0.471000, -9.950900
  0.473000, -9.912800
  0.475000, -9.867100
  0.477000, -9.814600
  0.479000, -9.755400
  0.481000, -9.689700
  0.483000, -9.619100
  0.485000, -9.545700
  0.487000, -9.468200
  0.489000, -9.385000
  0.491000, -9.298700
  0.493000, -9.210300
  0.495000, -9.119300
  0.497000, -9.027700
  0.499000, -8.933400
  0.501000, -8.837100
  0.503000, -8.742400
  0.505000, -8.647300
  0.507000, -8.550800
  0.509000, -8.455100
  0.511000, -8.360900
  0.513000, -8.267300
  0.515000, -8.173700
  0.517000, -8.081000
  0.519000, -7.989500
  0.521000, -7.898900
  0.523000, -7.809600
  0.525000, -7.721800
  0.527000, -7.635000
  0.529000, -7.549200
  0.531000, -7.464400
  0.533000, -7.380400
  0.535000, -7.297200
  0.537000, -7.214900
  0.539000, -7.132900
  0.541000, -7.051500
  0.543000, -6.970700
  0.545000, -6.890900
  0.547000, -6.811200
  0.549000, -6.731600
  0.551000, -6.652400
  0.553000, -6.573100
  0.555000, -6.493500
  0.557000, -6.413900
  0.559000, -6.334100
  0.561000, -6.253800
  0.563000, -6.173300
  0.565000, -6.092600
  0.567000, -6.011700
  0.569000, -5.930300
  0.571000, -5.848500
  0.573000, -5.766200
  0.575000, -5.683100
  0.577000, -5.599300
  0.579000, -5.515000
  0.581000, -5.430300
  0.583000, -5.345100
  0.585000, -5.259500
  0.587000, -5.173400
  0.589000, -5.086900
  0.591000, -4.999900
  0.593000, -4.912700
  0.595000, -4.825500
  0.597000, -4.738300
  0.599000, -4.651000
  0.601000, -4.563600
  0.603000, -4.476400
  0.605000, -4.389300
  0.607000, -4.302500
  0.609000, -4.215700
  0.611000, -4.129400
  0.613000, -4.043600
  0.615000, -3.958200
  0.617000, -3.873200
  0.619000, -3.789200
  0.621000, -3.706100
  0.623000, -3.623900
  0.625000, -3.542400
  0.627000, -3.462200
  0.629000, -3.383300
  0.631000, -3.305300
  0.633000, -3.228500
  0.635000, -3.152700
  0.637000, -3.078200
  0.639000, -3.005300
  0.641000, -2.933900
  0.643000, -2.863800
  0.645000, -2.795500
  0.647000, -2.728900
  0.649000, -2.663600
  0.651000, -2.599900
  0.653000, -2.537900
  0.655000, -2.477400
  0.657000, -2.419000
  0.659000, -2.362400
  0.661000, -2.307300
  0.663000, -2.253800
  0.665000, -2.202200
  0.667000, -2.152400
  0.669000, -2.104500
  0.671000, -2.058300
  0.673000, -2.013500
  0.675000, -1.970600
  0.677000, -1.929400
  0.679000, -1.890000
  0.681000, -1.852300
  0.683000, -1.816200
  0.685000, -1.781600
  0.687000, -1.748500
  0.689000, -1.716900
  0.691000, -1.686900
  0.693000, -1.658300
  0.695000, -1.631500
  0.697000, -1.606100
  0.699000, -1.581800
  0.701000, -1.559100
  0.703000, -1.537400
  0.705000, -1.516900
  0.707000, -1.497700
  0.709000, -1.479500
  0.711000, -1.462400
  0.713000, -1.446300
  0.715000, -1.431000
  0.717000, -1.416700
  0.719000, -1.403600
  0.721000, -1.391600
  0.723000, -1.380200
  0.725000, -1.369400
  0.727000, -1.359200
  0.729000, -1.349600
  0.731000, -1.340600
  0.733000, -1.332200
  0.735000, -1.324300
  0.737000, -1.317100
  0.739000, -1.310300
  0.741000, -1.303900
  0.743000, -1.297900
  0.745000, -1.292300
  0.747000, -1.287000
  0.749000, -1.281800
  0.751000, -1.277100
  0.753000, -1.272800
  0.755000, -1.268700
  0.757000, -1.264600
  0.759000, -1.260800
  0.761000, -1.257300
  0.763000, -1.253800
  0.765000, -1.250100
  0.767000, -1.246600
  0.769000, -1.243100
  0.771000, -1.239800
  0.773000, -1.236700
  0.775000, -1.233500
  0.777000, -1.230300
  0.779000, -1.227200
  0.781000, -1.224000
  0.783000, -1.220900
  0.785000, -1.218000
  0.787000, -1.214900
  0.789000, -1.211900
  0.791000, -1.209000
  0.793000, -1.206200
  0.795000, -1.203500
  0.797000, -1.200800
  0.799000, -1.197900
  0.801000, -1.195100
  0.803000, -1.192300
  0.805000, -1.189400
  0.807000, -1.186500
  0.809000, -1.183600
  0.811000, -1.180600
  0.813000, -1.177800
  0.815000, -1.174800
  0.817000, -1.171700
  0.819000, -1.168600
  0.821000, -1.165500
  0.823000, -1.162400
  0.825000, -1.159100
  0.827000, -1.155500
  0.829000, -1.151800
  0.831000, -1.148100
  0.833000, -1.144400
  0.835000, -1.140600
  0.837000, -1.136600
  0.839000, -1.132600
  0.841000, -1.128300
  0.843000, -1.123900
  0.845000, -1.119200
  0.847000, -1.114400
  0.849000, -1.109300
  0.851000, -1.104100
  0.853000, -1.098900
  0.855000, -1.093400
  0.857000, -1.087700
  0.859000, -1.081800
  0.861000, -1.075600
  0.863000, -1.069200
  0.865000, -1.062600
  0.867000, -1.056000
  0.869000, -1.049100
  0.871000, -1.041900
  0.873000, -1.034500
  0.875000, -1.026900
  0.877000, -1.019100
  0.879000, -1.011200
  0.881000, -1.003200
  0.883000, -0.994900
  0.885000, -0.986300
  0.887000, -0.977700
  0.889000, -0.969000
  0.891000, -0.960200
  0.893000, -0.951100
  0.895000, -0.941900
  0.897000, -0.932500
  0.899000, -0.923100
  0.901000, -0.913600
  0.903000, -0.903900
  0.905000, -0.894100
  0.907000, -0.884200
  0.909000, -0.874300
  0.911000, -0.864300
  0.913000, -0.854200
  0.915000, -0.844000
  0.917000, -0.833700
  0.919000, -0.823300
  0.921000, -0.812800
  0.923000, -0.802300
  0.925000, -0.792000
  0.927000, -0.781800
  0.929000, -0.771300
  0.931000, -0.761000
  0.933000, -0.750600
  0.935000, -0.740300
  0.937000, -0.730000
  0.939000, -0.719600
  0.941000, -0.709200
  0.943000, -0.699000
  0.945000, -0.688700
  0.947000, -0.678400
  0.949000, -0.668400
  0.951000, -0.658300
  0.953000, -0.648400
  0.955000, -0.638600
  0.957000, -0.628700
  0.959000, -0.619100
  0.961000, -0.609600
  0.963000, -0.600100
  0.965000, -0.590800
  0.967000, -0.581700
  0.969000, -0.572700
  0.971000, -0.563800
  0.973000, -0.555000
  0.975000, -0.546400
  0.977000, -0.537900
  0.979000, -0.529400
  0.981000, -0.521200
  0.983000, -0.513200
  0.985000, -0.505200
  0.987000, -0.497300
  0.989000, -0.489500
  0.991000, -0.482000
  0.993000, -0.474500
  0.995000, -0.467000
  0.997000, -0.459700
  0.999000, -0.452600
  1.001000, -0.445500
  1.003000, -0.438800
  1.005000, -0.432400
  1.007000, -0.426100
  1.009000, -0.419800
  1.011000, -0.413700
  1.013000, -0.407900
  1.015000, -0.402200
  1.017000, -0.396600
  1.019000, -0.391100
  1.021000, -0.386000
  1.023000, -0.380800
  1.025000, -0.375600
  1.027000, -0.370700
  1.029000, -0.366000
  1.031000, -0.361400
  1.033000, -0.357100
  1.035000, -0.352700
  1.037000, -0.348400
  1.039000, -0.344200
  1.041000, -0.340000
  1.043000, -0.336000
  1.045000, -0.332300
  1.047000, -0.328700
  1.049000, -0.325300
  1.051000, -0.321900
  1.053000, -0.318500
  1.055000, -0.315400
  1.057000, -0.312300
  1.059000, -0.309400
  1.061000, -0.306600
  1.063000, -0.303800
  1.065000, -0.301200
  1.067000, -0.298600
  1.069000, -0.296000
  1.071000, -0.293500
  1.073000, -0.291000
  1.075000, -0.288700
  1.077000, -0.286500
  1.079000, -0.284300
  1.081000, -0.282200
  1.083000, -0.280200
  1.085000, -0.278300
  1.087000, -0.276500
  1.089000, -0.274700
  1.091000, -0.272900
  1.093000, -0.271100
  1.095000, -0.269300
  1.097000, -0.267600
  1.099000, -0.266100
  1.101000, -0.264700
  1.103000, -0.263100
  1.105000, -0.261600
  1.107000, -0.260100
  1.109000, -0.258700
  1.111000, -0.257300
  1.113000, -0.255900
  1.115000, -0.254500
  1.117000, -0.253100
  1.119000, -0.251800
  1.121000, -0.250500
  1.123000, -0.249300
  1.125000, -0.248100
  1.127000, -0.246700
  1.129000, -0.245400
  1.131000, -0.244100
  1.133000, -0.242700
  1.135000, -0.241200
  1.137000, -0.239600
  1.139000, -0.238000
  1.141000, -0.236300
  1.143000, -0.234700
  1.145000, -0.233000
  1.147000, -0.231100
  1.149000, -0.229200
  1.151000, -0.227300
  1.153000, -0.225400
  1.155000, -0.223300
  1.157000, -0.221300
  1.159000, -0.219200
  1.161000, -0.217000
  1.163000, -0.214800
  1.165000, -0.212500
  1.167000, -0.210000
  1.169000, -0.207500
  1.171000, -0.204700
  1.173000, -0.202000
  1.175000, -0.199300
  1.177000, -0.196400
  1.179000, -0.193400
  1.181000, -0.190400
  1.183000, -0.187500
  1.185000, -0.184400
  1.187000, -0.181200
  1.189000, -0.178000
  1.191000, -0.174700
  1.193000, -0.171500
  1.195000, -0.168100
  1.197000, -0.164600
  1.199000, -0.161000
  1.201000, -0.157400
  1.203000, -0.153700
  1.205000, -0.149900
  1.207000, -0.146000
  1.209000, -0.142300
  1.211000, -0.138500
  1.213000, -0.134600
  1.215000, -0.130600
  1.217000, -0.126700
  1.219000, -0.122700
  1.221000, -0.118800
  1.223000, -0.115000
  1.225000, -0.111200
  1.227000, -0.107400
  1.229000, -0.103600
  1.231000, -0.099700
  1.233000, -0.095800
  1.235000, -0.091900
  1.237000, -0.088100
  1.239000, -0.084400
  1.241000, -0.080700
  1.243000, -0.077100
  1.245000, -0.073600
  1.247000, -0.070200
  1.249000, -0.066800
  1.251000, -0.063300
  1.253000, -0.060000
  1.255000, -0.056900
  1.257000, -0.054000
  1.259000, -0.051000
  1.261000, -0.048000
  1.263000, -0.045100
  1.265000, -0.042400
  1.267000, -0.039500
  1.269000, -0.036800
  1.271000, -0.034200
  1.273000, -0.031800
  1.275000, -0.029500
  1.277000, -0.027000
  1.279000, -0.024700
  1.281000, -0.022400
  1.283000, -0.020300
  1.285000, -0.018100
  1.287000, -0.015900
  1.289000, -0.013700
  1.291000, -0.011700
  1.293000, -0.009700
  1.295000, -0.007900
  1.297000, -0.006000
  1.299000, -0.003900
  1.301000, -0.001900
  1.303000, -0.000000
  1.305000,  0.001900
  1.307000,  0.003800
  1.309000,  0.005800
  1.311000,  0.007800
  1.313000,  0.009900
  1.315000,  0.012000
  1.317000,  0.014200
  1.319000,  0.016500
  1.321000,  0.018700
  1.323000,  0.021000
  1.325000,  0.023600
  1.327000,  0.026200
  1.329000,  0.028900
  1.331000,  0.031600
  1.333000,  0.034400
  1.335000,  0.037300
  1.337000,  0.040300
  1.339000,  0.043400
  1.341000,  0.046800
  1.343000,  0.050300
  1.345000,  0.053900
  1.347000,  0.057600
  1.349000,  0.061400
  1.351000,  0.065400
  1.353000,  0.069600
  1.355000,  0.073900
  1.357000,  0.078300
  1.359000,  0.082900
  1.361000,  0.087400
  1.363000,  0.092300
  1.365000,  0.097200
  1.367000,  0.102000
  1.369000,  0.106900
  1.371000,  0.112000
  1.373000,  0.117300
  1.375000,  0.122700
  1.377000,  0.128100
  1.379000,  0.133500
  1.381000,  0.138800
  1.383000,  0.144000
  1.385000,  0.149500
  1.387000,  0.154700
  1.389000,  0.159900
  1.391000,  0.165100
  1.393000,  0.169900
  1.395000,  0.174400
  1.397000,  0.178700
  1.399000,  0.182700
