# z (nm)   (kJ/mol)
  0.259000,  4.755400
  0.261000,  3.993200
  0.263000,  3.226100
  0.265000,  2.445400
  0.267000,  1.646300
  0.269000,  0.808600
  0.271000,  0.001400
  0.273000, -0.786400
  0.275000, -1.594100
  0.277000, -2.399500
  0.279000, -3.216800
  0.281000, -4.044800
  0.283000, -4.879300
  0.285000, -5.714600
  0.287000, -6.546500
  0.289000, -7.377100
  0.291000, -8.199300
  0.293000, -9.013900
  0.295000, -9.820600
  0.297000,-10.617500
  0.299000,-11.402600
  0.301000,-12.177400
  0.303000,-12.938100
  0.305000,-13.682800
  0.307000,-14.412800
  0.309000,-15.124000
  0.311000,-15.818900
  0.313000,-16.494900
  0.315000,-17.149200
  0.317000,-17.785700
  0.319000,-18.404700
  0.321000,-19.001300
  0.323000,-19.572100
  0.325000,-20.118100
  0.327000,-20.639000
  0.329000,-21.133600
  0.331000,-21.602500
  0.333000,-22.047400
  0.335000,-22.463800
  0.337000,-22.849200
  0.339000,-23.206400
  0.341000,-23.534200
  0.343000,-23.832600
  0.345000,-24.102400
  0.347000,-24.342800
  0.349000,-24.553100
  0.351000,-24.733700
  0.353000,-24.884600
  0.355000,-25.005900
  0.357000,-25.097000
  0.359000,-25.158600
  0.361000,-25.192100
  0.363000,-25.196600
  0.365000,-25.174400
  0.367000,-25.126000
  0.369000,-25.050800
  0.371000,-24.950600
  0.373000,-24.825800
  0.375000,-24.675200
  0.377000,-24.501300
  0.379000,-24.307000
  0.381000,-24.092600
  0.383000,-23.858200
  0.385000,-23.607000
  0.387000,-23.339600
  0.389000,-23.054700
  0.391000,-22.755100
  0.393000,-22.442300
  0.395000,-22.117200
  0.397000,-21.781400
  0.399000,-21.436700
  0.401000,-21.083700
  0.403000,-20.722600
  0.405000,-20.356500
  0.407000,-19.986000
  0.409000,-19.611200
  0.411000,-19.233900
  0.413000,-18.855000
  0.415000,-18.475900
  0.417000,-18.097100
  0.419000,-17.719700
  0.421000,-17.345000
  0.423000,-16.973400
  0.425000,-16.605300
  0.427000,-16.241300
  0.429000,-15.882400
  0.431000,-15.529900
  0.433000,-15.183800
  0.435000,-14.844400
  0.437000,-14.512200
  0.439000,-14.187700
  0.441000,-13.871300
  0.443000,-13.563000
  0.445000,-13.263500
  0.447000,-12.972900
  0.449000,-12.691700
  0.451000,-12.419800
  0.453000,-12.156600
  0.455000,-11.902700
  0.457000,-11.658600
  0.459000,-11.424000
  0.461000,-11.198700
  0.463000,-10.982600
  0.465000,-10.775800
  0.467000,-10.578300
  0.469000,-10.389700
  0.471000,-10.209900
  0.473000,-10.038200
  0.475000, -9.874900
  0.477000, -9.720300
  0.479000, -9.573100
  0.481000, -9.433600
  0.483000, -9.301800
  0.485000, -9.176900
  0.487000, -9.058700
  0.489000, -8.946700
  0.491000, -8.840500
  0.493000, -8.740700
  0.495000, -8.646600
  0.497000, -8.556600
  0.499000, -8.471400
  0.501000, -8.390700
  0.503000, -8.314200
  0.505000, -8.241400
  0.507000, -8.171900
  0.509000, -8.105500
  0.511000, -8.041600
  0.513000, -7.980400
  0.515000, -7.921300
  0.517000, -7.863400
  0.519000, -7.807000
  0.521000, -7.752200
  0.523000, -7.698200
  0.525000, -7.644500
  0.527000, -7.590900
  0.529000, -7.537200
  0.531000, -7.483500
  0.533000, -7.429600
  0.535000, -7.375300
  0.537000, -7.320300
  0.539000, -7.264400
  0.541000, -7.207500
  0.543000, -7.149500
  0.545000, -7.090200
  0.547000, -7.029500
  0.549000, -6.967300
  0.551000, -6.903500
  0.553000, -6.838200
  0.555000, -6.771100
  0.557000, -6.702500
  0.559000, -6.632300
  0.561000, -6.560400
  0.563000, -6.486900
  0.565000, -6.411900
  0.567000, -6.335100
  0.569000, -6.256700
  0.571000, -6.177100
  0.573000, -6.096100
  0.575000, -6.013900
  0.577000, -5.930600
  0.579000, -5.846200
  0.581000, -5.760800
  0.583000, -5.674700
  0.585000, -5.588000
  0.587000, -5.500500
  0.589000, -5.412600
  0.591000, -5.324400
  0.593000, -5.236300
  0.595000, -5.148200
  0.597000, -5.060500
  0.599000, -4.973400
  0.601000, -4.886000
  0.603000, -4.799300
  0.605000, -4.713400
  0.607000, -4.628500
  0.609000, -4.544300
  0.611000, -4.461100
  0.613000, -4.380000
  0.615000, -4.300600
  0.617000, -4.222600
  0.619000, -4.146100
  0.621000, -4.071100
  0.623000, -3.997800
  0.625000, -3.925900
  0.627000, -3.855500
  0.629000, -3.787400
  0.631000, -3.721500
  0.633000, -3.657000
  0.635000, -3.594600
  0.637000, -3.534200
  0.639000, -3.476000
  0.641000, -3.419600
  0.643000, -3.364700
  0.645000, -3.311600
  0.647000, -3.260200
  0.649000, -3.210600
  0.651000, -3.162700
  0.653000, -3.116900
  0.655000, -3.073100
  0.657000, -3.030900
  0.659000, -2.990100
  0.661000, -2.950800
  0.663000, -2.913000
  0.665000, -2.876600
  0.667000, -2.841300
  0.669000, -2.807200
  0.671000, -2.774200
  0.673000, -2.742300
  0.675000, -2.711200
  0.677000, -2.681100
  0.679000, -2.651900
  0.681000, -2.623100
  0.683000, -2.594900
  0.685000, -2.566900
  0.687000, -2.539400
  0.689000, -2.512500
  0.691000, -2.486000
  0.693000, -2.459700
  0.695000, -2.434100
  0.697000, -2.408900
  0.699000, -2.383900
  0.701000, -2.359500
  0.703000, -2.335100
  0.705000, -2.310900
  0.707000, -2.287100
  0.709000, -2.263200
  0.711000, -2.239100
  0.713000, -2.215200
  0.715000, -2.191600
  0.717000, -2.167800
  0.719000, -2.143500
  0.721000, -2.119600
  0.723000, -2.096200
  0.725000, -2.072900
  0.727000, -2.049800
  0.729000, -2.026900
  0.731000, -2.003800
  0.733000, -1.980900
  0.735000, -1.958400
  0.737000, -1.936000
  0.739000, -1.913800
  0.741000, -1.892200
  0.743000, -1.871000
  0.745000, -1.849700
  0.747000, -1.828400
  0.749000, -1.807900
  0.751000, -1.788100
  0.753000, -1.768300
  0.755000, -1.748700
  0.757000, -1.729700
  0.759000, -1.710900
  0.761000, -1.692700
  0.763000, -1.675100
  0.765000, -1.657700
  0.767000, -1.640400
  0.769000, -1.623400
  0.771000, -1.607000
  0.773000, -1.591100
  0.775000, -1.575300
  0.777000, -1.559800
  0.779000, -1.544600
  0.781000, -1.529700
  0.783000, -1.515000
  0.785000, -1.500600
  0.787000, -1.486500
  0.789000, -1.472500
  0.791000, -1.458500
  0.793000, -1.444400
  0.795000, -1.430500
  0.797000, -1.416700
  0.799000, -1.402500
  0.801000, -1.388500
  0.803000, -1.374700
  0.805000, -1.360900
  0.807000, -1.347200
  0.809000, -1.333200
  0.811000, -1.318800
  0.813000, -1.304200
  0.815000, -1.289600
  0.817000, -1.274900
  0.819000, -1.260000
  0.821000, -1.244600
  0.823000, -1.228900
  0.825000, -1.213100
  0.827000, -1.197100
  0.829000, -1.180900
  0.831000, -1.164200
  0.833000, -1.147200
  0.835000, -1.129900
  0.837000, -1.112300
  0.839000, -1.094600
  0.841000, -1.076600
  0.843000, -1.058400
  0.845000, -1.040000
  0.847000, -1.021500
  0.849000, -1.003000
  0.851000, -0.984200
  0.853000, -0.965100
  0.855000, -0.945900
  0.857000, -0.926700
  0.859000, -0.907600
  0.861000, -0.888100
  0.863000, -0.868600
  0.865000, -0.849200
  0.867000, -0.829700
  0.869000, -0.810300
  0.871000, -0.791100
  0.873000, -0.772000
  0.875000, -0.753000
  0.877000, -0.734200
  0.879000, -0.715600
  0.881000, -0.697400
  0.883000, -0.679400
  0.885000, -0.661700
  0.887000, -0.644400
  0.889000, -0.627600
  0.891000, -0.611200
  0.893000, -0.594900
  0.895000, -0.579200
  0.897000, -0.564000
  0.899000, -0.549200
  0.901000, -0.534900
  0.903000, -0.521100
  0.905000, -0.507900
  0.907000, -0.495200
  0.909000, -0.483000
  0.911000, -0.471400
  0.913000, -0.460400
  0.915000, -0.449800
  0.917000, -0.439800
  0.919000, -0.430400
  0.921000, -0.421400
  0.923000, -0.413000
  0.925000, -0.405300
  0.927000, -0.398000
  0.929000, -0.391300
  0.931000, -0.385100
  0.933000, -0.379700
  0.935000, -0.374800
  0.937000, -0.370300
  0.939000, -0.366200
  0.941000, -0.362500
  0.943000, -0.359300
  0.945000, -0.356600
  0.947000, -0.354300
  0.949000, -0.352400
  0.951000, -0.350700
  0.953000, -0.349500
  0.955000, -0.348700
  0.957000, -0.348200
  0.959000, -0.347900
  0.961000, -0.347900
  0.963000, -0.347900
  0.965000, -0.348100
  0.967000, -0.348600
  0.969000, -0.349200
  0.971000, -0.350000
  0.973000, -0.351000
  0.975000, -0.352000
  0.977000, -0.353000
  0.979000, -0.354000
  0.981000, -0.354900
  0.983000, -0.355900
  0.985000, -0.357000
  0.987000, -0.358100
  0.989000, -0.359300
  0.991000, -0.360300
  0.993000, -0.361100
  0.995000, -0.361800
  0.997000, -0.362600
  0.999000, -0.363100
  1.001000, -0.363800
  1.003000, -0.364200
  1.005000, -0.364400
  1.007000, -0.364700
  1.009000, -0.364800
  1.011000, -0.364500
  1.013000, -0.364200
  1.015000, -0.363800
  1.017000, -0.363100
  1.019000, -0.362200
  1.021000, -0.361100
  1.023000, -0.359900
  1.025000, -0.358500
  1.027000, -0.356900
  1.029000, -0.355300
  1.031000, -0.353500
  1.033000, -0.351500
  1.035000, -0.349400
  1.037000, -0.347100
  1.039000, -0.344600
  1.041000, -0.342100
  1.043000, -0.339300
  1.045000, -0.336500
  1.047000, -0.333700
  1.049000, -0.330700
  1.051000, -0.327500
  1.053000, -0.324100
  1.055000, -0.320700
  1.057000, -0.317200
  1.059000, -0.313600
  1.061000, -0.309900
  1.063000, -0.306100
  1.065000, -0.302200
  1.067000, -0.298200
  1.069000, -0.294100
  1.071000, -0.290000
  1.073000, -0.285900
  1.075000, -0.281600
  1.077000, -0.277400
  1.079000, -0.273100
  1.081000, -0.268900
  1.083000, -0.264600
  1.085000, -0.260200
  1.087000, -0.255800
  1.089000, -0.251400
  1.091000, -0.246800
  1.093000, -0.242300
  1.095000, -0.237800
  1.097000, -0.233200
  1.099000, -0.228800
  1.101000, -0.224500
  1.103000, -0.220100
  1.105000, -0.215700
  1.107000, -0.211300
  1.109000, -0.206800
  1.111000, -0.202400
  1.113000, -0.198000
  1.115000, -0.193600
  1.117000, -0.189300
  1.119000, -0.185000
  1.121000, -0.180800
  1.123000, -0.176700
  1.125000, -0.172500
  1.127000, -0.168400
  1.129000, -0.164300
  1.131000, -0.160300
  1.133000, -0.156400
  1.135000, -0.152600
  1.137000, -0.148900
  1.139000, -0.145300
  1.141000, -0.141800
  1.143000, -0.138300
  1.145000, -0.134900
  1.147000, -0.131400
  1.149000, -0.128100
  1.151000, -0.125000
  1.153000, -0.121800
  1.155000, -0.118800
  1.157000, -0.115900
  1.159000, -0.113100
  1.161000, -0.110500
  1.163000, -0.107900
  1.165000, -0.105300
  1.167000, -0.102800
  1.169000, -0.100400
  1.171000, -0.098100
  1.173000, -0.095900
  1.175000, -0.093800
  1.177000, -0.091800
  1.179000, -0.089800
  1.181000, -0.087900
  1.183000, -0.085900
  1.185000, -0.084000
  1.187000, -0.082400
  1.189000, -0.080600
  1.191000, -0.079000
  1.193000, -0.077300
  1.195000, -0.075700
  1.197000, -0.074100
  1.199000, -0.072500
  1.201000, -0.071100
  1.203000, -0.069700
  1.205000, -0.068400
  1.207000, -0.067100
  1.209000, -0.065700
  1.211000, -0.064400
  1.213000, -0.063000
  1.215000, -0.061500
  1.217000, -0.060000
  1.219000, -0.058500
  1.221000, -0.057200
  1.223000, -0.055900
  1.225000, -0.054400
  1.227000, -0.052800
  1.229000, -0.051200
  1.231000, -0.049500
  1.233000, -0.047900
  1.235000, -0.046300
  1.237000, -0.044800
  1.239000, -0.043300
  1.241000, -0.041600
  1.243000, -0.040100
  1.245000, -0.038500
  1.247000, -0.037000
  1.249000, -0.035500
  1.251000, -0.033900
  1.253000, -0.032200
  1.255000, -0.030500
  1.257000, -0.028800
  1.259000, -0.027200
  1.261000, -0.025600
  1.263000, -0.024000
  1.265000, -0.022400
  1.267000, -0.020900
  1.269000, -0.019400
  1.271000, -0.018000
  1.273000, -0.016600
  1.275000, -0.015300
  1.277000, -0.014000
  1.279000, -0.012800
  1.281000, -0.011500
  1.283000, -0.010300
  1.285000, -0.009200
  1.287000, -0.008200
  1.289000, -0.007100
  1.291000, -0.006100
  1.293000, -0.005000
  1.295000, -0.004000
  1.297000, -0.003100
  1.299000, -0.002300
  1.301000, -0.001500
  1.303000, -0.000700
  1.305000,  0.000100
  1.307000,  0.000900
  1.309000,  0.001700
  1.311000,  0.002500
  1.313000,  0.003400
  1.315000,  0.004200
  1.317000,  0.005100
  1.319000,  0.006100
  1.321000,  0.007000
  1.323000,  0.008000
  1.325000,  0.009100
  1.327000,  0.010200
  1.329000,  0.011300
  1.331000,  0.012600
  1.333000,  0.013900
  1.335000,  0.015400
  1.337000,  0.016900
  1.339000,  0.018600
  1.341000,  0.020300
  1.343000,  0.022000
  1.345000,  0.024000
  1.347000,  0.026000
  1.349000,  0.028000
  1.351000,  0.030100
  1.353000,  0.032400
  1.355000,  0.034800
  1.357000,  0.037400
  1.359000,  0.040200
  1.361000,  0.043100
  1.363000,  0.045900
  1.365000,  0.048800
  1.367000,  0.051700
  1.369000,  0.054800
  1.371000,  0.057800
  1.373000,  0.060600
  1.375000,  0.063600
  1.377000,  0.066600
  1.379000,  0.069400
  1.381000,  0.072300
  1.383000,  0.075200
  1.385000,  0.077900
  1.387000,  0.080500
  1.389000,  0.083000
  1.391000,  0.085400
  1.393000,  0.087500
  1.395000,  0.089200
  1.397000,  0.090600
  1.399000,  0.091500
