# z (nm)   (kJ/mol)
  0.241000,  9.417500
  0.243000,  8.852000
  0.245000,  8.267300
  0.247000,  7.663200
  0.249000,  7.068100
  0.251000,  6.488700
  0.253000,  5.884000
  0.255000,  5.250700
  0.257000,  4.619200
  0.259000,  3.990500
  0.261000,  3.347800
  0.263000,  2.693700
  0.265000,  2.043600
  0.267000,  1.398900
  0.269000,  0.749800
  0.271000,  0.100800
  0.273000, -0.543800
  0.275000, -1.182200
  0.277000, -1.813100
  0.279000, -2.432400
  0.281000, -3.047200
  0.283000, -3.658200
  0.285000, -4.265300
  0.287000, -4.866700
  0.289000, -5.450800
  0.291000, -6.022600
  0.293000, -6.585300
  0.295000, -7.135100
  0.297000, -7.668700
  0.299000, -8.183300
  0.301000, -8.684500
  0.303000, -9.173900
  0.305000, -9.643300
  0.307000,-10.090100
  0.309000,-10.518700
  0.311000,-10.929500
  0.313000,-11.324700
  0.315000,-11.699500
  0.317000,-12.052200
  0.319000,-12.386600
  0.321000,-12.702100
  0.323000,-12.996400
  0.325000,-13.269500
  0.327000,-13.521100
  0.329000,-13.751200
  0.331000,-13.959400
  0.333000,-14.146100
  0.335000,-14.312000
  0.337000,-14.456800
  0.339000,-14.580200
  0.341000,-14.683000
  0.343000,-14.765800
  0.345000,-14.828200
  0.347000,-14.869700
  0.349000,-14.890200
  0.351000,-14.892200
  0.353000,-14.875700
  0.355000,-14.841400
  0.357000,-14.790900
  0.359000,-14.723900
  0.361000,-14.641600
  0.363000,-14.544200
  0.365000,-14.432200
  0.367000,-14.306200
  0.369000,-14.167600
  0.371000,-14.018300
  0.373000,-13.859000
  0.375000,-13.689900
  0.377000,-13.511200
  0.379000,-13.326200
  0.381000,-13.135600
  0.383000,-12.939100
  0.385000,-12.738300
  0.387000,-12.534500
  0.389000,-12.327000
  0.391000,-12.116200
  0.393000,-11.904600
  0.395000,-11.692400
  0.397000,-11.480800
  0.399000,-11.269800
  0.401000,-11.060200
  0.403000,-10.852700
  0.405000,-10.648000
  0.407000,-10.446000
  0.409000,-10.247100
  0.411000,-10.052100
  0.413000, -9.861100
  0.415000, -9.674400
  0.417000, -9.492100
  0.419000, -9.314600
  0.421000, -9.141400
  0.423000, -8.973000
  0.425000, -8.809400
  0.427000, -8.650300
  0.429000, -8.495900
  0.431000, -8.345800
  0.433000, -8.199800
  0.435000, -8.057400
  0.437000, -7.918100
  0.439000, -7.782500
  0.441000, -7.650000
  0.443000, -7.520400
  0.445000, -7.394000
  0.447000, -7.269600
  0.449000, -7.147200
  0.451000, -7.026900
  0.453000, -6.908500
  0.455000, -6.791000
  0.457000, -6.673600
  0.459000, -6.557000
  0.461000, -6.441200
  0.463000, -6.324800
  0.465000, -6.207900
  0.467000, -6.090500
  0.469000, -5.972000
  0.471000, -5.852300
  0.473000, -5.731300
  0.475000, -5.608900
  0.477000, -5.484600
  0.479000, -5.358500
  0.481000, -5.230500
  0.483000, -5.100500
  0.485000, -4.968300
  0.487000, -4.833900
  0.489000, -4.697200
  0.491000, -4.558600
  0.493000, -4.418300
  0.495000, -4.275500
  0.497000, -4.130500
  0.499000, -3.983700
  0.501000, -3.834800
  0.503000, -3.684700
  0.505000, -3.532900
  0.507000, -3.379800
  0.509000, -3.225600
  0.511000, -3.069900
  0.513000, -2.912000
  0.515000, -2.754500
  0.517000, -2.599000
  0.519000, -2.442800
  0.521000, -2.286700
  0.523000, -2.131800
  0.525000, -1.977300
  0.527000, -1.824100
  0.529000, -1.672000
  0.531000, -1.522900
  0.533000, -1.377300
  0.535000, -1.233200
  0.537000, -1.092000
  0.539000, -0.955000
  0.541000, -0.821600
  0.543000, -0.692400
  0.545000, -0.567000
  0.547000, -0.444500
  0.549000, -0.327000
  0.551000, -0.216700
  0.553000, -0.111300
  0.555000, -0.010900
  0.557000,  0.082500
  0.559000,  0.170000
  0.561000,  0.251900
  0.563000,  0.326900
  0.565000,  0.395300
  0.567000,  0.458100
  0.569000,  0.514300
  0.571000,  0.563300
  0.573000,  0.605900
  0.575000,  0.642500
  0.577000,  0.672600
  0.579000,  0.695900
  0.581000,  0.712700
  0.583000,  0.723000
  0.585000,  0.727000
  0.587000,  0.724900
  0.589000,  0.717000
  0.591000,  0.703500
  0.593000,  0.684200
  0.595000,  0.659500
  0.597000,  0.630000
  0.599000,  0.595900
  0.601000,  0.556900
  0.603000,  0.513300
  0.605000,  0.465700
  0.607000,  0.414600
  0.609000,  0.359200
  0.611000,  0.300500
  0.613000,  0.239800
  0.615000,  0.175500
  0.617000,  0.108400
  0.619000,  0.039500
  0.621000, -0.031100
  0.623000, -0.103600
  0.625000, -0.177400
  0.627000, -0.252400
  0.629000, -0.328600
  0.631000, -0.405700
  0.633000, -0.482900
  0.635000, -0.559500
  0.637000, -0.636500
  0.639000, -0.713800
  0.641000, -0.789700
  0.643000, -0.864000
  0.645000, -0.937800
  0.647000, -1.010500
  0.649000, -1.082100
  0.651000, -1.151700
  0.653000, -1.219900
  0.655000, -1.286800
  0.657000, -1.351200
  0.659000, -1.413800
  0.661000, -1.474600
  0.663000, -1.532700
  0.665000, -1.588200
  0.667000, -1.641300
  0.669000, -1.692100
  0.671000, -1.740100
  0.673000, -1.785100
  0.675000, -1.827400
  0.677000, -1.867000
  0.679000, -1.903800
  0.681000, -1.937800
  0.683000, -1.969000
  0.685000, -1.997400
  0.687000, -2.022800
  0.689000, -2.045800
  0.691000, -2.066000
  0.693000, -2.083200
  0.695000, -2.097900
  0.697000, -2.110100
  0.699000, -2.119500
  0.701000, -2.126200
  0.703000, -2.130500
  0.705000, -2.132300
  0.707000, -2.131500
  0.709000, -2.128400
  0.711000, -2.123100
  0.713000, -2.115600
  0.715000, -2.106200
  0.717000, -2.095000
  0.719000, -2.081600
  0.721000, -2.066300
  0.723000, -2.049100
  0.725000, -2.030400
  0.727000, -2.010100
  0.729000, -1.988100
  0.731000, -1.964400
  0.733000, -1.939700
  0.735000, -1.913900
  0.737000, -1.886900
  0.739000, -1.859000
  0.741000, -1.830000
  0.743000, -1.799900
  0.745000, -1.768800
  0.747000, -1.737300
  0.749000, -1.705000
  0.751000, -1.671800
  0.753000, -1.638100
  0.755000, -1.604000
  0.757000, -1.569500
  0.759000, -1.534400
  0.761000, -1.498700
  0.763000, -1.463000
  0.765000, -1.427000
  0.767000, -1.390600
  0.769000, -1.354100
  0.771000, -1.317500
  0.773000, -1.280800
  0.775000, -1.243800
  0.777000, -1.207000
  0.779000, -1.170300
  0.781000, -1.133700
  0.783000, -1.097200
  0.785000, -1.060600
  0.787000, -1.024100
  0.789000, -0.987900
  0.791000, -0.951900
  0.793000, -0.916400
  0.795000, -0.881200
  0.797000, -0.846100
  0.799000, -0.811100
  0.801000, -0.776500
  0.803000, -0.742400
  0.805000, -0.708600
  0.807000, -0.675300
  0.809000, -0.642400
  0.811000, -0.610000
  0.813000, -0.577900
  0.815000, -0.546300
  0.817000, -0.515300
  0.819000, -0.484800
  0.821000, -0.454900
  0.823000, -0.425500
  0.825000, -0.396900
  0.827000, -0.368900
  0.829000, -0.341500
  0.831000, -0.314600
  0.833000, -0.288300
  0.835000, -0.262700
  0.837000, -0.238000
  0.839000, -0.214000
  0.841000, -0.190900
  0.843000, -0.168700
  0.845000, -0.147400
  0.847000, -0.126700
  0.849000, -0.106900
  0.851000, -0.087900
  0.853000, -0.069800
  0.855000, -0.052500
  0.857000, -0.036100
  0.859000, -0.020500
  0.861000, -0.005900
  0.863000,  0.007600
  0.865000,  0.020200
  0.867000,  0.032000
  0.869000,  0.042900
  0.871000,  0.052900
  0.873000,  0.062100
  0.875000,  0.070200
  0.877000,  0.077400
  0.879000,  0.083500
  0.881000,  0.088800
  0.883000,  0.093200
  0.885000,  0.096600
  0.887000,  0.099200
  0.889000,  0.100900
  0.891000,  0.101800
  0.893000,  0.101800
  0.895000,  0.100800
  0.897000,  0.099200
  0.899000,  0.096900
  0.901000,  0.093900
  0.903000,  0.090200
  0.905000,  0.085700
  0.907000,  0.080500
  0.909000,  0.074500
  0.911000,  0.068100
  0.913000,  0.061200
  0.915000,  0.053800
  0.917000,  0.045800
  0.919000,  0.037400
  0.921000,  0.028400
  0.923000,  0.018900
  0.925000,  0.009300
  0.927000, -0.000500
  0.929000, -0.010600
  0.931000, -0.021100
  0.933000, -0.031900
  0.935000, -0.042900
  0.937000, -0.054100
  0.939000, -0.065400
  0.941000, -0.076800
  0.943000, -0.088100
  0.945000, -0.099500
  0.947000, -0.111000
  0.949000, -0.122300
  0.951000, -0.133400
  0.953000, -0.144400
  0.955000, -0.155500
  0.957000, -0.166400
  0.959000, -0.177000
  0.961000, -0.187300
  0.963000, -0.197600
  0.965000, -0.207800
  0.967000, -0.217700
  0.969000, -0.227400
  0.971000, -0.236600
  0.973000, -0.245600
  0.975000, -0.254300
  0.977000, -0.262700
  0.979000, -0.270800
  0.981000, -0.278600
  0.983000, -0.286000
  0.985000, -0.293000
  0.987000, -0.299600
  0.989000, -0.305900
  0.991000, -0.311900
  0.993000, -0.317500
  0.995000, -0.322700
  0.997000, -0.327600
  0.999000, -0.332100
  1.001000, -0.336300
  1.003000, -0.340000
  1.005000, -0.343400
  1.007000, -0.346400
  1.009000, -0.349100
  1.011000, -0.351400
  1.013000, -0.353400
  1.015000, -0.355000
  1.017000, -0.356200
  1.019000, -0.357000
  1.021000, -0.357600
  1.023000, -0.357700
  1.025000, -0.357600
  1.027000, -0.357100
  1.029000, -0.356300
  1.031000, -0.355200
  1.033000, -0.353800
  1.035000, -0.352200
  1.037000, -0.350200
  1.039000, -0.347900
  1.041000, -0.345300
  1.043000, -0.342500
  1.045000, -0.339400
  1.047000, -0.336000
  1.049000, -0.332300
  1.051000, -0.328300
  1.053000, -0.324200
  1.055000, -0.319700
  1.057000, -0.315000
  1.059000, -0.310100
  1.061000, -0.304900
  1.063000, -0.299400
  1.065000, -0.293700
  1.067000, -0.287800
  1.069000, -0.281800
  1.071000, -0.275600
  1.073000, -0.269300
  1.075000, -0.262800
  1.077000, -0.256100
  1.079000, -0.249200
  1.081000, -0.242200
  1.083000, -0.235100
  1.085000, -0.228000
  1.087000, -0.220600
  1.089000, -0.213100
  1.091000, -0.205500
  1.093000, -0.197800
  1.095000, -0.190000
  1.097000, -0.182200
  1.099000, -0.174300
  1.101000, -0.166400
  1.103000, -0.158500
  1.105000, -0.150400
  1.107000, -0.142300
  1.109000, -0.134300
  1.111000, -0.126200
  1.113000, -0.118200
  1.115000, -0.110200
  1.117000, -0.102200
  1.119000, -0.094200
  1.121000, -0.086300
  1.123000, -0.078500
  1.125000, -0.070700
  1.127000, -0.062900
  1.129000, -0.055200
  1.131000, -0.047600
  1.133000, -0.040200
  1.135000, -0.032900
  1.137000, -0.025800
  1.139000, -0.018800
  1.141000, -0.011800
  1.143000, -0.004900
  1.145000,  0.001700
  1.147000,  0.008200
  1.149000,  0.014400
  1.151000,  0.020500
  1.153000,  0.026500
  1.155000,  0.032400
  1.157000,  0.037900
  1.159000,  0.043300
  1.161000,  0.048400
  1.163000,  0.053300
  1.165000,  0.058100
  1.167000,  0.062600
  1.169000,  0.066900
  1.171000,  0.071000
  1.173000,  0.074900
  1.175000,  0.078700
  1.177000,  0.082100
  1.179000,  0.085300
  1.181000,  0.088300
  1.183000,  0.091100
  1.185000,  0.093700
  1.187000,  0.095900
  1.189000,  0.097800
  1.191000,  0.099600
  1.193000,  0.101200
  1.195000,  0.102400
  1.197000,  0.103500
  1.199000,  0.104300
  1.201000,  0.104800
  1.203000,  0.105100
  1.205000,  0.105200
  1.207000,  0.105000
  1.209000,  0.104600
  1.211000,  0.104000
  1.213000,  0.103200
  1.215000,  0.102100
  1.217000,  0.100700
  1.219000,  0.099200
  1.221000,  0.097400
  1.223000,  0.095500
  1.225000,  0.093400
  1.227000,  0.091200
  1.229000,  0.088800
  1.231000,  0.086100
  1.233000,  0.083200
  1.235000,  0.080300
  1.237000,  0.077300
  1.239000,  0.074100
  1.241000,  0.070800
  1.243000,  0.067400
  1.245000,  0.063800
  1.247000,  0.060200
  1.249000,  0.056400
  1.251000,  0.052500
  1.253000,  0.048600
  1.255000,  0.044700
  1.257000,  0.040700
  1.259000,  0.036700
  1.261000,  0.032700
  1.263000,  0.028800
  1.265000,  0.024700
  1.267000,  0.020500
  1.269000,  0.016500
  1.271000,  0.012500
  1.273000,  0.008500
  1.275000,  0.004500
  1.277000,  0.000500
  1.279000, -0.003400
  1.281000, -0.007200
  1.283000, -0.011200
  1.285000, -0.015000
  1.287000, -0.018600
  1.289000, -0.022000
  1.291000, -0.025500
  1.293000, -0.028900
  1.295000, -0.032200
  1.297000, -0.035300
  1.299000, -0.038300
  1.301000, -0.041200
  1.303000, -0.043900
  1.305000, -0.046500
  1.307000, -0.048900
  1.309000, -0.051100
  1.311000, -0.053200
  1.313000, -0.055200
  1.315000, -0.057000
  1.317000, -0.058600
  1.319000, -0.060000
  1.321000, -0.061200
  1.323000, -0.062200
  1.325000, -0.063100
  1.327000, -0.063800
  1.329000, -0.064300
  1.331000, -0.064700
  1.333000, -0.064800
  1.335000, -0.064700
  1.337000, -0.064500
  1.339000, -0.064000
  1.341000, -0.063400
  1.343000, -0.062600
  1.345000, -0.061700
  1.347000, -0.060700
  1.349000, -0.059500
  1.351000, -0.058200
  1.353000, -0.056900
  1.355000, -0.055400
  1.357000, -0.053800
  1.359000, -0.052000
  1.361000, -0.050100
  1.363000, -0.048200
  1.365000, -0.046300
  1.367000, -0.044400
  1.369000, -0.042400
  1.371000, -0.040500
  1.373000, -0.038500
  1.375000, -0.036600
  1.377000, -0.034800
  1.379000, -0.033000
  1.381000, -0.031300
  1.383000, -0.029800
  1.385000, -0.028300
  1.387000, -0.027100
  1.389000, -0.026000
  1.391000, -0.025300
  1.393000, -0.024800
  1.395000, -0.024700
  1.397000, -0.025000
  1.399000, -0.025700
