# z (nm)   (kJ/mol)
  0.259000, 14.168900
  0.263000, 13.844400
  0.265000, 13.509600
  0.267000, 13.150000
  0.269000, 12.761700
  0.271000, 12.370500
  0.273000, 11.978500
  0.275000, 11.563300
  0.277000, 11.129900
  0.279000, 10.698000
  0.281000, 10.264900
  0.283000,  9.822100
  0.285000,  9.365700
  0.287000,  8.908000
  0.289000,  8.455400
  0.291000,  8.013900
  0.293000,  7.574300
  0.295000,  7.131300
  0.297000,  6.685700
  0.299000,  6.241600
  0.301000,  5.802400
  0.303000,  5.362600
  0.305000,  4.932100
  0.307000,  4.508500
  0.309000,  4.079600
  0.311000,  3.656500
  0.313000,  3.242800
  0.315000,  2.832300
  0.317000,  2.433000
  0.319000,  2.043200
  0.321000,  1.660100
  0.323000,  1.287200
  0.325000,  0.920600
  0.327000,  0.562900
  0.329000,  0.214400
  0.331000, -0.125000
  0.333000, -0.455200
  0.335000, -0.779300
  0.337000, -1.091300
  0.339000, -1.391300
  0.341000, -1.683300
  0.343000, -1.964400
  0.345000, -2.236000
  0.347000, -2.500100
  0.349000, -2.754600
  0.351000, -3.000300
  0.353000, -3.236600
  0.355000, -3.464700
  0.357000, -3.684400
  0.359000, -3.895300
  0.361000, -4.099000
  0.363000, -4.294400
  0.365000, -4.480300
  0.367000, -4.658200
  0.369000, -4.828000
  0.371000, -4.990100
  0.373000, -5.144600
  0.375000, -5.291600
  0.377000, -5.431200
  0.379000, -5.563500
  0.381000, -5.690100
  0.383000, -5.810500
  0.385000, -5.923800
  0.387000, -6.031400
  0.389000, -6.132900
  0.391000, -6.228500
  0.393000, -6.320200
  0.395000, -6.407500
  0.397000, -6.489000
  0.399000, -6.564500
  0.401000, -6.636500
  0.403000, -6.705800
  0.405000, -6.771900
  0.407000, -6.834300
  0.409000, -6.893400
  0.411000, -6.949100
  0.413000, -7.000700
  0.415000, -7.049200
  0.417000, -7.095400
  0.419000, -7.138600
  0.421000, -7.177600
  0.423000, -7.213300
  0.425000, -7.246300
  0.427000, -7.276000
  0.429000, -7.302400
  0.431000, -7.325600
  0.433000, -7.345100
  0.435000, -7.360900
  0.437000, -7.372300
  0.439000, -7.379500
  0.441000, -7.382600
  0.443000, -7.381200
  0.445000, -7.375100
  0.447000, -7.363800
  0.449000, -7.347200
  0.451000, -7.324800
  0.453000, -7.296900
  0.455000, -7.263500
  0.457000, -7.224000
  0.459000, -7.178600
  0.461000, -7.127100
  0.463000, -7.069100
  0.465000, -7.004400
  0.467000, -6.933400
  0.469000, -6.856100
  0.471000, -6.772500
  0.473000, -6.682600
  0.475000, -6.586400
  0.477000, -6.484100
  0.479000, -6.375700
  0.481000, -6.261400
  0.483000, -6.141200
  0.485000, -6.015200
  0.487000, -5.883800
  0.489000, -5.747300
  0.491000, -5.606600
  0.493000, -5.461400
  0.495000, -5.311900
  0.497000, -5.159100
  0.499000, -5.003600
  0.501000, -4.845400
  0.503000, -4.684400
  0.505000, -4.521700
  0.507000, -4.358700
  0.509000, -4.194900
  0.511000, -4.029700
  0.513000, -3.864500
  0.515000, -3.700400
  0.517000, -3.537300
  0.519000, -3.376100
  0.521000, -3.217200
  0.523000, -3.060900
  0.525000, -2.907200
  0.527000, -2.756700
  0.529000, -2.610700
  0.531000, -2.469600
  0.533000, -2.333400
  0.535000, -2.202300
  0.537000, -2.076900
  0.539000, -1.957200
  0.541000, -1.844100
  0.543000, -1.737500
  0.545000, -1.637600
  0.547000, -1.544800
  0.549000, -1.458900
  0.551000, -1.380100
  0.553000, -1.308400
  0.555000, -1.244300
  0.557000, -1.187800
  0.559000, -1.138700
  0.561000, -1.096300
  0.563000, -1.060800
  0.565000, -1.032300
  0.567000, -1.010000
  0.569000, -0.994700
  0.571000, -0.986500
  0.573000, -0.984000
  0.575000, -0.987500
  0.577000, -0.997200
  0.579000, -1.012200
  0.581000, -1.031700
  0.583000, -1.055300
  0.585000, -1.083200
  0.587000, -1.115300
  0.589000, -1.151200
  0.591000, -1.190100
  0.593000, -1.231700
  0.595000, -1.275300
  0.597000, -1.320200
  0.599000, -1.367000
  0.601000, -1.415300
  0.603000, -1.464100
  0.605000, -1.513300
  0.607000, -1.563000
  0.609000, -1.612700
  0.611000, -1.661300
  0.613000, -1.708700
  0.615000, -1.755700
  0.617000, -1.801100
  0.619000, -1.844800
  0.621000, -1.887100
  0.623000, -1.927800
  0.625000, -1.966500
  0.627000, -2.002300
  0.629000, -2.035500
  0.631000, -2.065900
  0.633000, -2.093500
  0.635000, -2.118500
  0.637000, -2.140500
  0.639000, -2.159700
  0.641000, -2.175900
  0.643000, -2.188900
  0.645000, -2.198900
  0.647000, -2.206100
  0.649000, -2.210400
  0.651000, -2.211600
  0.653000, -2.209900
  0.655000, -2.205400
  0.657000, -2.198200
  0.659000, -2.188600
  0.661000, -2.176600
  0.663000, -2.162400
  0.665000, -2.145800
  0.667000, -2.127000
  0.669000, -2.106300
  0.671000, -2.083900
  0.673000, -2.059700
  0.675000, -2.034000
  0.677000, -2.006700
  0.679000, -1.978100
  0.681000, -1.948600
  0.683000, -1.918200
  0.685000, -1.886900
  0.687000, -1.854500
  0.689000, -1.821700
  0.691000, -1.788700
  0.693000, -1.755300
  0.695000, -1.722000
  0.697000, -1.688500
  0.699000, -1.654600
  0.701000, -1.621000
  0.703000, -1.587900
  0.705000, -1.555200
  0.707000, -1.522900
  0.709000, -1.491400
  0.711000, -1.460600
  0.713000, -1.430200
  0.715000, -1.400200
  0.717000, -1.371000
  0.719000, -1.342700
  0.721000, -1.315300
  0.723000, -1.288500
  0.725000, -1.262500
  0.727000, -1.237200
  0.729000, -1.212800
  0.731000, -1.189200
  0.733000, -1.166400
  0.735000, -1.144500
  0.737000, -1.123300
  0.739000, -1.102900
  0.741000, -1.083200
  0.743000, -1.064200
  0.745000, -1.045700
  0.747000, -1.028100
  0.749000, -1.011000
  0.751000, -0.994400
  0.753000, -0.978400
  0.755000, -0.963000
  0.757000, -0.947900
  0.759000, -0.933400
  0.761000, -0.919600
  0.763000, -0.906400
  0.765000, -0.893400
  0.767000, -0.880700
  0.769000, -0.868300
  0.771000, -0.856300
  0.773000, -0.844400
  0.775000, -0.832800
  0.777000, -0.821400
  0.779000, -0.810000
  0.781000, -0.798900
  0.783000, -0.788000
  0.785000, -0.777100
  0.787000, -0.766400
  0.789000, -0.755800
  0.791000, -0.745300
  0.793000, -0.734900
  0.795000, -0.724700
  0.797000, -0.714600
  0.799000, -0.704400
  0.801000, -0.694400
  0.803000, -0.684400
  0.805000, -0.674500
  0.807000, -0.664700
  0.809000, -0.654900
  0.811000, -0.645200
  0.813000, -0.635400
  0.815000, -0.625900
  0.817000, -0.616500
  0.819000, -0.607200
  0.821000, -0.598100
  0.823000, -0.589200
  0.825000, -0.580200
  0.827000, -0.571000
  0.829000, -0.562100
  0.831000, -0.553300
  0.833000, -0.544900
  0.835000, -0.536600
  0.837000, -0.528200
  0.839000, -0.519800
  0.841000, -0.511600
  0.843000, -0.503500
  0.845000, -0.495400
  0.847000, -0.487700
  0.849000, -0.480000
  0.851000, -0.472200
  0.853000, -0.464500
  0.855000, -0.457100
  0.857000, -0.449700
  0.859000, -0.442500
  0.861000, -0.435200
  0.863000, -0.427800
  0.865000, -0.420500
  0.867000, -0.413300
  0.869000, -0.406200
  0.871000, -0.399100
  0.873000, -0.392100
  0.875000, -0.385100
  0.877000, -0.378200
  0.879000, -0.371300
  0.881000, -0.364500
  0.883000, -0.357800
  0.885000, -0.351100
  0.887000, -0.344400
  0.889000, -0.337700
  0.891000, -0.331000
  0.893000, -0.324300
  0.895000, -0.317800
  0.897000, -0.311400
  0.899000, -0.305000
  0.901000, -0.298500
  0.903000, -0.292100
  0.905000, -0.285800
  0.907000, -0.279600
  0.909000, -0.273400
  0.911000, -0.267300
  0.913000, -0.261200
  0.915000, -0.255200
  0.917000, -0.249400
  0.919000, -0.243700
  0.921000, -0.237900
  0.923000, -0.232300
  0.925000, -0.226800
  0.927000, -0.221500
  0.929000, -0.216200
  0.931000, -0.211100
  0.933000, -0.206100
  0.935000, -0.201200
  0.937000, -0.196500
  0.939000, -0.192000
  0.941000, -0.187700
  0.943000, -0.183400
  0.945000, -0.179300
  0.947000, -0.175300
  0.949000, -0.171600
  0.951000, -0.167900
  0.953000, -0.164500
  0.955000, -0.161300
  0.957000, -0.158200
  0.959000, -0.155300
  0.961000, -0.152700
  0.963000, -0.150200
  0.965000, -0.148100
  0.967000, -0.146200
  0.969000, -0.144300
  0.971000, -0.142700
  0.973000, -0.141100
  0.975000, -0.139700
  0.977000, -0.138500
  0.979000, -0.137500
  0.981000, -0.136700
  0.983000, -0.136100
  0.985000, -0.135600
  0.987000, -0.135300
  0.989000, -0.135200
  0.991000, -0.135200
  0.993000, -0.135200
  0.995000, -0.135400
  0.997000, -0.135800
  0.999000, -0.136200
  1.001000, -0.136600
  1.003000, -0.137200
  1.005000, -0.137900
  1.007000, -0.138600
  1.009000, -0.139500
  1.011000, -0.140300
  1.013000, -0.141000
  1.015000, -0.141800
  1.017000, -0.142600
  1.019000, -0.143400
  1.021000, -0.144000
  1.023000, -0.144700
  1.025000, -0.145200
  1.027000, -0.145700
  1.029000, -0.146100
  1.031000, -0.146500
  1.033000, -0.146800
  1.035000, -0.147000
  1.037000, -0.147000
  1.039000, -0.146900
  1.041000, -0.146700
  1.043000, -0.146400
  1.045000, -0.145800
  1.047000, -0.145100
  1.049000, -0.144200
  1.051000, -0.143100
  1.053000, -0.141900
  1.055000, -0.140500
  1.057000, -0.138900
  1.059000, -0.137200
  1.061000, -0.135300
  1.063000, -0.133200
  1.065000, -0.130900
  1.067000, -0.128400
  1.069000, -0.125800
  1.071000, -0.123200
  1.073000, -0.120400
  1.075000, -0.117300
  1.077000, -0.114100
  1.079000, -0.110900
  1.081000, -0.107500
  1.083000, -0.104000
  1.085000, -0.100500
  1.087000, -0.096800
  1.089000, -0.093200
  1.091000, -0.089400
  1.093000, -0.085500
  1.095000, -0.081400
  1.097000, -0.077300
  1.099000, -0.073300
  1.101000, -0.069200
  1.103000, -0.065000
  1.105000, -0.060800
  1.107000, -0.056600
  1.109000, -0.052400
  1.111000, -0.048100
  1.113000, -0.043800
  1.115000, -0.039500
  1.117000, -0.035200
  1.119000, -0.031000
  1.121000, -0.027000
  1.123000, -0.022900
  1.125000, -0.018800
  1.127000, -0.014700
  1.129000, -0.010600
  1.131000, -0.006600
  1.133000, -0.002700
  1.135000,  0.001000
  1.137000,  0.004800
  1.139000,  0.008600
  1.141000,  0.012300
  1.143000,  0.015900
  1.145000,  0.019500
  1.147000,  0.022900
  1.149000,  0.026300
  1.151000,  0.029600
  1.153000,  0.032800
  1.155000,  0.036000
  1.157000,  0.039100
  1.159000,  0.042200
  1.161000,  0.045200
  1.163000,  0.048100
  1.165000,  0.050900
  1.167000,  0.053700
  1.169000,  0.056400
  1.171000,  0.058900
  1.173000,  0.061300
  1.175000,  0.063700
  1.177000,  0.065800
  1.179000,  0.067700
  1.181000,  0.069600
  1.183000,  0.071400
  1.185000,  0.073000
  1.187000,  0.074600
  1.189000,  0.076200
  1.191000,  0.077600
  1.193000,  0.078800
  1.195000,  0.079800
  1.197000,  0.080700
  1.199000,  0.081700
  1.201000,  0.082400
  1.203000,  0.082700
  1.205000,  0.083000
  1.207000,  0.083200
  1.209000,  0.083200
  1.211000,  0.083000
  1.213000,  0.082600
  1.215000,  0.082200
  1.217000,  0.081700
  1.219000,  0.081100
  1.221000,  0.080300
  1.223000,  0.079300
  1.225000,  0.078200
  1.227000,  0.077000
  1.229000,  0.075500
  1.231000,  0.073800
  1.233000,  0.072000
  1.235000,  0.070100
  1.237000,  0.068100
  1.239000,  0.065900
  1.241000,  0.063500
  1.243000,  0.061200
  1.245000,  0.058800
  1.247000,  0.056200
  1.249000,  0.053400
  1.251000,  0.050500
  1.253000,  0.047600
  1.255000,  0.044600
  1.257000,  0.041400
  1.259000,  0.038200
  1.261000,  0.034900
  1.263000,  0.031500
  1.265000,  0.028100
  1.267000,  0.024600
  1.269000,  0.021100
  1.271000,  0.017500
  1.273000,  0.013900
  1.275000,  0.010200
  1.277000,  0.006700
  1.279000,  0.003100
  1.281000, -0.000500
  1.283000, -0.004100
  1.285000, -0.007600
  1.287000, -0.011300
  1.289000, -0.014900
  1.291000, -0.018400
  1.293000, -0.021900
  1.295000, -0.025200
  1.297000, -0.028600
  1.299000, -0.031900
  1.301000, -0.035200
  1.303000, -0.038300
  1.305000, -0.041300
  1.307000, -0.044200
  1.309000, -0.046900
  1.311000, -0.049400
  1.313000, -0.051900
  1.315000, -0.054200
  1.317000, -0.056300
  1.319000, -0.058300
  1.321000, -0.060200
  1.323000, -0.061900
  1.325000, -0.063300
  1.327000, -0.064400
  1.329000, -0.065400
  1.331000, -0.066100
  1.333000, -0.066700
  1.335000, -0.067200
  1.337000, -0.067500
  1.339000, -0.067500
  1.341000, -0.067100
  1.343000, -0.066600
  1.345000, -0.065800
  1.347000, -0.064700
  1.349000, -0.063500
  1.351000, -0.062000
  1.353000, -0.060300
  1.355000, -0.058400
  1.357000, -0.056300
  1.359000, -0.054000
  1.361000, -0.051600
  1.363000, -0.049000
  1.365000, -0.046200
  1.367000, -0.043100
  1.369000, -0.039900
  1.371000, -0.036700
  1.373000, -0.033300
  1.375000, -0.029600
  1.377000, -0.025800
  1.379000, -0.022000
  1.381000, -0.018100
  1.383000, -0.014000
  1.385000, -0.010100
  1.387000, -0.006400
  1.389000, -0.002800
  1.391000,  0.000500
  1.393000,  0.003700
  1.395000,  0.006700
  1.397000,  0.009000
  1.399000,  0.011100
