# z (nm)   (kJ/mol)
  0.275000, 19.675600
  0.277000, 19.500100
  0.281000, 19.302600
  0.283000, 19.059500
  0.285000, 18.783300
  0.287000, 18.516300
  0.289000, 18.248300
  0.291000, 17.977800
  0.293000, 17.688900
  0.295000, 17.393200
  0.297000, 17.105400
  0.299000, 16.815400
  0.301000, 16.516600
  0.303000, 16.214900
  0.305000, 15.911200
  0.307000, 15.585700
  0.309000, 15.255300
  0.311000, 14.931100
  0.313000, 14.587900
  0.315000, 14.235800
  0.317000, 13.882600
  0.319000, 13.525800
  0.321000, 13.165500
  0.323000, 12.798400
  0.325000, 12.421500
  0.327000, 12.038000
  0.329000, 11.651300
  0.331000, 11.260300
  0.333000, 10.868600
  0.335000, 10.474400
  0.337000, 10.067700
  0.339000,  9.655100
  0.341000,  9.244400
  0.343000,  8.828900
  0.345000,  8.410800
  0.347000,  7.990100
  0.349000,  7.563700
  0.351000,  7.138400
  0.353000,  6.712100
  0.355000,  6.282300
  0.357000,  5.851400
  0.359000,  5.425500
  0.361000,  5.000200
  0.363000,  4.570400
  0.365000,  4.140200
  0.367000,  3.711400
  0.369000,  3.283400
  0.371000,  2.854200
  0.373000,  2.429900
  0.375000,  2.012400
  0.377000,  1.596800
  0.379000,  1.186600
  0.381000,  0.783100
  0.383000,  0.381700
  0.385000, -0.016300
  0.387000, -0.405000
  0.389000, -0.785700
  0.391000, -1.158600
  0.393000, -1.524200
  0.395000, -1.882200
  0.397000, -2.230700
  0.399000, -2.569700
  0.401000, -2.898700
  0.403000, -3.220100
  0.405000, -3.531500
  0.407000, -3.830600
  0.409000, -4.117300
  0.411000, -4.388400
  0.413000, -4.645000
  0.415000, -4.892300
  0.417000, -5.125900
  0.419000, -5.345900
  0.421000, -5.552400
  0.423000, -5.742400
  0.425000, -5.918200
  0.427000, -6.079900
  0.429000, -6.226600
  0.431000, -6.357900
  0.433000, -6.474500
  0.435000, -6.576000
  0.437000, -6.661900
  0.439000, -6.732700
  0.441000, -6.788100
  0.443000, -6.828600
  0.445000, -6.854600
  0.447000, -6.865900
  0.449000, -6.861400
  0.451000, -6.842700
  0.453000, -6.809800
  0.455000, -6.764600
  0.457000, -6.708100
  0.459000, -6.638100
  0.461000, -6.556000
  0.463000, -6.461600
  0.465000, -6.355200
  0.467000, -6.238600
  0.469000, -6.112500
  0.471000, -5.977500
  0.473000, -5.835100
  0.475000, -5.684700
  0.477000, -5.529000
  0.479000, -5.367800
  0.481000, -5.200200
  0.483000, -5.028500
  0.485000, -4.853900
  0.487000, -4.676800
  0.489000, -4.497200
  0.491000, -4.315600
  0.493000, -4.132600
  0.495000, -3.949800
  0.497000, -3.767900
  0.499000, -3.587200
  0.501000, -3.408300
  0.503000, -3.232700
  0.505000, -3.059900
  0.507000, -2.889900
  0.509000, -2.725000
  0.511000, -2.565000
  0.513000, -2.410100
  0.515000, -2.260700
  0.517000, -2.117200
  0.519000, -1.980200
  0.521000, -1.850200
  0.523000, -1.727100
  0.525000, -1.610700
  0.527000, -1.501000
  0.529000, -1.398700
  0.531000, -1.303700
  0.533000, -1.216500
  0.535000, -1.137000
  0.537000, -1.064500
  0.539000, -0.998700
  0.541000, -0.938800
  0.543000, -0.886300
  0.545000, -0.841700
  0.547000, -0.802800
  0.549000, -0.770800
  0.551000, -0.744800
  0.553000, -0.723300
  0.555000, -0.707100
  0.557000, -0.696500
  0.559000, -0.690300
  0.561000, -0.688200
  0.563000, -0.691700
  0.565000, -0.698900
  0.567000, -0.708500
  0.569000, -0.721000
  0.571000, -0.735600
  0.573000, -0.752700
  0.575000, -0.772200
  0.577000, -0.793800
  0.579000, -0.816500
  0.581000, -0.840400
  0.583000, -0.865600
  0.585000, -0.891400
  0.587000, -0.917400
  0.589000, -0.942600
  0.591000, -0.967100
  0.593000, -0.991500
  0.595000, -1.015600
  0.597000, -1.039100
  0.599000, -1.061700
  0.601000, -1.082900
  0.603000, -1.102800
  0.605000, -1.121700
  0.607000, -1.139200
  0.609000, -1.155200
  0.611000, -1.169200
  0.613000, -1.181200
  0.615000, -1.191700
  0.617000, -1.200400
  0.619000, -1.207400
  0.621000, -1.212400
  0.623000, -1.215700
  0.625000, -1.217400
  0.627000, -1.217400
  0.629000, -1.215300
  0.631000, -1.211600
  0.633000, -1.206700
  0.635000, -1.200400
  0.637000, -1.192300
  0.639000, -1.182700
  0.641000, -1.171800
  0.643000, -1.160000
  0.645000, -1.147400
  0.647000, -1.133600
  0.649000, -1.119000
  0.651000, -1.103200
  0.653000, -1.086500
  0.655000, -1.069500
  0.657000, -1.051900
  0.659000, -1.034000
  0.661000, -1.015600
  0.663000, -0.997300
  0.665000, -0.979100
  0.667000, -0.960900
  0.669000, -0.942600
  0.671000, -0.924400
  0.673000, -0.906700
  0.675000, -0.889200
  0.677000, -0.871900
  0.679000, -0.855000
  0.681000, -0.838500
  0.683000, -0.822600
  0.685000, -0.807400
  0.687000, -0.792900
  0.689000, -0.779000
  0.691000, -0.765800
  0.693000, -0.753300
  0.695000, -0.741400
  0.697000, -0.730200
  0.699000, -0.719700
  0.701000, -0.709900
  0.703000, -0.700900
  0.705000, -0.692500
  0.707000, -0.684900
  0.709000, -0.678000
  0.711000, -0.671700
  0.713000, -0.665900
  0.715000, -0.660700
  0.717000, -0.656200
  0.719000, -0.652200
  0.721000, -0.648400
  0.723000, -0.645100
  0.725000, -0.642200
  0.727000, -0.639500
  0.729000, -0.637300
  0.731000, -0.635500
  0.733000, -0.633800
  0.735000, -0.632500
  0.737000, -0.631400
  0.739000, -0.630300
  0.741000, -0.629300
  0.743000, -0.628100
  0.745000, -0.627000
  0.747000, -0.625800
  0.749000, -0.624600
  0.751000, -0.623300
  0.753000, -0.621700
  0.755000, -0.619900
  0.757000, -0.618000
  0.759000, -0.615800
  0.761000, -0.613300
  0.763000, -0.610400
  0.765000, -0.607300
  0.767000, -0.603900
  0.769000, -0.600100
  0.771000, -0.595800
  0.773000, -0.591100
  0.775000, -0.586000
  0.777000, -0.580700
  0.779000, -0.575100
  0.781000, -0.569000
  0.783000, -0.562400
  0.785000, -0.555500
  0.787000, -0.548400
  0.789000, -0.540800
  0.791000, -0.532900
  0.793000, -0.524700
  0.795000, -0.516300
  0.797000, -0.507400
  0.799000, -0.498300
  0.801000, -0.488700
  0.803000, -0.478900
  0.805000, -0.469000
  0.807000, -0.459000
  0.809000, -0.448700
  0.811000, -0.438000
  0.813000, -0.427400
  0.815000, -0.416600
  0.817000, -0.405700
  0.819000, -0.394700
  0.821000, -0.383800
  0.823000, -0.372800
  0.825000, -0.361600
  0.827000, -0.350400
  0.829000, -0.339300
  0.831000, -0.328200
  0.833000, -0.317000
  0.835000, -0.305800
  0.837000, -0.294800
  0.839000, -0.284000
  0.841000, -0.273300
  0.843000, -0.262700
  0.845000, -0.252200
  0.847000, -0.241900
  0.849000, -0.231700
  0.851000, -0.221500
  0.853000, -0.211400
  0.855000, -0.201600
  0.857000, -0.192000
  0.859000, -0.182500
  0.861000, -0.173200
  0.863000, -0.163900
  0.865000, -0.155000
  0.867000, -0.146300
  0.869000, -0.137800
  0.871000, -0.129500
  0.873000, -0.121400
  0.875000, -0.113500
  0.877000, -0.105900
  0.879000, -0.098500
  0.881000, -0.091300
  0.883000, -0.084500
  0.885000, -0.077800
  0.887000, -0.071200
  0.889000, -0.065000
  0.891000, -0.058900
  0.893000, -0.053100
  0.895000, -0.047500
  0.897000, -0.042300
  0.899000, -0.037500
  0.901000, -0.033100
  0.903000, -0.028900
  0.905000, -0.025000
  0.907000, -0.021300
  0.909000, -0.018000
  0.911000, -0.015100
  0.913000, -0.012700
  0.915000, -0.010700
  0.917000, -0.008800
  0.919000, -0.007300
  0.921000, -0.006000
  0.923000, -0.005100
  0.925000, -0.004800
  0.927000, -0.004800
  0.929000, -0.005200
  0.931000, -0.006000
  0.933000, -0.006900
  0.935000, -0.008300
  0.937000, -0.010200
  0.939000, -0.012400
  0.941000, -0.015000
  0.943000, -0.017900
  0.945000, -0.021100
  0.947000, -0.024700
  0.949000, -0.028700
  0.951000, -0.033000
  0.953000, -0.037600
  0.955000, -0.042500
  0.957000, -0.047600
  0.959000, -0.052900
  0.961000, -0.058700
  0.963000, -0.064500
  0.965000, -0.070500
  0.967000, -0.076600
  0.969000, -0.082900
  0.971000, -0.089300
  0.973000, -0.095800
  0.975000, -0.102500
  0.977000, -0.109300
  0.979000, -0.116100
  0.981000, -0.123000
  0.983000, -0.129800
  0.985000, -0.136600
  0.987000, -0.143300
  0.989000, -0.150000
  0.991000, -0.156600
  0.993000, -0.163000
  0.995000, -0.169300
  0.997000, -0.175500
  0.999000, -0.181500
  1.001000, -0.187400
  1.003000, -0.193000
  1.005000, -0.198400
  1.007000, -0.203600
  1.009000, -0.208500
  1.011000, -0.213100
  1.013000, -0.217300
  1.015000, -0.221400
  1.017000, -0.225200
  1.019000, -0.228700
  1.021000, -0.231800
  1.023000, -0.234700
  1.025000, -0.237200
  1.027000, -0.239300
  1.029000, -0.241100
  1.031000, -0.242600
  1.033000, -0.243700
  1.035000, -0.244500
  1.037000, -0.244800
  1.039000, -0.244600
  1.041000, -0.244200
  1.043000, -0.243600
  1.045000, -0.242400
  1.047000, -0.241000
  1.049000, -0.239300
  1.051000, -0.237200
  1.053000, -0.234900
  1.055000, -0.232200
  1.057000, -0.229200
  1.059000, -0.225800
  1.061000, -0.222100
  1.063000, -0.218100
  1.065000, -0.213900
  1.067000, -0.209300
  1.069000, -0.204600
  1.071000, -0.199600
  1.073000, -0.194300
  1.075000, -0.188700
  1.077000, -0.182900
  1.079000, -0.177000
  1.081000, -0.170900
  1.083000, -0.164600
  1.085000, -0.158300
  1.087000, -0.151800
  1.089000, -0.145200
  1.091000, -0.138400
  1.093000, -0.131600
  1.095000, -0.124700
  1.097000, -0.117700
  1.099000, -0.110700
  1.101000, -0.103700
  1.103000, -0.096700
  1.105000, -0.089700
  1.107000, -0.082700
  1.109000, -0.075800
  1.111000, -0.069100
  1.113000, -0.062400
  1.115000, -0.055700
  1.117000, -0.049100
  1.119000, -0.042600
  1.121000, -0.036300
  1.123000, -0.030200
  1.125000, -0.024100
  1.127000, -0.018200
  1.129000, -0.012600
  1.131000, -0.007100
  1.133000, -0.001900
  1.135000,  0.003100
  1.137000,  0.007800
  1.139000,  0.012300
  1.141000,  0.016600
  1.143000,  0.020600
  1.145000,  0.024500
  1.147000,  0.028200
  1.149000,  0.031600
  1.151000,  0.034700
  1.153000,  0.037600
  1.155000,  0.040300
  1.157000,  0.042700
  1.159000,  0.044800
  1.161000,  0.046700
  1.163000,  0.048500
  1.165000,  0.049800
  1.167000,  0.051000
  1.169000,  0.052000
  1.171000,  0.052700
  1.173000,  0.053100
  1.175000,  0.053400
  1.177000,  0.053400
  1.179000,  0.053100
  1.181000,  0.052600
  1.183000,  0.052100
  1.185000,  0.051400
  1.187000,  0.050700
  1.189000,  0.049700
  1.191000,  0.048500
  1.193000,  0.047300
  1.195000,  0.045800
  1.197000,  0.044200
  1.199000,  0.042500
  1.201000,  0.040800
  1.203000,  0.038900
  1.205000,  0.037100
  1.207000,  0.035200
  1.209000,  0.033100
  1.211000,  0.030900
  1.213000,  0.028700
  1.215000,  0.026500
  1.217000,  0.024100
  1.219000,  0.021800
  1.221000,  0.019500
  1.223000,  0.017100
  1.225000,  0.014700
  1.227000,  0.012400
  1.229000,  0.010100
  1.231000,  0.007800
  1.233000,  0.005500
  1.235000,  0.003300
  1.237000,  0.001100
  1.239000, -0.001100
  1.241000, -0.003200
  1.243000, -0.005200
  1.245000, -0.007200
  1.247000, -0.009000
  1.249000, -0.010800
  1.251000, -0.012500
  1.253000, -0.014200
  1.255000, -0.015900
  1.257000, -0.017600
  1.259000, -0.019100
  1.261000, -0.020400
  1.263000, -0.021700
  1.265000, -0.022900
  1.267000, -0.024000
  1.269000, -0.025100
  1.271000, -0.026200
  1.273000, -0.027100
  1.275000, -0.028100
  1.277000, -0.029000
  1.279000, -0.029800
  1.281000, -0.030500
  1.283000, -0.031100
  1.285000, -0.031800
  1.287000, -0.032400
  1.289000, -0.032900
  1.291000, -0.033400
  1.293000, -0.033800
  1.295000, -0.034100
  1.297000, -0.034400
  1.299000, -0.034600
  1.301000, -0.034700
  1.303000, -0.034700
  1.305000, -0.034600
  1.307000, -0.034500
  1.309000, -0.034300
  1.311000, -0.033900
  1.313000, -0.033600
  1.315000, -0.033200
  1.317000, -0.032700
  1.319000, -0.032000
  1.321000, -0.031200
  1.323000, -0.030500
  1.325000, -0.029700
  1.327000, -0.028600
  1.329000, -0.027500
  1.331000, -0.026200
  1.333000, -0.024800
  1.335000, -0.023400
  1.337000, -0.021700
  1.339000, -0.019800
  1.341000, -0.017800
  1.343000, -0.015900
  1.345000, -0.013900
  1.347000, -0.011400
  1.349000, -0.008600
  1.351000, -0.005700
  1.353000, -0.002800
  1.355000,  0.000100
  1.357000,  0.003300
  1.359000,  0.006700
  1.361000,  0.010200
  1.363000,  0.013900
  1.365000,  0.017600
  1.367000,  0.021400
  1.369000,  0.025500
  1.371000,  0.030000
  1.373000,  0.034800
  1.375000,  0.039600
  1.377000,  0.044200
  1.379000,  0.048500
  1.381000,  0.052700
  1.383000,  0.056700
  1.385000,  0.060600
  1.387000,  0.064400
  1.389000,  0.068000
  1.391000,  0.071600
  1.393000,  0.075400
  1.395000,  0.078700
  1.397000,  0.081900
  1.399000,  0.084800
