# z (nm)   (kJ/mol)
  0.3010   10.83980
  0.3030   10.40490
  0.3050    9.94770
  0.3070    9.46960
  0.3090    8.97920
  0.3110    8.47300
  0.3130    7.94490
  0.3150    7.39800
  0.3170    6.83400
  0.3190    6.25140
  0.3210    5.65350
  0.3230    5.03880
  0.3250    4.40730
  0.3270    3.75840
  0.3290    3.09340
  0.3310    2.41500
  0.3330    1.72320
  0.3350    1.01910
  0.3370    0.30660
  0.3390   -0.41270
  0.3410   -1.14090
  0.3430   -1.88110
  0.3450   -2.62300
  0.3470   -3.36470
  0.3490   -4.10930
  0.3510   -4.85320
  0.3530   -5.59210
  0.3550   -6.31910
  0.3570   -7.04080
  0.3590   -7.76380
  0.3610   -8.48130
  0.3630   -9.18770
  0.3650   -9.88090
  0.3670  -10.56620
  0.3690  -11.23820
  0.3710  -11.89430
  0.3730  -12.54380
  0.3750  -13.18130
  0.3770  -13.80600
  0.3790  -14.41500
  0.3810  -15.00810
  0.3830  -15.58770
  0.3850  -16.15070
  0.3870  -16.69710
  0.3890  -17.22570
  0.3910  -17.73470
  0.3930  -18.22480
  0.3950  -18.69560
  0.3970  -19.14710
  0.3990  -19.58050
  0.4010  -19.99420
  0.4030  -20.38690
  0.4050  -20.76090
  0.4070  -21.11470
  0.4090  -21.44650
  0.4110  -21.75840
  0.4130  -22.04920
  0.4150  -22.31790
  0.4170  -22.56620
  0.4190  -22.79550
  0.4210  -23.00470
  0.4230  -23.19340
  0.4250  -23.36270
  0.4270  -23.51330
  0.4290  -23.64570
  0.4310  -23.76000
  0.4330  -23.85510
  0.4350  -23.93230
  0.4370  -23.99530
  0.4390  -24.04260
  0.4410  -24.07320
  0.4430  -24.09170
  0.4450  -24.09620
  0.4470  -24.08510
  0.4490  -24.06360
  0.4510  -24.03090
  0.4530  -23.98500
  0.4550  -23.92770
  0.4570  -23.85870
  0.4590  -23.77910
  0.4610  -23.68980
  0.4630  -23.59090
  0.4650  -23.48350
  0.4670  -23.36670
  0.4690  -23.24260
  0.4710  -23.11140
  0.4730  -22.97300
  0.4750  -22.82620
  0.4770  -22.67230
  0.4790  -22.51230
  0.4810  -22.34680
  0.4830  -22.17570
  0.4850  -21.99850
  0.4870  -21.81710
  0.4890  -21.63040
  0.4910  -21.43820
  0.4930  -21.24170
  0.4950  -21.03980
  0.4970  -20.83220
  0.4990  -20.61990
  0.5010  -20.40300
  0.5030  -20.18160
  0.5050  -19.95590
  0.5070  -19.72560
  0.5090  -19.49100
  0.5110  -19.25250
  0.5130  -19.01050
  0.5150  -18.76490
  0.5170  -18.51540
  0.5190  -18.26290
  0.5210  -18.00730
  0.5230  -17.74850
  0.5250  -17.48690
  0.5270  -17.22280
  0.5290  -16.95610
  0.5310  -16.68720
  0.5330  -16.41660
  0.5350  -16.14450
  0.5370  -15.87130
  0.5390  -15.59700
  0.5410  -15.32170
  0.5430  -15.04580
  0.5450  -14.77000
  0.5470  -14.49410
  0.5490  -14.21850
  0.5510  -13.94370
  0.5530  -13.66960
  0.5550  -13.39620
  0.5570  -13.12330
  0.5590  -12.85220
  0.5610  -12.58360
  0.5630  -12.31710
  0.5650  -12.05270
  0.5670  -11.79030
  0.5690  -11.53010
  0.5710  -11.27360
  0.5730  -11.01990
  0.5750  -10.76890
  0.5770  -10.52090
  0.5790  -10.27650
  0.5810  -10.03540
  0.5830   -9.79790
  0.5850   -9.56490
  0.5870   -9.33520
  0.5890   -9.10880
  0.5910   -8.88620
  0.5930   -8.66770
  0.5950   -8.45330
  0.5970   -8.24270
  0.5990   -8.03630
  0.6010   -7.83440
  0.6030   -7.63580
  0.6050   -7.44080
  0.6070   -7.25020
  0.6090   -7.06390
  0.6110   -6.88200
  0.6130   -6.70400
  0.6150   -6.52990
  0.6170   -6.35990
  0.6190   -6.19360
  0.6210   -6.03130
  0.6230   -5.87270
  0.6250   -5.71820
  0.6270   -5.56810
  0.6290   -5.42260
  0.6310   -5.28130
  0.6330   -5.14390
  0.6350   -5.01120
  0.6370   -4.88240
  0.6390   -4.75700
  0.6410   -4.63580
  0.6430   -4.51900
  0.6450   -4.40680
  0.6470   -4.29920
  0.6490   -4.19600
  0.6510   -4.09680
  0.6530   -4.00190
  0.6550   -3.91110
  0.6570   -3.82460
  0.6590   -3.74260
  0.6610   -3.66470
  0.6630   -3.59120
  0.6650   -3.52220
  0.6670   -3.45740
  0.6690   -3.39690
  0.6710   -3.34070
  0.6730   -3.28850
  0.6750   -3.24020
  0.6770   -3.19620
  0.6790   -3.15590
  0.6810   -3.11940
  0.6830   -3.08630
  0.6850   -3.05650
  0.6870   -3.03020
  0.6890   -3.00750
  0.6910   -2.98850
  0.6930   -2.97280
  0.6950   -2.95990
  0.6970   -2.94950
  0.6990   -2.94210
  0.7010   -2.93750
  0.7030   -2.93530
  0.7050   -2.93510
  0.7070   -2.93660
  0.7090   -2.94010
  0.7110   -2.94550
  0.7130   -2.95210
  0.7150   -2.96050
  0.7170   -2.97050
  0.7190   -2.98150
  0.7210   -2.99330
  0.7230   -3.00540
  0.7250   -3.01830
  0.7270   -3.03200
  0.7290   -3.04600
  0.7310   -3.06000
  0.7330   -3.07390
  0.7350   -3.08760
  0.7370   -3.10120
  0.7390   -3.11460
  0.7410   -3.12750
  0.7430   -3.14000
  0.7450   -3.15190
  0.7470   -3.16300
  0.7490   -3.17300
  0.7510   -3.18180
  0.7530   -3.18980
  0.7550   -3.19730
  0.7570   -3.20340
  0.7590   -3.20820
  0.7610   -3.21190
  0.7630   -3.21440
  0.7650   -3.21560
  0.7670   -3.21560
  0.7690   -3.21430
  0.7710   -3.21120
  0.7730   -3.20670
  0.7750   -3.20090
  0.7770   -3.19360
  0.7790   -3.18510
  0.7810   -3.17500
  0.7830   -3.16360
  0.7850   -3.15080
  0.7870   -3.13660
  0.7890   -3.12090
  0.7910   -3.10370
  0.7930   -3.08540
  0.7950   -3.06540
  0.7970   -3.04420
  0.7990   -3.02190
  0.8010   -2.99800
  0.8030   -2.97270
  0.8050   -2.94620
  0.8070   -2.91870
  0.8090   -2.89040
  0.8110   -2.86080
  0.8130   -2.82970
  0.8150   -2.79750
  0.8170   -2.76450
  0.8190   -2.73040
  0.8210   -2.69510
  0.8230   -2.65880
  0.8250   -2.62200
  0.8270   -2.58430
  0.8290   -2.54590
  0.8310   -2.50660
  0.8330   -2.46680
  0.8350   -2.42680
  0.8370   -2.38610
  0.8390   -2.34450
  0.8410   -2.30250
  0.8430   -2.26020
  0.8450   -2.21760
  0.8470   -2.17480
  0.8490   -2.13180
  0.8510   -2.08820
  0.8530   -2.04460
  0.8550   -2.00120
  0.8570   -1.95760
  0.8590   -1.91420
  0.8610   -1.87080
  0.8630   -1.82740
  0.8650   -1.78430
  0.8670   -1.74150
  0.8690   -1.69900
  0.8710   -1.65690
  0.8730   -1.61500
  0.8750   -1.57330
  0.8770   -1.53230
  0.8790   -1.49190
  0.8810   -1.45220
  0.8830   -1.41300
  0.8850   -1.37450
  0.8870   -1.33670
  0.8890   -1.29970
  0.8910   -1.26340
  0.8930   -1.22790
  0.8950   -1.19320
  0.8970   -1.15930
  0.8990   -1.12630
  0.9010   -1.09410
  0.9030   -1.06300
  0.9050   -1.03290
  0.9070   -1.00370
  0.9090   -0.97540
  0.9110   -0.94820
  0.9130   -0.92170
  0.9150   -0.89610
  0.9170   -0.87160
  0.9190   -0.84820
  0.9210   -0.82560
  0.9230   -0.80390
  0.9250   -0.78330
  0.9270   -0.76370
  0.9290   -0.74520
  0.9310   -0.72750
  0.9330   -0.71060
  0.9350   -0.69460
  0.9370   -0.67950
  0.9390   -0.66520
  0.9410   -0.65170
  0.9430   -0.63910
  0.9450   -0.62730
  0.9470   -0.61630
  0.9490   -0.60630
  0.9510   -0.59690
  0.9530   -0.58820
  0.9550   -0.58010
  0.9570   -0.57270
  0.9590   -0.56610
  0.9610   -0.56010
  0.9630   -0.55480
  0.9650   -0.54980
  0.9670   -0.54560
  0.9690   -0.54180
  0.9710   -0.53830
  0.9730   -0.53540
  0.9750   -0.53310
  0.9770   -0.53140
  0.9790   -0.52990
  0.9810   -0.52870
  0.9830   -0.52790
  0.9850   -0.52720
  0.9870   -0.52690
  0.9890   -0.52690
  0.9910   -0.52720
  0.9930   -0.52800
  0.9950   -0.52900
  0.9970   -0.53010
  0.9990   -0.53140
  1.0010   -0.53280
  1.0030   -0.53430
  1.0050   -0.53610
  1.0070   -0.53800
  1.0090   -0.54010
  1.0110   -0.54220
  1.0130   -0.54430
  1.0150   -0.54660
  1.0170   -0.54910
  1.0190   -0.55140
  1.0210   -0.55360
  1.0230   -0.55580
  1.0250   -0.55770
  1.0270   -0.55960
  1.0290   -0.56140
  1.0310   -0.56310
  1.0330   -0.56480
  1.0350   -0.56640
  1.0370   -0.56800
  1.0390   -0.56930
  1.0410   -0.57030
  1.0430   -0.57130
  1.0450   -0.57210
  1.0470   -0.57280
  1.0490   -0.57320
  1.0510   -0.57350
  1.0530   -0.57340
  1.0550   -0.57310
  1.0570   -0.57270
  1.0590   -0.57200
  1.0610   -0.57110
  1.0630   -0.57010
  1.0650   -0.56880
  1.0670   -0.56740
  1.0690   -0.56580
  1.0710   -0.56380
  1.0730   -0.56160
  1.0750   -0.55930
  1.0770   -0.55680
  1.0790   -0.55420
  1.0810   -0.55130
  1.0830   -0.54840
  1.0850   -0.54530
  1.0870   -0.54230
  1.0890   -0.53910
  1.0910   -0.53550
  1.0930   -0.53190
  1.0950   -0.52830
  1.0970   -0.52430
  1.0990   -0.52010
  1.1010   -0.51580
  1.1030   -0.51160
  1.1050   -0.50750
  1.1070   -0.50330
  1.1090   -0.49910
  1.1110   -0.49490
  1.1130   -0.49050
  1.1150   -0.48590
  1.1170   -0.48130
  1.1190   -0.47650
  1.1210   -0.47170
  1.1230   -0.46690
  1.1250   -0.46230
  1.1270   -0.45770
  1.1290   -0.45290
  1.1310   -0.44790
  1.1330   -0.44250
  1.1350   -0.43690
  1.1370   -0.43130
  1.1390   -0.42580
  1.1410   -0.42020
  1.1430   -0.41460
  1.1450   -0.40910
  1.1470   -0.40320
  1.1490   -0.39720
  1.1510   -0.39140
  1.1530   -0.38530
  1.1550   -0.37910
  1.1570   -0.37270
  1.1590   -0.36610
  1.1610   -0.35940
  1.1630   -0.35290
  1.1650   -0.34610
  1.1670   -0.33910
  1.1690   -0.33160
  1.1710   -0.32410
  1.1730   -0.31680
  1.1750   -0.30910
  1.1770   -0.30110
  1.1790   -0.29340
  1.1810   -0.28580
  1.1830   -0.27790
  1.1850   -0.26970
  1.1870   -0.26150
  1.1890   -0.25310
  1.1910   -0.24500
  1.1930   -0.23680
  1.1950   -0.22830
  1.1970   -0.21990
  1.1990   -0.21130
  1.2010   -0.20250
  1.2030   -0.19400
  1.2050   -0.18540
  1.2070   -0.17680
  1.2090   -0.16840
  1.2110   -0.16030
  1.2130   -0.15210
  1.2150   -0.14410
  1.2170   -0.13630
  1.2190   -0.12850
  1.2210   -0.12080
  1.2230   -0.11320
  1.2250   -0.10590
  1.2270   -0.09860
  1.2290   -0.09160
  1.2310   -0.08480
  1.2330   -0.07810
  1.2350   -0.07160
  1.2370   -0.06520
  1.2390   -0.05910
  1.2410   -0.05320
  1.2430   -0.04740
  1.2450   -0.04170
  1.2470   -0.03630
  1.2490   -0.03120
  1.2510   -0.02630
  1.2530   -0.02160
  1.2550   -0.01710
  1.2570   -0.01290
  1.2590   -0.00870
  1.2610   -0.00470
  1.2630   -0.00100
  1.2650    0.00260
  1.2670    0.00590
  1.2690    0.00900
  1.2710    0.01210
  1.2730    0.01490
  1.2750    0.01770
  1.2770    0.02030
  1.2790    0.02270
  1.2810    0.02490
  1.2830    0.02700
  1.2850    0.02900
  1.2870    0.03080
  1.2890    0.03240
  1.2910    0.03400
  1.2930    0.03550
  1.2950    0.03690
  1.2970    0.03810
  1.2990    0.03920
  1.3010    0.04010
  1.3030    0.04080
  1.3050    0.04150
  1.3070    0.04200
  1.3090    0.04260
  1.3110    0.04300
  1.3130    0.04340
  1.3150    0.04350
  1.3170    0.04370
  1.3190    0.04400
  1.3210    0.04430
  1.3230    0.04450
  1.3250    0.04460
  1.3270    0.04460
  1.3290    0.04460
  1.3310    0.04490
  1.3330    0.04520
  1.3350    0.04530
  1.3370    0.04550
  1.3390    0.04580
  1.3410    0.04630
  1.3430    0.04650
  1.3450    0.04670
  1.3470    0.04710
  1.3490    0.04750
  1.3510    0.04800
  1.3530    0.04860
  1.3550    0.04920
  1.3570    0.04990
  1.3590    0.05080
  1.3610    0.05160
  1.3630    0.05250
  1.3650    0.05340
  1.3670    0.05420
  1.3690    0.05500
  1.3710    0.05590
  1.3730    0.05690
  1.3750    0.05790
  1.3770    0.05890
  1.3790    0.05980
  1.3810    0.06060
  1.3830    0.06140
  1.3850    0.06210
  1.3870    0.06290
  1.3890    0.06370
  1.3910    0.06420
  1.3930    0.06440
  1.3950    0.06430
  1.3970    0.06370
  1.3990    0.06280
