# z (nm)   (kJ/mol)
  0.239000,  8.957600
  0.243000,  7.821000
  0.247000,  6.608400
  0.249000,  5.928700
  0.251000,  5.262600
  0.253000,  4.612200
  0.255000,  3.959700
  0.257000,  3.294600
  0.259000,  2.615600
  0.261000,  1.940100
  0.263000,  1.251500
  0.265000,  0.552800
  0.267000, -0.153100
  0.269000, -0.858400
  0.271000, -1.571300
  0.273000, -2.284600
  0.275000, -2.991700
  0.277000, -3.703200
  0.279000, -4.410700
  0.281000, -5.111300
  0.283000, -5.808700
  0.285000, -6.501800
  0.287000, -7.185600
  0.289000, -7.855700
  0.291000, -8.520600
  0.293000, -9.175400
  0.295000, -9.815400
  0.297000,-10.442500
  0.299000,-11.053700
  0.301000,-11.649600
  0.303000,-12.230400
  0.305000,-12.790700
  0.307000,-13.329900
  0.309000,-13.857000
  0.311000,-14.365000
  0.313000,-14.850800
  0.315000,-15.318900
  0.317000,-15.765400
  0.319000,-16.189600
  0.321000,-16.589900
  0.323000,-16.967300
  0.325000,-17.322900
  0.327000,-17.654200
  0.329000,-17.961400
  0.331000,-18.243800
  0.333000,-18.501700
  0.335000,-18.735300
  0.337000,-18.943500
  0.339000,-19.126400
  0.341000,-19.284600
  0.343000,-19.417600
  0.345000,-19.525900
  0.347000,-19.610000
  0.349000,-19.669900
  0.351000,-19.705800
  0.353000,-19.718000
  0.355000,-19.708800
  0.357000,-19.676500
  0.359000,-19.622300
  0.361000,-19.548300
  0.363000,-19.452700
  0.365000,-19.338500
  0.367000,-19.205900
  0.369000,-19.055700
  0.371000,-18.888900
  0.373000,-18.705800
  0.375000,-18.508200
  0.377000,-18.299000
  0.379000,-18.078800
  0.381000,-17.846200
  0.383000,-17.603500
  0.385000,-17.351900
  0.387000,-17.091600
  0.389000,-16.824600
  0.391000,-16.552400
  0.393000,-16.275800
  0.395000,-15.996700
  0.397000,-15.714800
  0.399000,-15.429500
  0.401000,-15.143000
  0.403000,-14.858200
  0.405000,-14.575000
  0.407000,-14.293000
  0.409000,-14.013500
  0.411000,-13.737500
  0.413000,-13.465300
  0.415000,-13.197400
  0.417000,-12.934100
  0.419000,-12.676400
  0.421000,-12.424800
  0.423000,-12.179500
  0.425000,-11.940900
  0.427000,-11.708800
  0.429000,-11.483700
  0.431000,-11.265500
  0.433000,-11.054600
  0.435000,-10.851500
  0.437000,-10.656000
  0.439000,-10.468200
  0.441000,-10.286800
  0.443000,-10.112200
  0.445000, -9.945100
  0.447000, -9.785000
  0.449000, -9.631400
  0.451000, -9.484400
  0.453000, -9.343900
  0.455000, -9.210000
  0.457000, -9.082200
  0.459000, -8.958700
  0.461000, -8.839700
  0.463000, -8.725400
  0.465000, -8.615400
  0.467000, -8.509400
  0.469000, -8.407500
  0.471000, -8.308900
  0.473000, -8.212400
  0.475000, -8.118500
  0.477000, -8.026800
  0.479000, -7.936300
  0.481000, -7.847900
  0.483000, -7.760500
  0.485000, -7.673000
  0.487000, -7.585700
  0.489000, -7.497900
  0.491000, -7.409500
  0.493000, -7.320500
  0.495000, -7.230200
  0.497000, -7.138000
  0.499000, -7.044300
  0.501000, -6.948900
  0.503000, -6.851100
  0.505000, -6.750500
  0.507000, -6.647200
  0.509000, -6.541000
  0.511000, -6.431800
  0.513000, -6.319500
  0.515000, -6.203800
  0.517000, -6.084600
  0.519000, -5.961800
  0.521000, -5.835400
  0.523000, -5.705700
  0.525000, -5.573200
  0.527000, -5.436700
  0.529000, -5.296700
  0.531000, -5.154600
  0.533000, -5.009100
  0.535000, -4.859900
  0.537000, -4.708100
  0.539000, -4.553800
  0.541000, -4.396500
  0.543000, -4.236700
  0.545000, -4.075500
  0.547000, -3.912900
  0.549000, -3.749000
  0.551000, -3.584500
  0.553000, -3.419700
  0.555000, -3.254000
  0.557000, -3.087800
  0.559000, -2.920700
  0.561000, -2.754400
  0.563000, -2.589700
  0.565000, -2.427200
  0.567000, -2.266200
  0.569000, -2.106300
  0.571000, -1.949600
  0.573000, -1.796800
  0.575000, -1.646600
  0.577000, -1.500100
  0.579000, -1.358600
  0.581000, -1.220600
  0.583000, -1.086400
  0.585000, -0.957300
  0.587000, -0.834200
  0.589000, -0.716500
  0.591000, -0.603800
  0.593000, -0.496400
  0.595000, -0.395700
  0.597000, -0.301900
  0.599000, -0.213600
  0.601000, -0.131700
  0.603000, -0.056500
  0.605000,  0.012300
  0.607000,  0.074300
  0.609000,  0.129900
  0.611000,  0.178800
  0.613000,  0.221000
  0.615000,  0.256300
  0.617000,  0.285100
  0.619000,  0.308100
  0.621000,  0.324700
  0.623000,  0.335600
  0.625000,  0.340900
  0.627000,  0.340500
  0.629000,  0.334700
  0.631000,  0.323100
  0.633000,  0.306900
  0.635000,  0.287400
  0.637000,  0.263700
  0.639000,  0.235800
  0.641000,  0.203600
  0.643000,  0.167800
  0.645000,  0.129400
  0.647000,  0.088200
  0.649000,  0.043600
  0.651000, -0.003500
  0.653000, -0.051200
  0.655000, -0.099800
  0.657000, -0.150100
  0.659000, -0.201900
  0.661000, -0.253900
  0.663000, -0.305400
  0.665000, -0.356900
  0.667000, -0.408900
  0.669000, -0.460200
  0.671000, -0.511800
  0.673000, -0.563300
  0.675000, -0.613300
  0.677000, -0.662200
  0.679000, -0.710600
  0.681000, -0.758000
  0.683000, -0.803600
  0.685000, -0.847400
  0.687000, -0.889400
  0.689000, -0.929500
  0.691000, -0.967600
  0.693000, -1.004000
  0.695000, -1.038700
  0.697000, -1.071400
  0.699000, -1.101900
  0.701000, -1.130500
  0.703000, -1.157100
  0.705000, -1.181800
  0.707000, -1.204600
  0.709000, -1.225300
  0.711000, -1.244000
  0.713000, -1.260700
  0.715000, -1.275700
  0.717000, -1.288700
  0.719000, -1.299900
  0.721000, -1.309400
  0.723000, -1.317200
  0.725000, -1.323600
  0.727000, -1.328900
  0.729000, -1.332700
  0.731000, -1.335200
  0.733000, -1.336500
  0.735000, -1.336700
  0.737000, -1.336200
  0.739000, -1.334800
  0.741000, -1.332300
  0.743000, -1.328500
  0.745000, -1.324300
  0.747000, -1.319500
  0.749000, -1.313900
  0.751000, -1.307700
  0.753000, -1.301300
  0.755000, -1.294400
  0.757000, -1.287100
  0.759000, -1.279700
  0.761000, -1.271700
  0.763000, -1.263100
  0.765000, -1.254000
  0.767000, -1.244800
  0.769000, -1.235500
  0.771000, -1.225900
  0.773000, -1.216000
  0.775000, -1.205800
  0.777000, -1.195500
  0.779000, -1.185100
  0.781000, -1.174300
  0.783000, -1.163200
  0.785000, -1.151900
  0.787000, -1.140100
  0.789000, -1.127900
  0.791000, -1.115600
  0.793000, -1.102900
  0.795000, -1.089700
  0.797000, -1.076300
  0.799000, -1.062200
  0.801000, -1.047400
  0.803000, -1.032400
  0.805000, -1.016900
  0.807000, -1.000700
  0.809000, -0.983900
  0.811000, -0.966600
  0.813000, -0.948700
  0.815000, -0.930300
  0.817000, -0.911200
  0.819000, -0.891600
  0.821000, -0.871300
  0.823000, -0.850400
  0.825000, -0.828900
  0.827000, -0.806900
  0.829000, -0.784300
  0.831000, -0.761100
  0.833000, -0.737500
  0.835000, -0.713300
  0.837000, -0.688600
  0.839000, -0.663500
  0.841000, -0.638100
  0.843000, -0.612500
  0.845000, -0.586600
  0.847000, -0.560400
  0.849000, -0.533900
  0.851000, -0.506700
  0.853000, -0.479500
  0.855000, -0.452400
  0.857000, -0.425000
  0.859000, -0.397700
  0.861000, -0.370600
  0.863000, -0.343400
  0.865000, -0.316600
  0.867000, -0.290300
  0.869000, -0.264300
  0.871000, -0.238500
  0.873000, -0.213000
  0.875000, -0.188000
  0.877000, -0.163400
  0.879000, -0.139400
  0.881000, -0.116400
  0.883000, -0.094100
  0.885000, -0.072400
  0.887000, -0.051300
  0.889000, -0.030700
  0.891000, -0.011000
  0.893000,  0.007900
  0.895000,  0.026100
  0.897000,  0.043300
  0.899000,  0.059300
  0.901000,  0.074200
  0.903000,  0.088400
  0.905000,  0.101700
  0.907000,  0.114000
  0.909000,  0.125400
  0.911000,  0.135900
  0.913000,  0.145400
  0.915000,  0.153900
  0.917000,  0.161300
  0.919000,  0.167800
  0.921000,  0.173400
  0.923000,  0.178200
  0.925000,  0.182000
  0.927000,  0.184800
  0.929000,  0.186900
  0.931000,  0.188300
  0.933000,  0.189000
  0.935000,  0.188900
  0.937000,  0.187900
  0.939000,  0.186200
  0.941000,  0.183900
  0.943000,  0.181000
  0.945000,  0.177300
  0.947000,  0.173000
  0.949000,  0.168300
  0.951000,  0.163100
  0.953000,  0.157400
  0.955000,  0.151300
  0.957000,  0.144800
  0.959000,  0.137900
  0.961000,  0.130900
  0.963000,  0.123500
  0.965000,  0.115800
  0.967000,  0.107800
  0.969000,  0.099500
  0.971000,  0.090900
  0.973000,  0.082100
  0.975000,  0.073300
  0.977000,  0.064400
  0.979000,  0.055400
  0.981000,  0.046400
  0.983000,  0.037300
  0.985000,  0.028100
  0.987000,  0.018800
  0.989000,  0.009500
  0.991000,  0.000200
  0.993000, -0.009000
  0.995000, -0.018200
  0.997000, -0.027400
  0.999000, -0.036600
  1.001000, -0.045600
  1.003000, -0.054600
  1.005000, -0.063600
  1.007000, -0.072400
  1.009000, -0.081100
  1.011000, -0.089800
  1.013000, -0.098300
  1.015000, -0.106600
  1.017000, -0.114800
  1.019000, -0.122700
  1.021000, -0.130600
  1.023000, -0.138300
  1.025000, -0.145700
  1.027000, -0.153200
  1.029000, -0.160400
  1.031000, -0.167500
  1.033000, -0.174400
  1.035000, -0.181100
  1.037000, -0.187500
  1.039000, -0.193700
  1.041000, -0.199900
  1.043000, -0.205700
  1.045000, -0.211200
  1.047000, -0.216300
  1.049000, -0.221200
  1.051000, -0.226000
  1.053000, -0.230600
  1.055000, -0.234900
  1.057000, -0.239100
  1.059000, -0.242800
  1.061000, -0.246100
  1.063000, -0.249400
  1.065000, -0.252400
  1.067000, -0.254900
  1.069000, -0.257200
  1.071000, -0.259300
  1.073000, -0.261100
  1.075000, -0.262600
  1.077000, -0.263800
  1.079000, -0.264600
  1.081000, -0.265100
  1.083000, -0.265500
  1.085000, -0.265600
  1.087000, -0.265300
  1.089000, -0.264800
  1.091000, -0.263800
  1.093000, -0.262600
  1.095000, -0.261200
  1.097000, -0.259500
  1.099000, -0.257700
  1.101000, -0.255600
  1.103000, -0.253300
  1.105000, -0.250700
  1.107000, -0.247700
  1.109000, -0.244500
  1.111000, -0.240900
  1.113000, -0.237100
  1.115000, -0.233100
  1.117000, -0.229000
  1.119000, -0.224800
  1.121000, -0.220200
  1.123000, -0.215400
  1.125000, -0.210400
  1.127000, -0.205100
  1.129000, -0.199700
  1.131000, -0.194100
  1.133000, -0.188400
  1.135000, -0.182600
  1.137000, -0.176800
  1.139000, -0.170800
  1.141000, -0.164700
  1.143000, -0.158400
  1.145000, -0.152100
  1.147000, -0.145800
  1.149000, -0.139400
  1.151000, -0.133000
  1.153000, -0.126700
  1.155000, -0.120200
  1.157000, -0.113600
  1.159000, -0.106900
  1.161000, -0.100400
  1.163000, -0.093800
  1.165000, -0.087200
  1.167000, -0.080800
  1.169000, -0.074400
  1.171000, -0.067900
  1.173000, -0.061500
  1.175000, -0.055100
  1.177000, -0.049000
  1.179000, -0.043100
  1.181000, -0.037300
  1.183000, -0.031500
  1.185000, -0.025800
  1.187000, -0.020400
  1.189000, -0.015100
  1.191000, -0.009900
  1.193000, -0.004800
  1.195000,  0.000000
  1.197000,  0.004500
  1.199000,  0.009000
  1.201000,  0.013300
  1.203000,  0.017300
  1.205000,  0.021100
  1.207000,  0.024800
  1.209000,  0.028100
  1.211000,  0.031300
  1.213000,  0.034500
  1.215000,  0.037500
  1.217000,  0.040000
  1.219000,  0.042500
  1.221000,  0.044800
  1.223000,  0.047000
  1.225000,  0.048900
  1.227000,  0.050400
  1.229000,  0.051800
  1.231000,  0.053000
  1.233000,  0.053800
  1.235000,  0.054500
  1.237000,  0.055000
  1.239000,  0.055300
  1.241000,  0.055300
  1.243000,  0.055300
  1.245000,  0.055100
  1.247000,  0.054600
  1.249000,  0.054100
  1.251000,  0.053500
  1.253000,  0.052600
  1.255000,  0.051400
  1.257000,  0.050100
  1.259000,  0.048700
  1.261000,  0.047100
  1.263000,  0.045300
  1.265000,  0.043500
  1.267000,  0.041600
  1.269000,  0.039600
  1.271000,  0.037600
  1.273000,  0.035300
  1.275000,  0.032900
  1.277000,  0.030500
  1.279000,  0.028000
  1.281000,  0.025600
  1.283000,  0.022900
  1.285000,  0.020400
  1.287000,  0.017800
  1.289000,  0.015200
  1.291000,  0.012400
  1.293000,  0.009600
  1.295000,  0.006900
  1.297000,  0.004200
  1.299000,  0.001500
  1.301000, -0.001300
  1.303000, -0.004100
  1.305000, -0.007000
  1.307000, -0.009800
  1.309000, -0.012500
  1.311000, -0.015200
  1.313000, -0.017800
  1.315000, -0.020300
  1.317000, -0.022700
  1.319000, -0.024900
  1.321000, -0.027100
  1.323000, -0.029200
  1.325000, -0.031300
  1.327000, -0.033400
  1.329000, -0.035100
  1.331000, -0.036800
  1.333000, -0.038500
  1.335000, -0.040100
  1.337000, -0.041600
  1.339000, -0.043100
  1.341000, -0.044400
  1.343000, -0.045500
  1.345000, -0.046400
  1.347000, -0.047200
  1.349000, -0.047900
  1.351000, -0.048500
  1.353000, -0.048900
  1.355000, -0.049300
  1.357000, -0.049600
  1.359000, -0.049600
  1.361000, -0.049600
  1.363000, -0.049700
  1.365000, -0.049500
  1.367000, -0.049200
  1.369000, -0.048800
  1.371000, -0.048300
  1.373000, -0.047700
  1.375000, -0.047200
  1.377000, -0.046500
  1.379000, -0.045700
  1.381000, -0.045200
  1.383000, -0.044600
  1.385000, -0.043600
  1.387000, -0.042700
  1.389000, -0.042100
  1.391000, -0.042100
  1.393000, -0.042200
  1.395000, -0.042200
  1.397000, -0.042000
  1.399000, -0.042300
