# z (nm)   (kJ/mol)
  0.253000, 17.988900
  0.259000, 17.372300
  0.263000, 16.645300
  0.265000, 16.262300
  0.267000, 15.874800
  0.269000, 15.506000
  0.271000, 15.149600
  0.273000, 14.794100
  0.275000, 14.428100
  0.277000, 14.030500
  0.279000, 13.617200
  0.281000, 13.197500
  0.283000, 12.776200
  0.285000, 12.354700
  0.287000, 11.921300
  0.289000, 11.485400
  0.291000, 11.052200
  0.293000, 10.619600
  0.295000, 10.174200
  0.297000,  9.728600
  0.299000,  9.289700
  0.301000,  8.851100
  0.303000,  8.412100
  0.305000,  7.971900
  0.307000,  7.532200
  0.309000,  7.091100
  0.311000,  6.653600
  0.313000,  6.220400
  0.315000,  5.794200
  0.317000,  5.375100
  0.319000,  4.959800
  0.321000,  4.549900
  0.323000,  4.146600
  0.325000,  3.744000
  0.327000,  3.351400
  0.329000,  2.970200
  0.331000,  2.597000
  0.333000,  2.235800
  0.335000,  1.882600
  0.337000,  1.538600
  0.339000,  1.204900
  0.341000,  0.885400
  0.343000,  0.577800
  0.345000,  0.282000
  0.347000, -0.001800
  0.349000, -0.276300
  0.351000, -0.537100
  0.353000, -0.787200
  0.355000, -1.023700
  0.357000, -1.246500
  0.359000, -1.458300
  0.361000, -1.657600
  0.363000, -1.845200
  0.365000, -2.019300
  0.367000, -2.179500
  0.369000, -2.328100
  0.371000, -2.464700
  0.373000, -2.588600
  0.375000, -2.700400
  0.377000, -2.799400
  0.379000, -2.885200
  0.381000, -2.958500
  0.383000, -3.020100
  0.385000, -3.069000
  0.387000, -3.106600
  0.389000, -3.132600
  0.391000, -3.146600
  0.393000, -3.149200
  0.395000, -3.141600
  0.397000, -3.124000
  0.399000, -3.096700
  0.401000, -3.059400
  0.403000, -3.011900
  0.405000, -2.955900
  0.407000, -2.890800
  0.409000, -2.818300
  0.411000, -2.738600
  0.413000, -2.648700
  0.415000, -2.552700
  0.417000, -2.452400
  0.419000, -2.344800
  0.421000, -2.234100
  0.423000, -2.120600
  0.425000, -2.000600
  0.427000, -1.877500
  0.429000, -1.751500
  0.431000, -1.623100
  0.433000, -1.493100
  0.435000, -1.362200
  0.437000, -1.230200
  0.439000, -1.097600
  0.441000, -0.964600
  0.443000, -0.831900
  0.445000, -0.700900
  0.447000, -0.571100
  0.449000, -0.443100
  0.451000, -0.317600
  0.453000, -0.194400
  0.455000, -0.072700
  0.457000,  0.045700
  0.459000,  0.160400
  0.461000,  0.272500
  0.463000,  0.381000
  0.465000,  0.485700
  0.467000,  0.586900
  0.469000,  0.684300
  0.471000,  0.777600
  0.473000,  0.866500
  0.475000,  0.950800
  0.477000,  1.030100
  0.479000,  1.105000
  0.481000,  1.175600
  0.483000,  1.241800
  0.485000,  1.303100
  0.487000,  1.360000
  0.489000,  1.412500
  0.491000,  1.460400
  0.493000,  1.503700
  0.495000,  1.542100
  0.497000,  1.575800
  0.499000,  1.605200
  0.501000,  1.630100
  0.503000,  1.650600
  0.505000,  1.666600
  0.507000,  1.678500
  0.509000,  1.686200
  0.511000,  1.689700
  0.513000,  1.688800
  0.515000,  1.683800
  0.517000,  1.675000
  0.519000,  1.662400
  0.521000,  1.646100
  0.523000,  1.626100
  0.525000,  1.602200
  0.527000,  1.574500
  0.529000,  1.543900
  0.531000,  1.510100
  0.533000,  1.472600
  0.535000,  1.431900
  0.537000,  1.388500
  0.539000,  1.342200
  0.541000,  1.292800
  0.543000,  1.241100
  0.545000,  1.187300
  0.547000,  1.130800
  0.549000,  1.071900
  0.551000,  1.010800
  0.553000,  0.947400
  0.555000,  0.882400
  0.557000,  0.816000
  0.559000,  0.748000
  0.561000,  0.678700
  0.563000,  0.608200
  0.565000,  0.536500
  0.567000,  0.463400
  0.569000,  0.389400
  0.571000,  0.315100
  0.573000,  0.240300
  0.575000,  0.164900
  0.577000,  0.089400
  0.579000,  0.013900
  0.581000, -0.061000
  0.583000, -0.135600
  0.585000, -0.209900
  0.587000, -0.283800
  0.589000, -0.356700
  0.591000, -0.428500
  0.593000, -0.499400
  0.595000, -0.569500
  0.597000, -0.638300
  0.599000, -0.705500
  0.601000, -0.771300
  0.603000, -0.835500
  0.605000, -0.897900
  0.607000, -0.958400
  0.609000, -1.017100
  0.611000, -1.073600
  0.613000, -1.128000
  0.615000, -1.180400
  0.617000, -1.230700
  0.619000, -1.278700
  0.621000, -1.324200
  0.623000, -1.367300
  0.625000, -1.408300
  0.627000, -1.446800
  0.629000, -1.482800
  0.631000, -1.516300
  0.633000, -1.547300
  0.635000, -1.575900
  0.637000, -1.602300
  0.639000, -1.626300
  0.641000, -1.647800
  0.643000, -1.666600
  0.645000, -1.683300
  0.647000, -1.697600
  0.649000, -1.709500
  0.651000, -1.719200
  0.653000, -1.726500
  0.655000, -1.731800
  0.657000, -1.735100
  0.659000, -1.736000
  0.661000, -1.734800
  0.663000, -1.731700
  0.665000, -1.726500
  0.667000, -1.719500
  0.669000, -1.710700
  0.671000, -1.700300
  0.673000, -1.688100
  0.675000, -1.674200
  0.677000, -1.658600
  0.679000, -1.641500
  0.681000, -1.622900
  0.683000, -1.602900
  0.685000, -1.581400
  0.687000, -1.558600
  0.689000, -1.534600
  0.691000, -1.509400
  0.693000, -1.483000
  0.695000, -1.455800
  0.697000, -1.427500
  0.699000, -1.398200
  0.701000, -1.368000
  0.703000, -1.337000
  0.705000, -1.305300
  0.707000, -1.272700
  0.709000, -1.239700
  0.711000, -1.206100
  0.713000, -1.172000
  0.715000, -1.137400
  0.717000, -1.102500
  0.719000, -1.067400
  0.721000, -1.031800
  0.723000, -0.995900
  0.725000, -0.960100
  0.727000, -0.924200
  0.729000, -0.888300
  0.731000, -0.852400
  0.733000, -0.816500
  0.735000, -0.781000
  0.737000, -0.745900
  0.739000, -0.711100
  0.741000, -0.676600
  0.743000, -0.642500
  0.745000, -0.608900
  0.747000, -0.576000
  0.749000, -0.543500
  0.751000, -0.511700
  0.753000, -0.480700
  0.755000, -0.450500
  0.757000, -0.421100
  0.759000, -0.392500
  0.761000, -0.364700
  0.763000, -0.337800
  0.765000, -0.311800
  0.767000, -0.286900
  0.769000, -0.263000
  0.771000, -0.240100
  0.773000, -0.218100
  0.775000, -0.197200
  0.777000, -0.177400
  0.779000, -0.158600
  0.781000, -0.141000
  0.783000, -0.124500
  0.785000, -0.109200
  0.787000, -0.095000
  0.789000, -0.081900
  0.791000, -0.069900
  0.793000, -0.058900
  0.795000, -0.049000
  0.797000, -0.040300
  0.799000, -0.032600
  0.801000, -0.026000
  0.803000, -0.020300
  0.805000, -0.015500
  0.807000, -0.011900
  0.809000, -0.009400
  0.811000, -0.007600
  0.813000, -0.006700
  0.815000, -0.006500
  0.817000, -0.007100
  0.819000, -0.008500
  0.821000, -0.010500
  0.823000, -0.013500
  0.825000, -0.017100
  0.827000, -0.021100
  0.829000, -0.025900
  0.831000, -0.031000
  0.833000, -0.036500
  0.835000, -0.042600
  0.837000, -0.049000
  0.839000, -0.056000
  0.841000, -0.063300
  0.843000, -0.070900
  0.845000, -0.078600
  0.847000, -0.086400
  0.849000, -0.094300
  0.851000, -0.102400
  0.853000, -0.110400
  0.855000, -0.118600
  0.857000, -0.126700
  0.859000, -0.134900
  0.861000, -0.143000
  0.863000, -0.151000
  0.865000, -0.158800
  0.867000, -0.166500
  0.869000, -0.174000
  0.871000, -0.181300
  0.873000, -0.188500
  0.875000, -0.195500
  0.877000, -0.202200
  0.879000, -0.208600
  0.881000, -0.214700
  0.883000, -0.220500
  0.885000, -0.226000
  0.887000, -0.231100
  0.889000, -0.235900
  0.891000, -0.240500
  0.893000, -0.244700
  0.895000, -0.248800
  0.897000, -0.252500
  0.899000, -0.255900
  0.901000, -0.259100
  0.903000, -0.261900
  0.905000, -0.264400
  0.907000, -0.266600
  0.909000, -0.268500
  0.911000, -0.270300
  0.913000, -0.271800
  0.915000, -0.273100
  0.917000, -0.274200
  0.919000, -0.275100
  0.921000, -0.275800
  0.923000, -0.276400
  0.925000, -0.276900
  0.927000, -0.277200
  0.929000, -0.277200
  0.931000, -0.277100
  0.933000, -0.276900
  0.935000, -0.276700
  0.937000, -0.276400
  0.939000, -0.276100
  0.941000, -0.275600
  0.943000, -0.275000
  0.945000, -0.274200
  0.947000, -0.273400
  0.949000, -0.272500
  0.951000, -0.271600
  0.953000, -0.270500
  0.955000, -0.269400
  0.957000, -0.268300
  0.959000, -0.267100
  0.961000, -0.265700
  0.963000, -0.264300
  0.965000, -0.262800
  0.967000, -0.261300
  0.969000, -0.259700
  0.971000, -0.257900
  0.973000, -0.256200
  0.975000, -0.254500
  0.977000, -0.252700
  0.979000, -0.250700
  0.981000, -0.248600
  0.983000, -0.246300
  0.985000, -0.243900
  0.987000, -0.241500
  0.989000, -0.239000
  0.991000, -0.236500
  0.993000, -0.233800
  0.995000, -0.231000
  0.997000, -0.228100
  0.999000, -0.225100
  1.001000, -0.221900
  1.003000, -0.218600
  1.005000, -0.215300
  1.007000, -0.212000
  1.009000, -0.208600
  1.011000, -0.205200
  1.013000, -0.201600
  1.015000, -0.198000
  1.017000, -0.194400
  1.019000, -0.190600
  1.021000, -0.186800
  1.023000, -0.183000
  1.025000, -0.179200
  1.027000, -0.175400
  1.029000, -0.171500
  1.031000, -0.167800
  1.033000, -0.164100
  1.035000, -0.160200
  1.037000, -0.156500
  1.039000, -0.152900
  1.041000, -0.149200
  1.043000, -0.145400
  1.045000, -0.141800
  1.047000, -0.138200
  1.049000, -0.134500
  1.051000, -0.130800
  1.053000, -0.127200
  1.055000, -0.123600
  1.057000, -0.120200
  1.059000, -0.116700
  1.061000, -0.113300
  1.063000, -0.110000
  1.065000, -0.106800
  1.067000, -0.103600
  1.069000, -0.100500
  1.071000, -0.097300
  1.073000, -0.094200
  1.075000, -0.091300
  1.077000, -0.088300
  1.079000, -0.085300
  1.081000, -0.082400
  1.083000, -0.079500
  1.085000, -0.076700
  1.087000, -0.073900
  1.089000, -0.071200
  1.091000, -0.068500
  1.093000, -0.065700
  1.095000, -0.062900
  1.097000, -0.060300
  1.099000, -0.057600
  1.101000, -0.054900
  1.103000, -0.052200
  1.105000, -0.049600
  1.107000, -0.047000
  1.109000, -0.044500
  1.111000, -0.042000
  1.113000, -0.039300
  1.115000, -0.036800
  1.117000, -0.034400
  1.119000, -0.032100
  1.121000, -0.029900
  1.123000, -0.027700
  1.125000, -0.025500
  1.127000, -0.023400
  1.129000, -0.021400
  1.131000, -0.019500
  1.133000, -0.017700
  1.135000, -0.016000
  1.137000, -0.014400
  1.139000, -0.012700
  1.141000, -0.011200
  1.143000, -0.009800
  1.145000, -0.008600
  1.147000, -0.007600
  1.149000, -0.006500
  1.151000, -0.005600
  1.153000, -0.004800
  1.155000, -0.004300
  1.157000, -0.003800
  1.159000, -0.003500
  1.161000, -0.003100
  1.163000, -0.003000
  1.165000, -0.002900
  1.167000, -0.003000
  1.169000, -0.003200
  1.171000, -0.003600
  1.173000, -0.004000
  1.175000, -0.004500
  1.177000, -0.004900
  1.179000, -0.005400
  1.181000, -0.005900
  1.183000, -0.006600
  1.185000, -0.007300
  1.187000, -0.008000
  1.189000, -0.008800
  1.191000, -0.009500
  1.193000, -0.010200
  1.195000, -0.010900
  1.197000, -0.011500
  1.199000, -0.012100
  1.201000, -0.012800
  1.203000, -0.013400
  1.205000, -0.013800
  1.207000, -0.014300
  1.209000, -0.014700
  1.211000, -0.014800
  1.213000, -0.015000
  1.215000, -0.015200
  1.217000, -0.015400
  1.219000, -0.015400
  1.221000, -0.015500
  1.223000, -0.015500
  1.225000, -0.015400
  1.227000, -0.015200
  1.229000, -0.014900
  1.231000, -0.014700
  1.233000, -0.014300
  1.235000, -0.013900
  1.237000, -0.013600
  1.239000, -0.013100
  1.241000, -0.012600
  1.243000, -0.012100
  1.245000, -0.011500
  1.247000, -0.011000
  1.249000, -0.010500
  1.251000, -0.010000
  1.253000, -0.009400
  1.255000, -0.008900
  1.257000, -0.008500
  1.259000, -0.008100
  1.261000, -0.007700
  1.263000, -0.007400
  1.265000, -0.007200
  1.267000, -0.007000
  1.269000, -0.006800
  1.271000, -0.006700
  1.273000, -0.006600
  1.275000, -0.006700
  1.277000, -0.006800
  1.279000, -0.006900
  1.281000, -0.007300
  1.283000, -0.007600
  1.285000, -0.007900
  1.287000, -0.008400
  1.289000, -0.008800
  1.291000, -0.009400
  1.293000, -0.010000
  1.295000, -0.010600
  1.297000, -0.011200
  1.299000, -0.011900
  1.301000, -0.012600
  1.303000, -0.013300
  1.305000, -0.014000
  1.307000, -0.014600
  1.309000, -0.015200
  1.311000, -0.015900
  1.313000, -0.016500
  1.315000, -0.017000
  1.317000, -0.017500
  1.319000, -0.017900
  1.321000, -0.018000
  1.323000, -0.018200
  1.325000, -0.018300
  1.327000, -0.018100
  1.329000, -0.017800
  1.331000, -0.017300
  1.333000, -0.016700
  1.335000, -0.016000
  1.337000, -0.015100
  1.339000, -0.013900
  1.341000, -0.012500
  1.343000, -0.011000
  1.345000, -0.009300
  1.347000, -0.007300
  1.349000, -0.005200
  1.351000, -0.002800
  1.353000, -0.000300
  1.355000,  0.002400
  1.357000,  0.005400
  1.359000,  0.008500
  1.361000,  0.011600
  1.363000,  0.015000
  1.365000,  0.018600
  1.367000,  0.022400
  1.369000,  0.026100
  1.371000,  0.030000
  1.373000,  0.034100
  1.375000,  0.038100
  1.377000,  0.042300
  1.379000,  0.046800
  1.381000,  0.051000
  1.383000,  0.055100
  1.385000,  0.059100
  1.387000,  0.062900
  1.389000,  0.066400
  1.391000,  0.070100
  1.393000,  0.073500
  1.395000,  0.076500
  1.397000,  0.078900
  1.399000,  0.080800
