# z (nm)   (kJ/mol)
  0.255000,  8.850600
  0.257000,  8.303700
  0.259000,  7.715700
  0.261000,  7.140900
  0.263000,  6.552900
  0.265000,  5.951300
  0.267000,  5.339500
  0.269000,  4.701200
  0.271000,  4.044600
  0.273000,  3.401500
  0.275000,  2.761900
  0.277000,  2.111000
  0.279000,  1.455200
  0.281000,  0.789900
  0.283000,  0.124400
  0.285000, -0.532600
  0.287000, -1.185800
  0.289000, -1.834600
  0.291000, -2.485900
  0.293000, -3.132100
  0.295000, -3.763500
  0.297000, -4.385400
  0.299000, -5.006500
  0.301000, -5.618900
  0.303000, -6.218000
  0.305000, -6.805800
  0.307000, -7.379300
  0.309000, -7.942000
  0.311000, -8.493300
  0.313000, -9.028600
  0.315000, -9.544500
  0.317000,-10.042000
  0.319000,-10.525700
  0.321000,-10.993700
  0.323000,-11.442700
  0.325000,-11.874800
  0.327000,-12.289200
  0.329000,-12.684100
  0.331000,-13.059000
  0.333000,-13.412700
  0.335000,-13.747200
  0.337000,-14.062200
  0.339000,-14.355700
  0.341000,-14.628500
  0.343000,-14.879100
  0.345000,-15.108900
  0.347000,-15.317500
  0.349000,-15.504200
  0.351000,-15.669500
  0.353000,-15.813700
  0.355000,-15.937200
  0.357000,-16.040000
  0.359000,-16.122100
  0.361000,-16.183900
  0.363000,-16.225100
  0.365000,-16.246500
  0.367000,-16.250500
  0.369000,-16.236600
  0.371000,-16.203500
  0.373000,-16.152800
  0.375000,-16.086200
  0.377000,-16.003300
  0.379000,-15.908000
  0.381000,-15.798400
  0.383000,-15.674200
  0.385000,-15.538400
  0.387000,-15.391400
  0.389000,-15.233700
  0.391000,-15.068000
  0.393000,-14.894900
  0.395000,-14.714100
  0.397000,-14.526500
  0.399000,-14.331200
  0.401000,-14.130200
  0.403000,-13.926000
  0.405000,-13.720400
  0.407000,-13.512100
  0.409000,-13.302400
  0.411000,-13.091600
  0.413000,-12.879800
  0.415000,-12.668800
  0.417000,-12.458300
  0.419000,-12.249300
  0.421000,-12.042500
  0.423000,-11.838300
  0.425000,-11.637200
  0.427000,-11.439200
  0.429000,-11.244500
  0.431000,-11.053400
  0.433000,-10.866300
  0.435000,-10.683300
  0.437000,-10.504500
  0.439000,-10.329900
  0.441000,-10.159800
  0.443000, -9.993500
  0.445000, -9.831100
  0.447000, -9.673000
  0.449000, -9.519100
  0.451000, -9.369400
  0.453000, -9.224000
  0.455000, -9.082100
  0.457000, -8.943700
  0.459000, -8.808800
  0.461000, -8.676800
  0.463000, -8.547500
  0.465000, -8.420600
  0.467000, -8.297000
  0.469000, -8.176300
  0.471000, -8.057200
  0.473000, -7.939800
  0.475000, -7.824100
  0.477000, -7.709700
  0.479000, -7.595400
  0.481000, -7.481600
  0.483000, -7.368700
  0.485000, -7.256500
  0.487000, -7.144100
  0.489000, -7.030700
  0.491000, -6.917000
  0.493000, -6.803000
  0.495000, -6.688300
  0.497000, -6.572700
  0.499000, -6.455800
  0.501000, -6.337700
  0.503000, -6.218300
  0.505000, -6.097500
  0.507000, -5.975100
  0.509000, -5.851100
  0.511000, -5.725200
  0.513000, -5.597500
  0.515000, -5.468200
  0.517000, -5.337100
  0.519000, -5.204300
  0.521000, -5.069600
  0.523000, -4.933000
  0.525000, -4.794600
  0.527000, -4.655000
  0.529000, -4.513900
  0.531000, -4.370800
  0.533000, -4.226900
  0.535000, -4.082000
  0.537000, -3.935600
  0.539000, -3.788800
  0.541000, -3.641700
  0.543000, -3.493900
  0.545000, -3.344800
  0.547000, -3.195800
  0.549000, -3.047500
  0.551000, -2.899800
  0.553000, -2.753000
  0.555000, -2.606700
  0.557000, -2.460400
  0.559000, -2.315600
  0.561000, -2.172600
  0.563000, -2.030600
  0.565000, -1.890900
  0.567000, -1.754800
  0.569000, -1.621400
  0.571000, -1.490300
  0.573000, -1.362400
  0.575000, -1.238300
  0.577000, -1.118200
  0.579000, -1.001400
  0.581000, -0.889400
  0.583000, -0.782500
  0.585000, -0.679800
  0.587000, -0.582000
  0.589000, -0.488800
  0.591000, -0.399900
  0.593000, -0.316800
  0.595000, -0.238800
  0.597000, -0.166400
  0.599000, -0.100300
  0.601000, -0.040400
  0.603000,  0.013000
  0.605000,  0.060900
  0.607000,  0.103000
  0.609000,  0.138700
  0.611000,  0.168900
  0.613000,  0.193100
  0.615000,  0.211200
  0.617000,  0.223600
  0.619000,  0.230400
  0.621000,  0.232100
  0.623000,  0.228200
  0.625000,  0.219000
  0.627000,  0.205400
  0.629000,  0.186500
  0.631000,  0.162800
  0.633000,  0.135100
  0.635000,  0.102900
  0.637000,  0.066800
  0.639000,  0.027400
  0.641000, -0.015400
  0.643000, -0.061500
  0.645000, -0.111000
  0.647000, -0.163000
  0.649000, -0.217700
  0.651000, -0.273600
  0.653000, -0.331200
  0.655000, -0.390500
  0.657000, -0.450900
  0.659000, -0.512900
  0.661000, -0.575300
  0.663000, -0.638400
  0.665000, -0.702100
  0.667000, -0.766000
  0.669000, -0.829000
  0.671000, -0.891900
  0.673000, -0.954300
  0.675000, -1.015700
  0.677000, -1.076300
  0.679000, -1.135400
  0.681000, -1.193400
  0.683000, -1.249100
  0.685000, -1.302200
  0.687000, -1.353800
  0.689000, -1.403700
  0.691000, -1.451500
  0.693000, -1.497000
  0.695000, -1.540100
  0.697000, -1.580500
  0.699000, -1.618400
  0.701000, -1.653900
  0.703000, -1.686900
  0.705000, -1.717300
  0.707000, -1.745100
  0.709000, -1.770200
  0.711000, -1.792800
  0.713000, -1.812700
  0.715000, -1.830000
  0.717000, -1.844600
  0.719000, -1.856400
  0.721000, -1.865800
  0.723000, -1.872800
  0.725000, -1.877100
  0.727000, -1.879200
  0.729000, -1.878900
  0.731000, -1.876300
  0.733000, -1.871600
  0.735000, -1.864600
  0.737000, -1.855100
  0.739000, -1.843900
  0.741000, -1.831200
  0.743000, -1.816700
  0.745000, -1.800300
  0.747000, -1.782200
  0.749000, -1.762800
  0.751000, -1.742000
  0.753000, -1.719800
  0.755000, -1.696300
  0.757000, -1.671300
  0.759000, -1.645300
  0.761000, -1.618500
  0.763000, -1.590800
  0.765000, -1.562300
  0.767000, -1.532900
  0.769000, -1.502900
  0.771000, -1.472000
  0.773000, -1.440800
  0.775000, -1.409300
  0.777000, -1.377300
  0.779000, -1.344800
  0.781000, -1.312000
  0.783000, -1.279000
  0.785000, -1.245900
  0.787000, -1.212800
  0.789000, -1.179500
  0.791000, -1.146000
  0.793000, -1.112400
  0.795000, -1.079000
  0.797000, -1.045700
  0.799000, -1.012600
  0.801000, -0.979400
  0.803000, -0.946200
  0.805000, -0.913300
  0.807000, -0.880600
  0.809000, -0.848200
  0.811000, -0.815900
  0.813000, -0.784000
  0.815000, -0.752400
  0.817000, -0.721000
  0.819000, -0.689800
  0.821000, -0.658900
  0.823000, -0.628600
  0.825000, -0.598600
  0.827000, -0.568700
  0.829000, -0.539100
  0.831000, -0.510000
  0.833000, -0.481400
  0.835000, -0.453200
  0.837000, -0.425300
  0.839000, -0.397800
  0.841000, -0.370600
  0.843000, -0.343900
  0.845000, -0.317600
  0.847000, -0.291800
  0.849000, -0.266600
  0.851000, -0.241900
  0.853000, -0.217700
  0.855000, -0.193900
  0.857000, -0.170800
  0.859000, -0.148300
  0.861000, -0.126300
  0.863000, -0.104900
  0.865000, -0.083900
  0.867000, -0.063500
  0.869000, -0.043900
  0.871000, -0.025000
  0.873000, -0.006800
  0.875000,  0.010800
  0.877000,  0.027700
  0.879000,  0.044000
  0.881000,  0.059500
  0.883000,  0.074200
  0.885000,  0.088100
  0.887000,  0.101200
  0.889000,  0.113400
  0.891000,  0.124700
  0.893000,  0.135400
  0.895000,  0.145200
  0.897000,  0.154200
  0.899000,  0.162400
  0.901000,  0.169800
  0.903000,  0.176300
  0.905000,  0.181900
  0.907000,  0.186700
  0.909000,  0.190600
  0.911000,  0.193700
  0.913000,  0.196000
  0.915000,  0.197500
  0.917000,  0.198100
  0.919000,  0.198000
  0.921000,  0.197300
  0.923000,  0.195700
  0.925000,  0.193300
  0.927000,  0.190300
  0.929000,  0.186600
  0.931000,  0.182000
  0.933000,  0.176800
  0.935000,  0.171100
  0.937000,  0.165100
  0.939000,  0.158400
  0.941000,  0.151100
  0.943000,  0.143100
  0.945000,  0.134400
  0.947000,  0.125400
  0.949000,  0.116000
  0.951000,  0.106400
  0.953000,  0.096300
  0.955000,  0.086000
  0.957000,  0.075600
  0.959000,  0.064800
  0.961000,  0.054100
  0.963000,  0.043300
  0.965000,  0.032100
  0.967000,  0.020800
  0.969000,  0.009500
  0.971000, -0.002000
  0.973000, -0.013600
  0.975000, -0.025100
  0.977000, -0.036400
  0.979000, -0.047500
  0.981000, -0.058600
  0.983000, -0.069700
  0.985000, -0.080700
  0.987000, -0.091400
  0.989000, -0.102000
  0.991000, -0.112400
  0.993000, -0.122600
  0.995000, -0.132500
  0.997000, -0.142200
  0.999000, -0.151600
  1.001000, -0.160600
  1.003000, -0.169300
  1.005000, -0.177800
  1.007000, -0.185900
  1.009000, -0.193800
  1.011000, -0.201400
  1.013000, -0.208600
  1.015000, -0.215500
  1.017000, -0.221900
  1.019000, -0.228100
  1.021000, -0.233900
  1.023000, -0.239300
  1.025000, -0.244500
  1.027000, -0.249300
  1.029000, -0.253600
  1.031000, -0.257500
  1.033000, -0.261100
  1.035000, -0.264400
  1.037000, -0.267200
  1.039000, -0.269700
  1.041000, -0.271800
  1.043000, -0.273500
  1.045000, -0.274900
  1.047000, -0.275900
  1.049000, -0.276600
  1.051000, -0.276900
  1.053000, -0.276900
  1.055000, -0.276500
  1.057000, -0.275700
  1.059000, -0.274600
  1.061000, -0.273300
  1.063000, -0.271600
  1.065000, -0.269400
  1.067000, -0.266900
  1.069000, -0.264200
  1.071000, -0.261100
  1.073000, -0.257800
  1.075000, -0.254000
  1.077000, -0.250000
  1.079000, -0.245800
  1.081000, -0.241200
  1.083000, -0.236400
  1.085000, -0.231500
  1.087000, -0.226200
  1.089000, -0.220500
  1.091000, -0.214800
  1.093000, -0.208800
  1.095000, -0.202500
  1.097000, -0.196100
  1.099000, -0.189500
  1.101000, -0.182800
  1.103000, -0.176100
  1.105000, -0.169400
  1.107000, -0.162500
  1.109000, -0.155500
  1.111000, -0.148600
  1.113000, -0.141700
  1.115000, -0.134700
  1.117000, -0.127700
  1.119000, -0.120700
  1.121000, -0.114000
  1.123000, -0.107100
  1.125000, -0.100200
  1.127000, -0.093300
  1.129000, -0.086600
  1.131000, -0.080000
  1.133000, -0.073400
  1.135000, -0.067100
  1.137000, -0.061100
  1.139000, -0.055100
  1.141000, -0.049000
  1.143000, -0.043200
  1.145000, -0.037400
  1.147000, -0.031900
  1.149000, -0.026600
  1.151000, -0.021400
  1.153000, -0.016400
  1.155000, -0.011800
  1.157000, -0.007400
  1.159000, -0.003000
  1.161000,  0.001400
  1.163000,  0.005500
  1.165000,  0.009400
  1.167000,  0.013200
  1.169000,  0.016600
  1.171000,  0.019900
  1.173000,  0.022900
  1.175000,  0.025900
  1.177000,  0.028700
  1.179000,  0.031200
  1.181000,  0.033600
  1.183000,  0.035800
  1.185000,  0.037800
  1.187000,  0.039800
  1.189000,  0.041600
  1.191000,  0.043300
  1.193000,  0.044800
  1.195000,  0.046100
  1.197000,  0.047300
  1.199000,  0.048400
  1.201000,  0.049300
  1.203000,  0.050100
  1.205000,  0.050800
  1.207000,  0.051200
  1.209000,  0.051700
  1.211000,  0.052100
  1.213000,  0.052400
  1.215000,  0.052500
  1.217000,  0.052500
  1.219000,  0.052500
  1.221000,  0.052400
  1.223000,  0.052100
  1.225000,  0.051700
  1.227000,  0.051100
  1.229000,  0.050400
  1.231000,  0.049700
  1.233000,  0.048900
  1.235000,  0.048000
  1.237000,  0.047000
  1.239000,  0.045800
  1.241000,  0.044600
  1.243000,  0.043300
  1.245000,  0.041700
  1.247000,  0.040200
  1.249000,  0.038800
  1.251000,  0.037300
  1.253000,  0.035700
  1.255000,  0.034100
  1.257000,  0.032300
  1.259000,  0.030300
  1.261000,  0.028200
  1.263000,  0.026200
  1.265000,  0.024200
  1.267000,  0.022200
  1.269000,  0.020100
  1.271000,  0.018000
  1.273000,  0.015800
  1.275000,  0.013500
  1.277000,  0.011100
  1.279000,  0.008600
  1.281000,  0.006200
  1.283000,  0.003800
  1.285000,  0.001300
  1.287000, -0.001200
  1.289000, -0.003600
  1.291000, -0.005900
  1.293000, -0.008300
  1.295000, -0.010700
  1.297000, -0.012900
  1.299000, -0.015100
  1.301000, -0.017300
  1.303000, -0.019600
  1.305000, -0.021900
  1.307000, -0.024300
  1.309000, -0.026400
  1.311000, -0.028400
  1.313000, -0.030200
  1.315000, -0.032100
  1.317000, -0.033800
  1.319000, -0.035400
  1.321000, -0.036900
  1.323000, -0.038300
  1.325000, -0.039700
  1.327000, -0.041000
  1.329000, -0.041900
  1.331000, -0.042600
  1.333000, -0.043400
  1.335000, -0.043900
  1.337000, -0.044300
  1.339000, -0.044400
  1.341000, -0.044400
  1.343000, -0.044200
  1.345000, -0.044000
  1.347000, -0.043700
  1.349000, -0.043200
  1.351000, -0.042500
  1.353000, -0.041800
  1.355000, -0.041100
  1.357000, -0.040000
  1.359000, -0.038800
  1.361000, -0.037600
  1.363000, -0.036100
  1.365000, -0.034800
  1.367000, -0.033300
  1.369000, -0.031500
  1.371000, -0.029900
  1.373000, -0.028200
  1.375000, -0.026400
  1.377000, -0.024400
  1.379000, -0.022500
  1.381000, -0.020600
  1.383000, -0.018900
  1.385000, -0.017500
  1.387000, -0.016100
  1.389000, -0.014800
  1.391000, -0.013400
  1.393000, -0.012400
  1.395000, -0.011700
  1.397000, -0.011300
  1.399000, -0.011100
