# z (nm)   (kJ/mol)
  0.235000,  7.149900
  0.247000,  4.771600
  0.249000,  4.091000
  0.251000,  3.422500
  0.253000,  2.713400
  0.255000,  1.984700
  0.257000,  1.236100
  0.259000,  0.475500
  0.261000, -0.293800
  0.263000, -1.075000
  0.265000, -1.855400
  0.267000, -2.647200
  0.269000, -3.437700
  0.271000, -4.230100
  0.273000, -5.021800
  0.275000, -5.812600
  0.277000, -6.605800
  0.279000, -7.396300
  0.281000, -8.177000
  0.283000, -8.948100
  0.285000, -9.711800
  0.287000,-10.473300
  0.289000,-11.225500
  0.291000,-11.958600
  0.293000,-12.674600
  0.295000,-13.374300
  0.297000,-14.060500
  0.299000,-14.732600
  0.301000,-15.384400
  0.303000,-16.014400
  0.305000,-16.627100
  0.307000,-17.219200
  0.309000,-17.785100
  0.311000,-18.328100
  0.313000,-18.843400
  0.315000,-19.330400
  0.317000,-19.793100
  0.319000,-20.226300
  0.321000,-20.629300
  0.323000,-21.004900
  0.325000,-21.350700
  0.327000,-21.667100
  0.329000,-21.954100
  0.331000,-22.208900
  0.333000,-22.432500
  0.335000,-22.624800
  0.337000,-22.785100
  0.339000,-22.913800
  0.341000,-23.010900
  0.343000,-23.076100
  0.345000,-23.110000
  0.347000,-23.112800
  0.349000,-23.085400
  0.351000,-23.028200
  0.353000,-22.941500
  0.355000,-22.826700
  0.357000,-22.685400
  0.359000,-22.517800
  0.361000,-22.323300
  0.363000,-22.103500
  0.365000,-21.861200
  0.367000,-21.597000
  0.369000,-21.311300
  0.371000,-21.004600
  0.373000,-20.681700
  0.375000,-20.343100
  0.377000,-19.985300
  0.379000,-19.614000
  0.381000,-19.231900
  0.383000,-18.839200
  0.385000,-18.435300
  0.387000,-18.021100
  0.389000,-17.600900
  0.391000,-17.175100
  0.393000,-16.745300
  0.395000,-16.312700
  0.397000,-15.878000
  0.399000,-15.443200
  0.401000,-15.008800
  0.403000,-14.576000
  0.405000,-14.145600
  0.407000,-13.718800
  0.409000,-13.296500
  0.411000,-12.879400
  0.413000,-12.469400
  0.415000,-12.067000
  0.417000,-11.671700
  0.419000,-11.284500
  0.421000,-10.907200
  0.423000,-10.539200
  0.425000,-10.180700
  0.427000, -9.833000
  0.429000, -9.496200
  0.431000, -9.170400
  0.433000, -8.855700
  0.435000, -8.552500
  0.437000, -8.261000
  0.439000, -7.981500
  0.441000, -7.713700
  0.443000, -7.457300
  0.445000, -7.212700
  0.447000, -6.979700
  0.449000, -6.757600
  0.451000, -6.547100
  0.453000, -6.348500
  0.455000, -6.161200
  0.457000, -5.984300
  0.459000, -5.817700
  0.461000, -5.661900
  0.463000, -5.515800
  0.465000, -5.379100
  0.467000, -5.251800
  0.469000, -5.133500
  0.471000, -5.024200
  0.473000, -4.923300
  0.475000, -4.829600
  0.477000, -4.743800
  0.479000, -4.665200
  0.481000, -4.593200
  0.483000, -4.528200
  0.485000, -4.468400
  0.487000, -4.414200
  0.489000, -4.365600
  0.491000, -4.320500
  0.493000, -4.280200
  0.495000, -4.243300
  0.497000, -4.209000
  0.499000, -4.178400
  0.501000, -4.150300
  0.503000, -4.123600
  0.505000, -4.098200
  0.507000, -4.074600
  0.509000, -4.052800
  0.511000, -4.031600
  0.513000, -4.009600
  0.515000, -3.986700
  0.517000, -3.963000
  0.519000, -3.938700
  0.521000, -3.913500
  0.523000, -3.886500
  0.525000, -3.857700
  0.527000, -3.827200
  0.529000, -3.794200
  0.531000, -3.758400
  0.533000, -3.720100
  0.535000, -3.679200
  0.537000, -3.635400
  0.539000, -3.588500
  0.541000, -3.538500
  0.543000, -3.485500
  0.545000, -3.429600
  0.547000, -3.370800
  0.549000, -3.308800
  0.551000, -3.243500
  0.553000, -3.175400
  0.555000, -3.105000
  0.557000, -3.032500
  0.559000, -2.957000
  0.561000, -2.878800
  0.563000, -2.798700
  0.565000, -2.717200
  0.567000, -2.634500
  0.569000, -2.549300
  0.571000, -2.463500
  0.573000, -2.377900
  0.575000, -2.291400
  0.577000, -2.204600
  0.579000, -2.119000
  0.581000, -2.034800
  0.583000, -1.951200
  0.585000, -1.867100
  0.587000, -1.784700
  0.589000, -1.705600
  0.591000, -1.628400
  0.593000, -1.554100
  0.595000, -1.483600
  0.597000, -1.415800
  0.599000, -1.351800
  0.601000, -1.291300
  0.603000, -1.235100
  0.605000, -1.184300
  0.607000, -1.137700
  0.609000, -1.096000
  0.611000, -1.059700
  0.613000, -1.027800
  0.615000, -1.000300
  0.617000, -0.979000
  0.619000, -0.963300
  0.621000, -0.951900
  0.623000, -0.945400
  0.625000, -0.944100
  0.627000, -0.948300
  0.629000, -0.957600
  0.631000, -0.971300
  0.633000, -0.988900
  0.635000, -1.011200
  0.637000, -1.039000
  0.639000, -1.071700
  0.641000, -1.108000
  0.643000, -1.145500
  0.645000, -1.186100
  0.647000, -1.231100
  0.649000, -1.278900
  0.651000, -1.328300
  0.653000, -1.379000
  0.655000, -1.431900
  0.657000, -1.487100
  0.659000, -1.542800
  0.661000, -1.599200
  0.663000, -1.656500
  0.665000, -1.713400
  0.667000, -1.768900
  0.669000, -1.824500
  0.671000, -1.880800
  0.673000, -1.936400
  0.675000, -1.990600
  0.677000, -2.043300
  0.679000, -2.094800
  0.681000, -2.144500
  0.683000, -2.192300
  0.685000, -2.238500
  0.687000, -2.282000
  0.689000, -2.322800
  0.691000, -2.360800
  0.693000, -2.396400
  0.695000, -2.429700
  0.697000, -2.460200
  0.699000, -2.488000
  0.701000, -2.512800
  0.703000, -2.534700
  0.705000, -2.553900
  0.707000, -2.570000
  0.709000, -2.583200
  0.711000, -2.593400
  0.713000, -2.600800
  0.715000, -2.605400
  0.717000, -2.607100
  0.719000, -2.606200
  0.721000, -2.602500
  0.723000, -2.596200
  0.725000, -2.587400
  0.727000, -2.576100
  0.729000, -2.562200
  0.731000, -2.546000
  0.733000, -2.527600
  0.735000, -2.507100
  0.737000, -2.484900
  0.739000, -2.461000
  0.741000, -2.435100
  0.743000, -2.407400
  0.745000, -2.378500
  0.747000, -2.348000
  0.749000, -2.315900
  0.751000, -2.283000
  0.753000, -2.249000
  0.755000, -2.213700
  0.757000, -2.177300
  0.759000, -2.140000
  0.761000, -2.102700
  0.763000, -2.064700
  0.765000, -2.025700
  0.767000, -1.986100
  0.769000, -1.946000
  0.771000, -1.905800
  0.773000, -1.865300
  0.775000, -1.824600
  0.777000, -1.783700
  0.779000, -1.742900
  0.781000, -1.702000
  0.783000, -1.661200
  0.785000, -1.620400
  0.787000, -1.580100
  0.789000, -1.540100
  0.791000, -1.500200
  0.793000, -1.460700
  0.795000, -1.421500
  0.797000, -1.382500
  0.799000, -1.343900
  0.801000, -1.305300
  0.803000, -1.267100
  0.805000, -1.229500
  0.807000, -1.192500
  0.809000, -1.156000
  0.811000, -1.119900
  0.813000, -1.084400
  0.815000, -1.049400
  0.817000, -1.014700
  0.819000, -0.980500
  0.821000, -0.947000
  0.823000, -0.913900
  0.825000, -0.881100
  0.827000, -0.849100
  0.829000, -0.817800
  0.831000, -0.787000
  0.833000, -0.756800
  0.835000, -0.727000
  0.837000, -0.697600
  0.839000, -0.668800
  0.841000, -0.640500
  0.843000, -0.613000
  0.845000, -0.586200
  0.847000, -0.559600
  0.849000, -0.533800
  0.851000, -0.508700
  0.853000, -0.484200
  0.855000, -0.460000
  0.857000, -0.436600
  0.859000, -0.414000
  0.861000, -0.392100
  0.863000, -0.370900
  0.865000, -0.350300
  0.867000, -0.330200
  0.869000, -0.310800
  0.871000, -0.292200
  0.873000, -0.274100
  0.875000, -0.256700
  0.877000, -0.240000
  0.879000, -0.224100
  0.881000, -0.209000
  0.883000, -0.194600
  0.885000, -0.180800
  0.887000, -0.167900
  0.889000, -0.155900
  0.891000, -0.144600
  0.893000, -0.134100
  0.895000, -0.124500
  0.897000, -0.115600
  0.899000, -0.107600
  0.901000, -0.100300
  0.903000, -0.093800
  0.905000, -0.087900
  0.907000, -0.082800
  0.909000, -0.078400
  0.911000, -0.074800
  0.913000, -0.072000
  0.915000, -0.070000
  0.917000, -0.068700
  0.919000, -0.068100
  0.921000, -0.068100
  0.923000, -0.068700
  0.925000, -0.070000
  0.927000, -0.072000
  0.929000, -0.074700
  0.931000, -0.077700
  0.933000, -0.081300
  0.935000, -0.085600
  0.937000, -0.090300
  0.939000, -0.095500
  0.941000, -0.101100
  0.943000, -0.107200
  0.945000, -0.113800
  0.947000, -0.120700
  0.949000, -0.127700
  0.951000, -0.135100
  0.953000, -0.142600
  0.955000, -0.150200
  0.957000, -0.158200
  0.959000, -0.166400
  0.961000, -0.174700
  0.963000, -0.183100
  0.965000, -0.191500
  0.967000, -0.199800
  0.969000, -0.208200
  0.971000, -0.216400
  0.973000, -0.224500
  0.975000, -0.232500
  0.977000, -0.240400
  0.979000, -0.248200
  0.981000, -0.255800
  0.983000, -0.263200
  0.985000, -0.270300
  0.987000, -0.277200
  0.989000, -0.283700
  0.991000, -0.290100
  0.993000, -0.296200
  0.995000, -0.301800
  0.997000, -0.307100
  0.999000, -0.312100
  1.001000, -0.316800
  1.003000, -0.320900
  1.005000, -0.324600
  1.007000, -0.327900
  1.009000, -0.331000
  1.011000, -0.333700
  1.013000, -0.336000
  1.015000, -0.337900
  1.017000, -0.339400
  1.019000, -0.340600
  1.021000, -0.341400
  1.023000, -0.341800
  1.025000, -0.341800
  1.027000, -0.341500
  1.029000, -0.340900
  1.031000, -0.340000
  1.033000, -0.338700
  1.035000, -0.337100
  1.037000, -0.335200
  1.039000, -0.333100
  1.041000, -0.330700
  1.043000, -0.328000
  1.045000, -0.325100
  1.047000, -0.322000
  1.049000, -0.318700
  1.051000, -0.315400
  1.053000, -0.311900
  1.055000, -0.308000
  1.057000, -0.304000
  1.059000, -0.299900
  1.061000, -0.295700
  1.063000, -0.291400
  1.065000, -0.287100
  1.067000, -0.282700
  1.069000, -0.278200
  1.071000, -0.273700
  1.073000, -0.269200
  1.075000, -0.264700
  1.077000, -0.260100
  1.079000, -0.255500
  1.081000, -0.251200
  1.083000, -0.246800
  1.085000, -0.242300
  1.087000, -0.237800
  1.089000, -0.233300
  1.091000, -0.228800
  1.093000, -0.224200
  1.095000, -0.219700
  1.097000, -0.215300
  1.099000, -0.210800
  1.101000, -0.206400
  1.103000, -0.202100
  1.105000, -0.197800
  1.107000, -0.193600
  1.109000, -0.189300
  1.111000, -0.185200
  1.113000, -0.181100
  1.115000, -0.177000
  1.117000, -0.172900
  1.119000, -0.168800
  1.121000, -0.164600
  1.123000, -0.160500
  1.125000, -0.156400
  1.127000, -0.152300
  1.129000, -0.148000
  1.131000, -0.143900
  1.133000, -0.139800
  1.135000, -0.135700
  1.137000, -0.131600
  1.139000, -0.127500
  1.141000, -0.123300
  1.143000, -0.119200
  1.145000, -0.115100
  1.147000, -0.110800
  1.149000, -0.106600
  1.151000, -0.102300
  1.153000, -0.098000
  1.155000, -0.093700
  1.157000, -0.089500
  1.159000, -0.085300
  1.161000, -0.081000
  1.163000, -0.076800
  1.165000, -0.072600
  1.167000, -0.068200
  1.169000, -0.064000
  1.171000, -0.059800
  1.173000, -0.055700
  1.175000, -0.051700
  1.177000, -0.047700
  1.179000, -0.043700
  1.181000, -0.039800
  1.183000, -0.035800
  1.185000, -0.032000
  1.187000, -0.028300
  1.189000, -0.024600
  1.191000, -0.021000
  1.193000, -0.017500
  1.195000, -0.014000
  1.197000, -0.010600
  1.199000, -0.007500
  1.201000, -0.004500
  1.203000, -0.001500
  1.205000,  0.001200
  1.207000,  0.003800
  1.209000,  0.006300
  1.211000,  0.008700
  1.213000,  0.010900
  1.215000,  0.012900
  1.217000,  0.014600
  1.219000,  0.016400
  1.221000,  0.018000
  1.223000,  0.019400
  1.225000,  0.020700
  1.227000,  0.021800
  1.229000,  0.022700
  1.231000,  0.023500
  1.233000,  0.024100
  1.235000,  0.024600
  1.237000,  0.025000
  1.239000,  0.025200
  1.241000,  0.025100
  1.243000,  0.024900
  1.245000,  0.024600
  1.247000,  0.024100
  1.249000,  0.023400
  1.251000,  0.022400
  1.253000,  0.021300
  1.255000,  0.020000
  1.257000,  0.018800
  1.259000,  0.017400
  1.261000,  0.015800
  1.263000,  0.014100
  1.265000,  0.012400
  1.267000,  0.010600
  1.269000,  0.008600
  1.271000,  0.006600
  1.273000,  0.004500
  1.275000,  0.002400
  1.277000,  0.000200
  1.279000, -0.002000
  1.281000, -0.004200
  1.283000, -0.006600
  1.285000, -0.008800
  1.287000, -0.011100
  1.289000, -0.013400
  1.291000, -0.015800
  1.293000, -0.018000
  1.295000, -0.020100
  1.297000, -0.022300
  1.299000, -0.024400
  1.301000, -0.026400
  1.303000, -0.028200
  1.305000, -0.030000
  1.307000, -0.031600
  1.309000, -0.033100
  1.311000, -0.034500
  1.313000, -0.035700
  1.315000, -0.036800
  1.317000, -0.037600
  1.319000, -0.038300
  1.321000, -0.038800
  1.323000, -0.039100
  1.325000, -0.039200
  1.327000, -0.039200
  1.329000, -0.039000
  1.331000, -0.038700
  1.333000, -0.038100
  1.335000, -0.037200
  1.337000, -0.036200
  1.339000, -0.035000
  1.341000, -0.033500
  1.343000, -0.031900
  1.345000, -0.030100
  1.347000, -0.028000
  1.349000, -0.025700
  1.351000, -0.023200
  1.353000, -0.020600
  1.355000, -0.017900
  1.357000, -0.014800
  1.359000, -0.011600
  1.361000, -0.008300
  1.363000, -0.004900
  1.365000, -0.001300
  1.367000,  0.002500
  1.369000,  0.006300
  1.371000,  0.010200
  1.373000,  0.014300
  1.375000,  0.018200
  1.377000,  0.022200
  1.379000,  0.026300
  1.381000,  0.030100
  1.383000,  0.033900
  1.385000,  0.037600
  1.387000,  0.041400
  1.389000,  0.044700
  1.391000,  0.047800
  1.393000,  0.050700
  1.395000,  0.053200
  1.397000,  0.055500
  1.399000,  0.057600
