# z (nm)   (kJ/mol)
  0.2730    9.54900
  0.2750    8.99950
  0.2770    8.43990
  0.2790    7.83310
  0.2810    7.22560
  0.2830    6.62790
  0.2850    6.00640
  0.2870    5.38010
  0.2890    4.73930
  0.2910    4.09510
  0.2930    3.44700
  0.2950    2.78690
  0.2970    2.12680
  0.2990    1.47160
  0.3010    0.81330
  0.3030    0.15350
  0.3050   -0.51010
  0.3070   -1.16730
  0.3090   -1.81270
  0.3110   -2.45240
  0.3130   -3.08920
  0.3150   -3.71810
  0.3170   -4.33460
  0.3190   -4.94200
  0.3210   -5.53880
  0.3230   -6.12360
  0.3250   -6.69610
  0.3270   -7.25860
  0.3290   -7.80810
  0.3310   -8.34010
  0.3330   -8.85760
  0.3350   -9.36290
  0.3370   -9.85220
  0.3390  -10.32250
  0.3410  -10.77520
  0.3430  -11.21100
  0.3450  -11.62850
  0.3470  -12.02560
  0.3490  -12.40280
  0.3510  -12.76300
  0.3530  -13.10460
  0.3550  -13.42460
  0.3570  -13.72380
  0.3590  -14.00300
  0.3610  -14.26110
  0.3630  -14.49770
  0.3650  -14.71250
  0.3670  -14.90540
  0.3690  -15.07680
  0.3710  -15.22710
  0.3730  -15.35600
  0.3750  -15.46380
  0.3770  -15.55080
  0.3790  -15.61660
  0.3810  -15.66230
  0.3830  -15.68860
  0.3850  -15.69540
  0.3870  -15.68360
  0.3890  -15.65350
  0.3910  -15.60550
  0.3930  -15.54000
  0.3950  -15.45820
  0.3970  -15.36110
  0.3990  -15.25040
  0.4010  -15.12520
  0.4030  -14.98560
  0.4050  -14.83540
  0.4070  -14.67460
  0.4090  -14.50250
  0.4110  -14.32060
  0.4130  -14.12990
  0.4150  -13.93140
  0.4170  -13.72700
  0.4190  -13.51690
  0.4210  -13.30320
  0.4230  -13.08590
  0.4250  -12.86440
  0.4270  -12.64100
  0.4290  -12.41660
  0.4310  -12.19130
  0.4330  -11.96580
  0.4350  -11.74150
  0.4370  -11.51850
  0.4390  -11.29710
  0.4410  -11.07810
  0.4430  -10.86190
  0.4450  -10.64900
  0.4470  -10.43970
  0.4490  -10.23460
  0.4510  -10.03380
  0.4530   -9.83710
  0.4550   -9.64520
  0.4570   -9.45860
  0.4590   -9.27640
  0.4610   -9.09930
  0.4630   -8.92770
  0.4650   -8.76030
  0.4670   -8.59710
  0.4690   -8.43930
  0.4710   -8.28720
  0.4730   -8.14050
  0.4750   -7.99780
  0.4770   -7.85860
  0.4790   -7.72340
  0.4810   -7.59160
  0.4830   -7.46230
  0.4850   -7.33560
  0.4870   -7.21270
  0.4890   -7.09180
  0.4910   -6.97230
  0.4930   -6.85480
  0.4950   -6.73840
  0.4970   -6.62510
  0.4990   -6.51330
  0.5010   -6.40030
  0.5030   -6.28760
  0.5050   -6.17540
  0.5070   -6.06240
  0.5090   -5.94840
  0.5110   -5.83430
  0.5130   -5.71880
  0.5150   -5.60180
  0.5170   -5.48290
  0.5190   -5.36180
  0.5210   -5.23890
  0.5230   -5.11360
  0.5250   -4.98550
  0.5270   -4.85510
  0.5290   -4.72200
  0.5310   -4.58570
  0.5330   -4.44650
  0.5350   -4.30470
  0.5370   -4.15990
  0.5390   -4.01210
  0.5410   -3.86200
  0.5430   -3.70940
  0.5450   -3.55370
  0.5470   -3.39510
  0.5490   -3.23350
  0.5510   -3.07020
  0.5530   -2.90520
  0.5550   -2.73730
  0.5570   -2.56780
  0.5590   -2.39820
  0.5610   -2.22730
  0.5630   -2.05480
  0.5650   -1.88220
  0.5670   -1.70850
  0.5690   -1.53530
  0.5710   -1.36390
  0.5730   -1.19200
  0.5750   -1.02070
  0.5770   -0.85130
  0.5790   -0.68400
  0.5810   -0.51910
  0.5830   -0.35650
  0.5850   -0.19500
  0.5870   -0.03640
  0.5890    0.11680
  0.5910    0.26490
  0.5930    0.40850
  0.5950    0.54730
  0.5970    0.68040
  0.5990    0.80870
  0.6010    0.93120
  0.6030    1.04700
  0.6050    1.15640
  0.6070    1.25920
  0.6090    1.35620
  0.6110    1.44700
  0.6130    1.52950
  0.6150    1.60440
  0.6170    1.67200
  0.6190    1.73210
  0.6210    1.78500
  0.6230    1.83010
  0.6250    1.86760
  0.6270    1.89770
  0.6290    1.92030
  0.6310    1.93540
  0.6330    1.94320
  0.6350    1.94380
  0.6370    1.93720
  0.6390    1.92370
  0.6410    1.90370
  0.6430    1.87720
  0.6450    1.84440
  0.6470    1.80620
  0.6490    1.76380
  0.6510    1.71590
  0.6530    1.66140
  0.6550    1.60260
  0.6570    1.53920
  0.6590    1.47260
  0.6610    1.40240
  0.6630    1.32810
  0.6650    1.25260
  0.6670    1.17430
  0.6690    1.09210
  0.6710    1.00710
  0.6730    0.92170
  0.6750    0.83540
  0.6770    0.74760
  0.6790    0.66030
  0.6810    0.57270
  0.6830    0.48540
  0.6850    0.39960
  0.6870    0.31410
  0.6890    0.22930
  0.6910    0.14570
  0.6930    0.06310
  0.6950   -0.01750
  0.6970   -0.09590
  0.6990   -0.17170
  0.7010   -0.24610
  0.7030   -0.31880
  0.7050   -0.38860
  0.7070   -0.45540
  0.7090   -0.51920
  0.7110   -0.58080
  0.7130   -0.63990
  0.7150   -0.69580
  0.7170   -0.74890
  0.7190   -0.79920
  0.7210   -0.84640
  0.7230   -0.89040
  0.7250   -0.93120
  0.7270   -0.96900
  0.7290   -1.00390
  0.7310   -1.03610
  0.7330   -1.06510
  0.7350   -1.09120
  0.7370   -1.11450
  0.7390   -1.13470
  0.7410   -1.15220
  0.7430   -1.16720
  0.7450   -1.17970
  0.7470   -1.18940
  0.7490   -1.19650
  0.7510   -1.20140
  0.7530   -1.20440
  0.7550   -1.20540
  0.7570   -1.20440
  0.7590   -1.20110
  0.7610   -1.19610
  0.7630   -1.18950
  0.7650   -1.18100
  0.7670   -1.17080
  0.7690   -1.15970
  0.7710   -1.14730
  0.7730   -1.13330
  0.7750   -1.11810
  0.7770   -1.10190
  0.7790   -1.08460
  0.7810   -1.06610
  0.7830   -1.04630
  0.7850   -1.02550
  0.7870   -1.00440
  0.7890   -0.98270
  0.7910   -0.96010
  0.7930   -0.93700
  0.7950   -0.91330
  0.7970   -0.88920
  0.7990   -0.86450
  0.8010   -0.83930
  0.8030   -0.81370
  0.8050   -0.78760
  0.8070   -0.76120
  0.8090   -0.73450
  0.8110   -0.70780
  0.8130   -0.68080
  0.8150   -0.65340
  0.8170   -0.62540
  0.8190   -0.59740
  0.8210   -0.56920
  0.8230   -0.54080
  0.8250   -0.51230
  0.8270   -0.48350
  0.8290   -0.45470
  0.8310   -0.42590
  0.8330   -0.39690
  0.8350   -0.36780
  0.8370   -0.33870
  0.8390   -0.30970
  0.8410   -0.28060
  0.8430   -0.25150
  0.8450   -0.22250
  0.8470   -0.19360
  0.8490   -0.16490
  0.8510   -0.13640
  0.8530   -0.10800
  0.8550   -0.07980
  0.8570   -0.05180
  0.8590   -0.02410
  0.8610    0.00310
  0.8630    0.03000
  0.8650    0.05650
  0.8670    0.08250
  0.8690    0.10810
  0.8710    0.13320
  0.8730    0.15770
  0.8750    0.18170
  0.8770    0.20490
  0.8790    0.22750
  0.8810    0.24950
  0.8830    0.27070
  0.8850    0.29110
  0.8870    0.31050
  0.8890    0.32910
  0.8910    0.34680
  0.8930    0.36370
  0.8950    0.37960
  0.8970    0.39450
  0.8990    0.40840
  0.9010    0.42140
  0.9030    0.43330
  0.9050    0.44400
  0.9070    0.45380
  0.9090    0.46250
  0.9110    0.47000
  0.9130    0.47650
  0.9150    0.48180
  0.9170    0.48610
  0.9190    0.48920
  0.9210    0.49140
  0.9230    0.49250
  0.9250    0.49240
  0.9270    0.49130
  0.9290    0.48910
  0.9310    0.48580
  0.9330    0.48140
  0.9350    0.47600
  0.9370    0.46960
  0.9390    0.46260
  0.9410    0.45470
  0.9430    0.44560
  0.9450    0.43560
  0.9470    0.42500
  0.9490    0.41370
  0.9510    0.40140
  0.9530    0.38840
  0.9550    0.37480
  0.9570    0.36060
  0.9590    0.34600
  0.9610    0.33080
  0.9630    0.31520
  0.9650    0.29920
  0.9670    0.28260
  0.9690    0.26570
  0.9710    0.24850
  0.9730    0.23120
  0.9750    0.21380
  0.9770    0.19630
  0.9790    0.17850
  0.9810    0.16030
  0.9830    0.14220
  0.9850    0.12410
  0.9870    0.10600
  0.9890    0.08780
  0.9910    0.06960
  0.9930    0.05150
  0.9950    0.03390
  0.9970    0.01640
  0.9990   -0.00080
  1.0010   -0.01790
  1.0030   -0.03450
  1.0050   -0.05080
  1.0070   -0.06700
  1.0090   -0.08270
  1.0110   -0.09800
  1.0130   -0.11300
  1.0150   -0.12760
  1.0170   -0.14180
  1.0190   -0.15560
  1.0210   -0.16890
  1.0230   -0.18160
  1.0250   -0.19390
  1.0270   -0.20560
  1.0290   -0.21690
  1.0310   -0.22760
  1.0330   -0.23780
  1.0350   -0.24740
  1.0370   -0.25660
  1.0390   -0.26520
  1.0410   -0.27330
  1.0430   -0.28090
  1.0450   -0.28790
  1.0470   -0.29440
  1.0490   -0.30050
  1.0510   -0.30600
  1.0530   -0.31100
  1.0550   -0.31550
  1.0570   -0.31950
  1.0590   -0.32290
  1.0610   -0.32580
  1.0630   -0.32830
  1.0650   -0.33020
  1.0670   -0.33170
  1.0690   -0.33280
  1.0710   -0.33350
  1.0730   -0.33380
  1.0750   -0.33350
  1.0770   -0.33290
  1.0790   -0.33200
  1.0810   -0.33050
  1.0830   -0.32860
  1.0850   -0.32630
  1.0870   -0.32370
  1.0890   -0.32070
  1.0910   -0.31750
  1.0930   -0.31380
  1.0950   -0.30980
  1.0970   -0.30540
  1.0990   -0.30080
  1.1010   -0.29600
  1.1030   -0.29080
  1.1050   -0.28530
  1.1070   -0.27950
  1.1090   -0.27350
  1.1110   -0.26720
  1.1130   -0.26080
  1.1150   -0.25400
  1.1170   -0.24700
  1.1190   -0.23980
  1.1210   -0.23240
  1.1230   -0.22490
  1.1250   -0.21710
  1.1270   -0.20910
  1.1290   -0.20110
  1.1310   -0.19310
  1.1330   -0.18480
  1.1350   -0.17640
  1.1370   -0.16790
  1.1390   -0.15940
  1.1410   -0.15080
  1.1430   -0.14200
  1.1450   -0.13320
  1.1470   -0.12440
  1.1490   -0.11550
  1.1510   -0.10660
  1.1530   -0.09760
  1.1550   -0.08860
  1.1570   -0.07960
  1.1590   -0.07070
  1.1610   -0.06210
  1.1630   -0.05340
  1.1650   -0.04480
  1.1670   -0.03630
  1.1690   -0.02780
  1.1710   -0.01950
  1.1730   -0.01140
  1.1750   -0.00350
  1.1770    0.00440
  1.1790    0.01200
  1.1810    0.01930
  1.1830    0.02640
  1.1850    0.03340
  1.1870    0.04020
  1.1890    0.04670
  1.1910    0.05290
  1.1930    0.05890
  1.1950    0.06450
  1.1970    0.06970
  1.1990    0.07480
  1.2010    0.07950
  1.2030    0.08400
  1.2050    0.08810
  1.2070    0.09190
  1.2090    0.09540
  1.2110    0.09840
  1.2130    0.10100
  1.2150    0.10340
  1.2170    0.10530
  1.2190    0.10690
  1.2210    0.10810
  1.2230    0.10890
  1.2250    0.10940
  1.2270    0.10950
  1.2290    0.10910
  1.2310    0.10840
  1.2330    0.10750
  1.2350    0.10630
  1.2370    0.10470
  1.2390    0.10290
  1.2410    0.10070
  1.2430    0.09820
  1.2450    0.09550
  1.2470    0.09240
  1.2490    0.08900
  1.2510    0.08540
  1.2530    0.08180
  1.2550    0.07800
  1.2570    0.07400
  1.2590    0.06980
  1.2610    0.06540
  1.2630    0.06100
  1.2650    0.05640
  1.2670    0.05180
  1.2690    0.04710
  1.2710    0.04230
  1.2730    0.03750
  1.2750    0.03280
  1.2770    0.02810
  1.2790    0.02320
  1.2810    0.01820
  1.2830    0.01340
  1.2850    0.00880
  1.2870    0.00430
  1.2890   -0.00030
  1.2910   -0.00480
  1.2930   -0.00910
  1.2950   -0.01340
  1.2970   -0.01780
  1.2990   -0.02210
  1.3010   -0.02620
  1.3030   -0.03020
  1.3050   -0.03400
  1.3070   -0.03780
  1.3090   -0.04140
  1.3110   -0.04480
  1.3130   -0.04800
  1.3150   -0.05120
  1.3170   -0.05410
  1.3190   -0.05690
  1.3210   -0.05950
  1.3230   -0.06210
  1.3250   -0.06460
  1.3270   -0.06700
  1.3290   -0.06920
  1.3310   -0.07130
  1.3330   -0.07310
  1.3350   -0.07500
  1.3370   -0.07660
  1.3390   -0.07800
  1.3410   -0.07920
  1.3430   -0.08020
  1.3450   -0.08110
  1.3470   -0.08200
  1.3490   -0.08270
  1.3510   -0.08310
  1.3530   -0.08340
  1.3550   -0.08360
  1.3570   -0.08360
  1.3590   -0.08350
  1.3610   -0.08320
  1.3630   -0.08270
  1.3650   -0.08190
  1.3670   -0.08100
  1.3690   -0.07980
  1.3710   -0.07870
  1.3730   -0.07770
  1.3750   -0.07650
  1.3770   -0.07510
  1.3790   -0.07360
  1.3810   -0.07200
  1.3830   -0.07040
  1.3850   -0.06880
  1.3870   -0.06700
  1.3890   -0.06530
  1.3910   -0.06370
  1.3930   -0.06230
  1.3950   -0.06140
  1.3970   -0.06050
  1.3990   -0.06010
