# z (nm)   (kJ/mol)
  0.2890   12.33980
  0.2910   11.84210
  0.2930   11.33280
  0.2950   10.81940
  0.2970   10.25860
  0.2990    9.65230
  0.3010    9.06940
  0.3030    8.49950
  0.3050    7.90460
  0.3070    7.29290
  0.3090    6.68380
  0.3110    6.08060
  0.3130    5.46700
  0.3150    4.84590
  0.3170    4.22820
  0.3190    3.61090
  0.3210    2.98940
  0.3230    2.36760
  0.3250    1.74860
  0.3270    1.13270
  0.3290    0.51850
  0.3310   -0.09120
  0.3330   -0.69160
  0.3350   -1.29110
  0.3370   -1.88580
  0.3390   -2.47140
  0.3410   -3.04650
  0.3430   -3.61020
  0.3450   -4.16550
  0.3470   -4.71300
  0.3490   -5.24900
  0.3510   -5.77340
  0.3530   -6.28290
  0.3550   -6.77820
  0.3570   -7.26100
  0.3590   -7.73040
  0.3610   -8.18590
  0.3630   -8.62680
  0.3650   -9.05000
  0.3670   -9.45600
  0.3690   -9.84680
  0.3710  -10.21970
  0.3730  -10.57590
  0.3750  -10.91580
  0.3770  -11.23750
  0.3790  -11.54090
  0.3810  -11.82600
  0.3830  -12.09300
  0.3850  -12.34140
  0.3870  -12.57110
  0.3890  -12.78240
  0.3910  -12.97450
  0.3930  -13.14780
  0.3950  -13.30260
  0.3970  -13.43900
  0.3990  -13.55680
  0.4010  -13.65620
  0.4030  -13.73780
  0.4050  -13.80240
  0.4070  -13.84910
  0.4090  -13.87770
  0.4110  -13.88860
  0.4130  -13.88360
  0.4150  -13.86340
  0.4170  -13.82680
  0.4190  -13.77590
  0.4210  -13.71200
  0.4230  -13.63480
  0.4250  -13.54400
  0.4270  -13.43990
  0.4290  -13.32480
  0.4310  -13.19840
  0.4330  -13.06220
  0.4350  -12.91790
  0.4370  -12.76460
  0.4390  -12.60250
  0.4410  -12.43160
  0.4430  -12.25300
  0.4450  -12.06830
  0.4470  -11.87800
  0.4490  -11.68180
  0.4510  -11.48160
  0.4530  -11.27690
  0.4550  -11.06830
  0.4570  -10.85600
  0.4590  -10.64020
  0.4610  -10.42210
  0.4630  -10.20160
  0.4650   -9.97880
  0.4670   -9.75430
  0.4690   -9.52790
  0.4710   -9.30030
  0.4730   -9.07190
  0.4750   -8.84240
  0.4770   -8.61210
  0.4790   -8.38190
  0.4810   -8.15130
  0.4830   -7.91990
  0.4850   -7.68840
  0.4870   -7.45700
  0.4890   -7.22600
  0.4910   -6.99520
  0.4930   -6.76410
  0.4950   -6.53320
  0.4970   -6.30240
  0.4990   -6.07120
  0.5010   -5.84030
  0.5030   -5.61020
  0.5050   -5.38080
  0.5070   -5.15180
  0.5090   -4.92360
  0.5110   -4.69610
  0.5130   -4.46900
  0.5150   -4.24220
  0.5170   -4.01600
  0.5190   -3.79120
  0.5210   -3.56740
  0.5230   -3.34380
  0.5250   -3.12170
  0.5270   -2.90110
  0.5290   -2.68140
  0.5310   -2.46290
  0.5330   -2.24490
  0.5350   -2.02870
  0.5370   -1.81490
  0.5390   -1.60250
  0.5410   -1.39230
  0.5430   -1.18440
  0.5450   -0.97840
  0.5470   -0.77440
  0.5490   -0.57300
  0.5510   -0.37450
  0.5530   -0.17920
  0.5550    0.01300
  0.5570    0.20290
  0.5590    0.38920
  0.5610    0.57130
  0.5630    0.74930
  0.5650    0.92360
  0.5670    1.09370
  0.5690    1.25870
  0.5710    1.41890
  0.5730    1.57420
  0.5750    1.72490
  0.5770    1.87000
  0.5790    2.00970
  0.5810    2.14450
  0.5830    2.27380
  0.5850    2.39690
  0.5870    2.51390
  0.5890    2.62530
  0.5910    2.73090
  0.5930    2.82990
  0.5950    2.92170
  0.5970    3.00700
  0.5990    3.08590
  0.6010    3.15780
  0.6030    3.22280
  0.6050    3.28060
  0.6070    3.33130
  0.6090    3.37520
  0.6110    3.41220
  0.6130    3.44220
  0.6150    3.46510
  0.6170    3.48110
  0.6190    3.49050
  0.6210    3.49290
  0.6230    3.48880
  0.6250    3.47780
  0.6270    3.45980
  0.6290    3.43550
  0.6310    3.40470
  0.6330    3.36820
  0.6350    3.32510
  0.6370    3.27590
  0.6390    3.22150
  0.6410    3.16230
  0.6430    3.09700
  0.6450    3.02610
  0.6470    2.95100
  0.6490    2.87140
  0.6510    2.78770
  0.6530    2.69960
  0.6550    2.60790
  0.6570    2.51280
  0.6590    2.41340
  0.6610    2.31140
  0.6630    2.20720
  0.6650    2.10060
  0.6670    1.99230
  0.6690    1.88230
  0.6710    1.77020
  0.6730    1.65610
  0.6750    1.54050
  0.6770    1.42400
  0.6790    1.30790
  0.6810    1.19160
  0.6830    1.07420
  0.6850    0.95750
  0.6870    0.84280
  0.6890    0.72810
  0.6910    0.61520
  0.6930    0.50510
  0.6950    0.39550
  0.6970    0.28720
  0.6990    0.18100
  0.7010    0.07660
  0.7030   -0.02560
  0.7050   -0.12500
  0.7070   -0.22230
  0.7090   -0.31720
  0.7110   -0.40920
  0.7130   -0.49810
  0.7150   -0.58360
  0.7170   -0.66610
  0.7190   -0.74520
  0.7210   -0.82060
  0.7230   -0.89300
  0.7250   -0.96180
  0.7270   -1.02660
  0.7290   -1.08810
  0.7310   -1.14600
  0.7330   -1.19990
  0.7350   -1.25000
  0.7370   -1.29690
  0.7390   -1.34000
  0.7410   -1.37920
  0.7430   -1.41460
  0.7450   -1.44640
  0.7470   -1.47460
  0.7490   -1.49930
  0.7510   -1.52060
  0.7530   -1.53790
  0.7550   -1.55140
  0.7570   -1.56180
  0.7590   -1.56910
  0.7610   -1.57320
  0.7630   -1.57410
  0.7650   -1.57200
  0.7670   -1.56700
  0.7690   -1.55890
  0.7710   -1.54820
  0.7730   -1.53460
  0.7750   -1.51830
  0.7770   -1.49970
  0.7790   -1.47850
  0.7810   -1.45490
  0.7830   -1.42900
  0.7850   -1.40100
  0.7870   -1.37160
  0.7890   -1.34020
  0.7910   -1.30680
  0.7930   -1.27200
  0.7950   -1.23540
  0.7970   -1.19760
  0.7990   -1.15830
  0.8010   -1.11720
  0.8030   -1.07520
  0.8050   -1.03260
  0.8070   -0.98900
  0.8090   -0.94440
  0.8110   -0.89930
  0.8130   -0.85360
  0.8150   -0.80740
  0.8170   -0.76050
  0.8190   -0.71320
  0.8210   -0.66560
  0.8230   -0.61790
  0.8250   -0.56990
  0.8270   -0.52210
  0.8290   -0.47450
  0.8310   -0.42680
  0.8330   -0.37930
  0.8350   -0.33230
  0.8370   -0.28550
  0.8390   -0.23900
  0.8410   -0.19300
  0.8430   -0.14760
  0.8450   -0.10250
  0.8470   -0.05810
  0.8490   -0.01440
  0.8510    0.02860
  0.8530    0.07050
  0.8550    0.11160
  0.8570    0.15190
  0.8590    0.19130
  0.8610    0.22960
  0.8630    0.26700
  0.8650    0.30340
  0.8670    0.33870
  0.8690    0.37290
  0.8710    0.40600
  0.8730    0.43780
  0.8750    0.46820
  0.8770    0.49740
  0.8790    0.52530
  0.8810    0.55210
  0.8830    0.57740
  0.8850    0.60160
  0.8870    0.62440
  0.8890    0.64590
  0.8910    0.66600
  0.8930    0.68460
  0.8950    0.70200
  0.8970    0.71790
  0.8990    0.73230
  0.9010    0.74530
  0.9030    0.75690
  0.9050    0.76690
  0.9070    0.77530
  0.9090    0.78220
  0.9110    0.78760
  0.9130    0.79150
  0.9150    0.79390
  0.9170    0.79490
  0.9190    0.79450
  0.9210    0.79270
  0.9230    0.78930
  0.9250    0.78450
  0.9270    0.77820
  0.9290    0.77040
  0.9310    0.76130
  0.9330    0.75080
  0.9350    0.73900
  0.9370    0.72590
  0.9390    0.71140
  0.9410    0.69600
  0.9430    0.67940
  0.9450    0.66130
  0.9470    0.64210
  0.9490    0.62190
  0.9510    0.60070
  0.9530    0.57840
  0.9550    0.55510
  0.9570    0.53120
  0.9590    0.50630
  0.9610    0.48050
  0.9630    0.45410
  0.9650    0.42680
  0.9670    0.39870
  0.9690    0.37020
  0.9710    0.34170
  0.9730    0.31280
  0.9750    0.28330
  0.9770    0.25340
  0.9790    0.22320
  0.9810    0.19290
  0.9830    0.16250
  0.9850    0.13200
  0.9870    0.10150
  0.9890    0.07120
  0.9910    0.04110
  0.9930    0.01130
  0.9950   -0.01820
  0.9970   -0.04770
  0.9990   -0.07690
  1.0010   -0.10550
  1.0030   -0.13360
  1.0050   -0.16140
  1.0070   -0.18860
  1.0090   -0.21490
  1.0110   -0.24080
  1.0130   -0.26610
  1.0150   -0.29050
  1.0170   -0.31390
  1.0190   -0.33630
  1.0210   -0.35810
  1.0230   -0.37920
  1.0250   -0.39930
  1.0270   -0.41860
  1.0290   -0.43710
  1.0310   -0.45440
  1.0330   -0.47060
  1.0350   -0.48590
  1.0370   -0.50040
  1.0390   -0.51410
  1.0410   -0.52640
  1.0430   -0.53760
  1.0450   -0.54790
  1.0470   -0.55720
  1.0490   -0.56540
  1.0510   -0.57280
  1.0530   -0.57930
  1.0550   -0.58450
  1.0570   -0.58890
  1.0590   -0.59250
  1.0610   -0.59510
  1.0630   -0.59670
  1.0650   -0.59750
  1.0670   -0.59730
  1.0690   -0.59630
  1.0710   -0.59440
  1.0730   -0.59190
  1.0750   -0.58870
  1.0770   -0.58460
  1.0790   -0.57980
  1.0810   -0.57420
  1.0830   -0.56810
  1.0850   -0.56130
  1.0870   -0.55390
  1.0890   -0.54600
  1.0910   -0.53750
  1.0930   -0.52850
  1.0950   -0.51900
  1.0970   -0.50890
  1.0990   -0.49830
  1.1010   -0.48740
  1.1030   -0.47590
  1.1050   -0.46410
  1.1070   -0.45200
  1.1090   -0.43960
  1.1110   -0.42710
  1.1130   -0.41430
  1.1150   -0.40120
  1.1170   -0.38800
  1.1190   -0.37460
  1.1210   -0.36110
  1.1230   -0.34750
  1.1250   -0.33380
  1.1270   -0.32010
  1.1290   -0.30640
  1.1310   -0.29280
  1.1330   -0.27900
  1.1350   -0.26520
  1.1370   -0.25160
  1.1390   -0.23820
  1.1410   -0.22490
  1.1430   -0.21180
  1.1450   -0.19890
  1.1470   -0.18600
  1.1490   -0.17330
  1.1510   -0.16080
  1.1530   -0.14860
  1.1550   -0.13670
  1.1570   -0.12500
  1.1590   -0.11350
  1.1610   -0.10240
  1.1630   -0.09160
  1.1650   -0.08120
  1.1670   -0.07110
  1.1690   -0.06140
  1.1710   -0.05200
  1.1730   -0.04300
  1.1750   -0.03430
  1.1770   -0.02590
  1.1790   -0.01790
  1.1810   -0.01030
  1.1830   -0.00300
  1.1850    0.00380
  1.1870    0.01020
  1.1890    0.01630
  1.1910    0.02210
  1.1930    0.02750
  1.1950    0.03260
  1.1970    0.03740
  1.1990    0.04190
  1.2010    0.04600
  1.2030    0.04960
  1.2050    0.05300
  1.2070    0.05610
  1.2090    0.05890
  1.2110    0.06130
  1.2130    0.06350
  1.2150    0.06540
  1.2170    0.06720
  1.2190    0.06860
  1.2210    0.06980
  1.2230    0.07070
  1.2250    0.07140
  1.2270    0.07190
  1.2290    0.07230
  1.2310    0.07230
  1.2330    0.07230
  1.2350    0.07220
  1.2370    0.07190
  1.2390    0.07130
  1.2410    0.07050
  1.2430    0.06960
  1.2450    0.06870
  1.2470    0.06780
  1.2490    0.06670
  1.2510    0.06560
  1.2530    0.06430
  1.2550    0.06270
  1.2570    0.06090
  1.2590    0.05910
  1.2610    0.05720
  1.2630    0.05530
  1.2650    0.05340
  1.2670    0.05130
  1.2690    0.04900
  1.2710    0.04670
  1.2730    0.04420
  1.2750    0.04170
  1.2770    0.03910
  1.2790    0.03640
  1.2810    0.03350
  1.2830    0.03070
  1.2850    0.02770
  1.2870    0.02460
  1.2890    0.02140
  1.2910    0.01820
  1.2930    0.01490
  1.2950    0.01150
  1.2970    0.00810
  1.2990    0.00460
  1.3010    0.00110
  1.3030   -0.00250
  1.3050   -0.00620
  1.3070   -0.00990
  1.3090   -0.01360
  1.3110   -0.01730
  1.3130   -0.02100
  1.3150   -0.02470
  1.3170   -0.02840
  1.3190   -0.03190
  1.3210   -0.03540
  1.3230   -0.03890
  1.3250   -0.04240
  1.3270   -0.04590
  1.3290   -0.04910
  1.3310   -0.05210
  1.3330   -0.05510
  1.3350   -0.05790
  1.3370   -0.06070
  1.3390   -0.06320
  1.3410   -0.06550
  1.3430   -0.06760
  1.3450   -0.06950
  1.3470   -0.07110
  1.3490   -0.07260
  1.3510   -0.07380
  1.3530   -0.07480
  1.3550   -0.07560
  1.3570   -0.07610
  1.3590   -0.07650
  1.3610   -0.07660
  1.3630   -0.07650
  1.3650   -0.07620
  1.3670   -0.07560
  1.3690   -0.07500
  1.3710   -0.07410
  1.3730   -0.07280
  1.3750   -0.07130
  1.3770   -0.06950
  1.3790   -0.06780
  1.3810   -0.06590
  1.3830   -0.06390
  1.3850   -0.06180
  1.3870   -0.05950
  1.3890   -0.05730
  1.3910   -0.05490
  1.3930   -0.05260
  1.3950   -0.05060
  1.3970   -0.04890
  1.3990   -0.04760
