# z (nm)   (kJ/mol)
  0.263000,  8.645100
  0.265000,  8.012100
  0.267000,  7.393800
  0.269000,  6.797500
  0.271000,  6.194100
  0.273000,  5.595200
  0.275000,  4.996100
  0.277000,  4.362200
  0.279000,  3.712800
  0.281000,  3.055400
  0.283000,  2.400100
  0.285000,  1.740500
  0.287000,  1.080900
  0.289000,  0.428500
  0.291000, -0.213800
  0.293000, -0.849600
  0.295000, -1.479900
  0.297000, -2.104000
  0.299000, -2.728700
  0.301000, -3.351600
  0.303000, -3.970800
  0.305000, -4.581500
  0.307000, -5.186200
  0.309000, -5.779200
  0.311000, -6.360500
  0.313000, -6.931400
  0.315000, -7.485300
  0.317000, -8.025400
  0.319000, -8.552600
  0.321000, -9.062700
  0.323000, -9.557300
  0.325000,-10.037700
  0.327000,-10.501800
  0.329000,-10.950800
  0.331000,-11.383300
  0.333000,-11.797200
  0.335000,-12.193400
  0.337000,-12.572600
  0.339000,-12.934600
  0.341000,-13.279300
  0.343000,-13.604100
  0.345000,-13.909600
  0.347000,-14.196700
  0.349000,-14.464800
  0.351000,-14.713900
  0.353000,-14.943600
  0.355000,-15.153700
  0.357000,-15.343700
  0.359000,-15.514000
  0.361000,-15.664700
  0.363000,-15.796700
  0.365000,-15.909500
  0.367000,-16.003000
  0.369000,-16.077800
  0.371000,-16.133800
  0.373000,-16.172700
  0.375000,-16.195600
  0.377000,-16.201500
  0.379000,-16.190200
  0.381000,-16.161900
  0.383000,-16.118200
  0.385000,-16.060000
  0.387000,-15.988500
  0.389000,-15.906200
  0.391000,-15.811600
  0.393000,-15.704500
  0.395000,-15.585700
  0.397000,-15.456200
  0.399000,-15.318300
  0.401000,-15.170800
  0.403000,-15.015300
  0.405000,-14.852200
  0.407000,-14.682500
  0.409000,-14.507300
  0.411000,-14.326900
  0.413000,-14.142600
  0.415000,-13.954300
  0.417000,-13.762100
  0.419000,-13.567100
  0.421000,-13.369700
  0.423000,-13.170500
  0.425000,-12.970100
  0.427000,-12.769100
  0.429000,-12.568000
  0.431000,-12.367100
  0.433000,-12.166800
  0.435000,-11.967300
  0.437000,-11.769100
  0.439000,-11.572400
  0.441000,-11.377400
  0.443000,-11.184600
  0.445000,-10.994000
  0.447000,-10.805800
  0.449000,-10.620400
  0.451000,-10.438100
  0.453000,-10.258900
  0.455000,-10.082400
  0.457000, -9.909000
  0.459000, -9.738800
  0.461000, -9.572200
  0.463000, -9.409200
  0.465000, -9.249400
  0.467000, -9.092400
  0.469000, -8.938100
  0.471000, -8.787200
  0.473000, -8.639200
  0.475000, -8.494400
  0.477000, -8.353000
  0.479000, -8.214000
  0.481000, -8.077300
  0.483000, -7.943500
  0.485000, -7.812000
  0.487000, -7.682500
  0.489000, -7.554800
  0.491000, -7.428800
  0.493000, -7.304700
  0.495000, -7.182300
  0.497000, -7.061100
  0.499000, -6.940600
  0.501000, -6.821000
  0.503000, -6.702200
  0.505000, -6.584000
  0.507000, -6.466100
  0.509000, -6.348300
  0.511000, -6.230400
  0.513000, -6.112000
  0.515000, -5.993400
  0.517000, -5.874400
  0.519000, -5.754400
  0.521000, -5.633500
  0.523000, -5.511600
  0.525000, -5.388500
  0.527000, -5.264000
  0.529000, -5.138100
  0.531000, -5.010700
  0.533000, -4.881800
  0.535000, -4.751400
  0.537000, -4.619300
  0.539000, -4.485200
  0.541000, -4.349700
  0.543000, -4.212800
  0.545000, -4.074200
  0.547000, -3.933700
  0.549000, -3.791200
  0.551000, -3.647200
  0.553000, -3.502500
  0.555000, -3.356100
  0.557000, -3.207900
  0.559000, -3.059300
  0.561000, -2.909400
  0.563000, -2.758900
  0.565000, -2.607400
  0.567000, -2.455500
  0.569000, -2.304200
  0.571000, -2.153300
  0.573000, -2.003100
  0.575000, -1.852700
  0.577000, -1.702300
  0.579000, -1.552900
  0.581000, -1.406100
  0.583000, -1.260700
  0.585000, -1.117600
  0.587000, -0.979100
  0.589000, -0.843400
  0.591000, -0.710200
  0.593000, -0.580800
  0.595000, -0.454600
  0.597000, -0.332600
  0.599000, -0.214500
  0.601000, -0.100400
  0.603000,  0.009500
  0.605000,  0.114400
  0.607000,  0.213300
  0.609000,  0.307700
  0.611000,  0.396200
  0.613000,  0.478900
  0.615000,  0.556100
  0.617000,  0.627000
  0.619000,  0.691500
  0.621000,  0.749900
  0.623000,  0.802000
  0.625000,  0.847800
  0.627000,  0.887600
  0.629000,  0.921200
  0.631000,  0.948800
  0.633000,  0.970400
  0.635000,  0.985700
  0.637000,  0.995400
  0.639000,  0.999500
  0.641000,  0.997400
  0.643000,  0.989800
  0.645000,  0.977200
  0.647000,  0.960200
  0.649000,  0.938500
  0.651000,  0.911300
  0.653000,  0.880000
  0.655000,  0.844600
  0.657000,  0.805700
  0.659000,  0.763200
  0.661000,  0.716800
  0.663000,  0.668300
  0.665000,  0.617100
  0.667000,  0.562700
  0.669000,  0.507300
  0.671000,  0.450700
  0.673000,  0.391900
  0.675000,  0.332400
  0.677000,  0.271900
  0.679000,  0.210500
  0.681000,  0.148900
  0.683000,  0.086100
  0.685000,  0.022300
  0.687000, -0.041300
  0.689000, -0.104300
  0.691000, -0.165800
  0.693000, -0.225800
  0.695000, -0.285300
  0.697000, -0.343700
  0.699000, -0.400800
  0.701000, -0.455900
  0.703000, -0.509600
  0.705000, -0.561700
  0.707000, -0.611700
  0.709000, -0.660400
  0.711000, -0.707000
  0.713000, -0.751500
  0.715000, -0.793700
  0.717000, -0.833100
  0.719000, -0.870700
  0.721000, -0.906300
  0.723000, -0.939400
  0.725000, -0.970100
  0.727000, -0.998600
  0.729000, -1.025000
  0.731000, -1.049100
  0.733000, -1.071000
  0.735000, -1.090500
  0.737000, -1.107900
  0.739000, -1.123200
  0.741000, -1.136600
  0.743000, -1.148200
  0.745000, -1.157800
  0.747000, -1.165500
  0.749000, -1.171200
  0.751000, -1.175000
  0.753000, -1.177000
  0.755000, -1.177500
  0.757000, -1.176600
  0.759000, -1.174400
  0.761000, -1.170600
  0.763000, -1.165500
  0.765000, -1.159100
  0.767000, -1.151600
  0.769000, -1.143000
  0.771000, -1.133600
  0.773000, -1.122900
  0.775000, -1.111200
  0.777000, -1.098600
  0.779000, -1.085400
  0.781000, -1.071200
  0.783000, -1.056500
  0.785000, -1.041200
  0.787000, -1.025000
  0.789000, -1.008100
  0.791000, -0.990600
  0.793000, -0.972500
  0.795000, -0.953800
  0.797000, -0.934700
  0.799000, -0.915100
  0.801000, -0.895000
  0.803000, -0.874700
  0.805000, -0.853900
  0.807000, -0.832600
  0.809000, -0.811000
  0.811000, -0.789100
  0.813000, -0.766900
  0.815000, -0.744300
  0.817000, -0.721200
  0.819000, -0.697800
  0.821000, -0.674100
  0.823000, -0.650000
  0.825000, -0.625800
  0.827000, -0.601300
  0.829000, -0.576500
  0.831000, -0.551400
  0.833000, -0.526000
  0.835000, -0.500500
  0.837000, -0.474900
  0.839000, -0.449200
  0.841000, -0.423200
  0.843000, -0.397100
  0.845000, -0.370700
  0.847000, -0.344200
  0.849000, -0.317800
  0.851000, -0.291400
  0.853000, -0.265000
  0.855000, -0.238600
  0.857000, -0.212300
  0.859000, -0.185900
  0.861000, -0.159700
  0.863000, -0.133800
  0.865000, -0.108000
  0.867000, -0.082500
  0.869000, -0.057300
  0.871000, -0.032400
  0.873000, -0.007800
  0.875000,  0.016400
  0.877000,  0.040000
  0.879000,  0.063100
  0.881000,  0.086000
  0.883000,  0.108100
  0.885000,  0.129600
  0.887000,  0.150300
  0.889000,  0.170300
  0.891000,  0.189700
  0.893000,  0.208500
  0.895000,  0.226400
  0.897000,  0.243600
  0.899000,  0.259900
  0.901000,  0.275200
  0.903000,  0.289800
  0.905000,  0.303400
  0.907000,  0.316100
  0.909000,  0.327800
  0.911000,  0.338500
  0.913000,  0.348300
  0.915000,  0.357100
  0.917000,  0.364900
  0.919000,  0.371800
  0.921000,  0.377600
  0.923000,  0.382500
  0.925000,  0.386500
  0.927000,  0.389400
  0.929000,  0.391300
  0.931000,  0.392300
  0.933000,  0.392500
  0.935000,  0.391900
  0.937000,  0.390400
  0.939000,  0.387900
  0.941000,  0.384500
  0.943000,  0.380300
  0.945000,  0.375600
  0.947000,  0.369900
  0.949000,  0.363400
  0.951000,  0.356100
  0.953000,  0.348000
  0.955000,  0.339700
  0.957000,  0.330700
  0.959000,  0.321200
  0.961000,  0.311100
  0.963000,  0.300600
  0.965000,  0.289400
  0.967000,  0.277700
  0.969000,  0.265600
  0.971000,  0.253100
  0.973000,  0.240300
  0.975000,  0.227400
  0.977000,  0.214200
  0.979000,  0.200600
  0.981000,  0.186800
  0.983000,  0.172800
  0.985000,  0.158500
  0.987000,  0.144300
  0.989000,  0.130000
  0.991000,  0.115500
  0.993000,  0.101100
  0.995000,  0.086700
  0.997000,  0.072100
  0.999000,  0.057700
  1.001000,  0.043400
  1.003000,  0.029000
  1.005000,  0.014500
  1.007000,  0.000400
  1.009000, -0.013300
  1.011000, -0.027000
  1.013000, -0.040600
  1.015000, -0.053800
  1.017000, -0.066700
  1.019000, -0.079400
  1.021000, -0.092000
  1.023000, -0.104400
  1.025000, -0.116300
  1.027000, -0.127800
  1.029000, -0.138800
  1.031000, -0.149500
  1.033000, -0.159900
  1.035000, -0.169900
  1.037000, -0.179500
  1.039000, -0.188600
  1.041000, -0.197300
  1.043000, -0.205600
  1.045000, -0.213500
  1.047000, -0.221000
  1.049000, -0.228100
  1.051000, -0.234500
  1.053000, -0.240500
  1.055000, -0.246100
  1.057000, -0.251100
  1.059000, -0.255600
  1.061000, -0.259800
  1.063000, -0.263500
  1.065000, -0.266600
  1.067000, -0.269300
  1.069000, -0.271700
  1.071000, -0.273800
  1.073000, -0.275300
  1.075000, -0.276400
  1.077000, -0.277000
  1.079000, -0.277100
  1.081000, -0.277000
  1.083000, -0.276400
  1.085000, -0.275300
  1.087000, -0.274000
  1.089000, -0.272400
  1.091000, -0.270400
  1.093000, -0.267900
  1.095000, -0.265000
  1.097000, -0.262100
  1.099000, -0.258800
  1.101000, -0.255100
  1.103000, -0.251200
  1.105000, -0.247100
  1.107000, -0.242800
  1.109000, -0.238200
  1.111000, -0.233600
  1.113000, -0.228700
  1.115000, -0.223600
  1.117000, -0.218300
  1.119000, -0.212800
  1.121000, -0.207200
  1.123000, -0.201500
  1.125000, -0.195800
  1.127000, -0.189900
  1.129000, -0.183900
  1.131000, -0.178000
  1.133000, -0.172000
  1.135000, -0.166000
  1.137000, -0.160000
  1.139000, -0.153900
  1.141000, -0.147900
  1.143000, -0.141900
  1.145000, -0.135900
  1.147000, -0.129800
  1.149000, -0.123900
  1.151000, -0.118100
  1.153000, -0.112300
  1.155000, -0.106500
  1.157000, -0.100800
  1.159000, -0.095200
  1.161000, -0.089700
  1.163000, -0.084300
  1.165000, -0.078900
  1.167000, -0.073700
  1.169000, -0.068600
  1.171000, -0.063500
  1.173000, -0.058700
  1.175000, -0.053900
  1.177000, -0.049300
  1.179000, -0.044700
  1.181000, -0.040200
  1.183000, -0.035900
  1.185000, -0.031700
  1.187000, -0.027600
  1.189000, -0.023600
  1.191000, -0.019600
  1.193000, -0.015800
  1.195000, -0.012200
  1.197000, -0.008600
  1.199000, -0.005200
  1.201000, -0.001800
  1.203000,  0.001400
  1.205000,  0.004400
  1.207000,  0.007500
  1.209000,  0.010400
  1.211000,  0.013200
  1.213000,  0.015900
  1.215000,  0.018500
  1.217000,  0.021000
  1.219000,  0.023500
  1.221000,  0.025800
  1.223000,  0.027900
  1.225000,  0.030000
  1.227000,  0.032000
  1.229000,  0.033800
  1.231000,  0.035400
  1.233000,  0.037000
  1.235000,  0.038400
  1.237000,  0.039700
  1.239000,  0.040800
  1.241000,  0.041800
  1.243000,  0.042600
  1.245000,  0.043200
  1.247000,  0.043700
  1.249000,  0.044000
  1.251000,  0.044200
  1.253000,  0.044200
  1.255000,  0.044100
  1.257000,  0.043800
  1.259000,  0.043300
  1.261000,  0.042600
  1.263000,  0.041800
  1.265000,  0.040700
  1.267000,  0.039600
  1.269000,  0.038300
  1.271000,  0.036800
  1.273000,  0.035200
  1.275000,  0.033500
  1.277000,  0.031500
  1.279000,  0.029400
  1.281000,  0.027000
  1.283000,  0.024600
  1.285000,  0.022200
  1.287000,  0.019700
  1.289000,  0.017000
  1.291000,  0.014300
  1.293000,  0.011500
  1.295000,  0.008600
  1.297000,  0.005800
  1.299000,  0.002900
  1.301000, -0.000100
  1.303000, -0.003000
  1.305000, -0.005800
  1.307000, -0.008700
  1.309000, -0.011700
  1.311000, -0.014500
  1.313000, -0.017300
  1.315000, -0.019900
  1.317000, -0.022600
  1.319000, -0.025100
  1.321000, -0.027600
  1.323000, -0.029900
  1.325000, -0.032000
  1.327000, -0.034000
  1.329000, -0.035900
  1.331000, -0.037600
  1.333000, -0.039200
  1.335000, -0.040500
  1.337000, -0.041700
  1.339000, -0.042700
  1.341000, -0.043500
  1.343000, -0.044000
  1.345000, -0.044300
  1.347000, -0.044400
  1.349000, -0.044400
  1.351000, -0.044000
  1.353000, -0.043500
  1.355000, -0.042900
  1.357000, -0.042100
  1.359000, -0.041100
  1.361000, -0.040100
  1.363000, -0.038900
  1.365000, -0.037600
  1.367000, -0.036100
  1.369000, -0.034500
  1.371000, -0.033000
  1.373000, -0.031400
  1.375000, -0.029500
  1.377000, -0.027500
  1.379000, -0.025300
  1.381000, -0.023400
  1.383000, -0.021500
  1.385000, -0.019500
  1.387000, -0.017500
  1.389000, -0.015800
  1.391000, -0.014400
  1.393000, -0.012900
  1.395000, -0.011700
  1.397000, -0.010900
  1.399000, -0.010300
