# z (nm)   (kJ/mol)
  0.2630    6.89320
  0.2650    6.26170
  0.2670    5.61500
  0.2690    4.95310
  0.2710    4.28740
  0.2730    3.61760
  0.2750    2.92240
  0.2770    2.21410
  0.2790    1.49120
  0.2810    0.78180
  0.2830    0.08790
  0.2850   -0.63630
  0.2870   -1.37840
  0.2890   -2.10870
  0.2910   -2.82320
  0.2930   -3.53810
  0.2950   -4.25060
  0.2970   -4.95700
  0.2990   -5.66310
  0.3010   -6.36460
  0.3030   -7.06770
  0.3050   -7.76260
  0.3070   -8.43520
  0.3090   -9.09200
  0.3110   -9.73800
  0.3130  -10.37380
  0.3150  -10.99750
  0.3170  -11.61510
  0.3190  -12.21860
  0.3210  -12.80160
  0.3230  -13.36740
  0.3250  -13.91990
  0.3270  -14.46270
  0.3290  -14.98400
  0.3310  -15.48650
  0.3330  -15.97710
  0.3350  -16.45050
  0.3370  -16.90110
  0.3390  -17.33340
  0.3410  -17.75020
  0.3430  -18.14930
  0.3450  -18.52960
  0.3470  -18.89110
  0.3490  -19.23400
  0.3510  -19.55720
  0.3530  -19.85890
  0.3550  -20.14170
  0.3570  -20.40510
  0.3590  -20.64990
  0.3610  -20.87770
  0.3630  -21.08530
  0.3650  -21.27010
  0.3670  -21.43410
  0.3690  -21.57850
  0.3710  -21.70180
  0.3730  -21.80340
  0.3750  -21.88590
  0.3770  -21.95120
  0.3790  -21.99960
  0.3810  -22.03050
  0.3830  -22.04300
  0.3850  -22.03650
  0.3870  -22.01240
  0.3890  -21.97320
  0.3910  -21.91890
  0.3930  -21.85010
  0.3950  -21.76580
  0.3970  -21.66800
  0.3990  -21.55820
  0.4010  -21.43700
  0.4030  -21.30390
  0.4050  -21.15760
  0.4070  -21.00140
  0.4090  -20.83580
  0.4110  -20.66040
  0.4130  -20.47720
  0.4150  -20.28740
  0.4170  -20.09020
  0.4190  -19.88580
  0.4210  -19.67610
  0.4230  -19.46140
  0.4250  -19.24190
  0.4270  -19.01950
  0.4290  -18.79350
  0.4310  -18.56390
  0.4330  -18.33230
  0.4350  -18.09850
  0.4370  -17.86430
  0.4390  -17.63050
  0.4410  -17.39590
  0.4430  -17.16120
  0.4450  -16.92800
  0.4470  -16.69620
  0.4490  -16.46560
  0.4510  -16.23670
  0.4530  -16.01010
  0.4550  -15.78600
  0.4570  -15.56520
  0.4590  -15.34800
  0.4610  -15.13460
  0.4630  -14.92540
  0.4650  -14.72080
  0.4670  -14.52040
  0.4690  -14.32450
  0.4710  -14.13380
  0.4730  -13.94810
  0.4750  -13.76740
  0.4770  -13.59170
  0.4790  -13.42210
  0.4810  -13.25790
  0.4830  -13.09840
  0.4850  -12.94440
  0.4870  -12.79570
  0.4890  -12.65230
  0.4910  -12.51410
  0.4930  -12.38100
  0.4950  -12.25270
  0.4970  -12.12920
  0.4990  -12.01030
  0.5010  -11.89560
  0.5030  -11.78460
  0.5050  -11.67740
  0.5070  -11.57340
  0.5090  -11.47210
  0.5110  -11.37320
  0.5130  -11.27670
  0.5150  -11.18220
  0.5170  -11.08910
  0.5190  -10.99730
  0.5210  -10.90610
  0.5230  -10.81560
  0.5250  -10.72510
  0.5270  -10.63380
  0.5290  -10.54160
  0.5310  -10.44820
  0.5330  -10.35270
  0.5350  -10.25480
  0.5370  -10.15470
  0.5390  -10.05190
  0.5410   -9.94580
  0.5430   -9.83630
  0.5450   -9.72340
  0.5470   -9.60650
  0.5490   -9.48550
  0.5510   -9.35960
  0.5530   -9.22950
  0.5550   -9.09520
  0.5570   -8.95570
  0.5590   -8.81070
  0.5610   -8.66100
  0.5630   -8.50740
  0.5650   -8.34820
  0.5670   -8.18370
  0.5690   -8.01490
  0.5710   -7.84140
  0.5730   -7.66470
  0.5750   -7.48460
  0.5770   -7.30010
  0.5790   -7.11120
  0.5810   -6.91860
  0.5830   -6.72360
  0.5850   -6.52740
  0.5870   -6.32960
  0.5890   -6.12950
  0.5910   -5.92730
  0.5930   -5.72490
  0.5950   -5.52420
  0.5970   -5.32370
  0.5990   -5.12220
  0.6010   -4.92140
  0.6030   -4.72210
  0.6050   -4.52470
  0.6070   -4.32980
  0.6090   -4.13900
  0.6110   -3.95170
  0.6130   -3.76780
  0.6150   -3.58810
  0.6170   -3.41260
  0.6190   -3.24300
  0.6210   -3.07900
  0.6230   -2.92010
  0.6250   -2.76770
  0.6270   -2.62300
  0.6290   -2.48570
  0.6310   -2.35530
  0.6330   -2.23220
  0.6350   -2.11670
  0.6370   -2.00910
  0.6390   -1.90940
  0.6410   -1.81760
  0.6430   -1.73410
  0.6450   -1.65800
  0.6470   -1.58860
  0.6490   -1.52730
  0.6510   -1.47420
  0.6530   -1.42840
  0.6550   -1.39020
  0.6570   -1.35930
  0.6590   -1.33540
  0.6610   -1.31840
  0.6630   -1.30710
  0.6650   -1.30100
  0.6670   -1.30130
  0.6690   -1.30800
  0.6710   -1.31840
  0.6730   -1.33200
  0.6750   -1.35040
  0.6770   -1.37410
  0.6790   -1.40130
  0.6810   -1.43110
  0.6830   -1.46360
  0.6850   -1.49810
  0.6870   -1.53440
  0.6890   -1.57180
  0.6910   -1.61090
  0.6930   -1.65210
  0.6950   -1.69390
  0.6970   -1.73560
  0.6990   -1.77730
  0.7010   -1.81860
  0.7030   -1.85920
  0.7050   -1.89880
  0.7070   -1.93730
  0.7090   -1.97520
  0.7110   -2.01210
  0.7130   -2.04680
  0.7150   -2.07940
  0.7170   -2.11160
  0.7190   -2.14240
  0.7210   -2.17080
  0.7230   -2.19760
  0.7250   -2.22270
  0.7270   -2.24590
  0.7290   -2.26680
  0.7310   -2.28500
  0.7330   -2.30100
  0.7350   -2.31490
  0.7370   -2.32650
  0.7390   -2.33600
  0.7410   -2.34330
  0.7430   -2.34840
  0.7450   -2.35170
  0.7470   -2.35300
  0.7490   -2.35230
  0.7510   -2.34970
  0.7530   -2.34500
  0.7550   -2.33860
  0.7570   -2.33040
  0.7590   -2.32040
  0.7610   -2.30920
  0.7630   -2.29680
  0.7650   -2.28320
  0.7670   -2.26850
  0.7690   -2.25220
  0.7710   -2.23450
  0.7730   -2.21580
  0.7750   -2.19640
  0.7770   -2.17610
  0.7790   -2.15500
  0.7810   -2.13310
  0.7830   -2.11040
  0.7850   -2.08750
  0.7870   -2.06380
  0.7890   -2.04020
  0.7910   -2.01590
  0.7930   -1.99080
  0.7950   -1.96570
  0.7970   -1.94020
  0.7990   -1.91490
  0.8010   -1.88940
  0.8030   -1.86370
  0.8050   -1.83820
  0.8070   -1.81240
  0.8090   -1.78620
  0.8110   -1.76000
  0.8130   -1.73380
  0.8150   -1.70740
  0.8170   -1.68090
  0.8190   -1.65430
  0.8210   -1.62740
  0.8230   -1.60050
  0.8250   -1.57350
  0.8270   -1.54660
  0.8290   -1.51960
  0.8310   -1.49270
  0.8330   -1.46580
  0.8350   -1.43860
  0.8370   -1.41130
  0.8390   -1.38390
  0.8410   -1.35630
  0.8430   -1.32860
  0.8450   -1.30080
  0.8470   -1.27300
  0.8490   -1.24520
  0.8510   -1.21710
  0.8530   -1.18890
  0.8550   -1.16060
  0.8570   -1.13210
  0.8590   -1.10330
  0.8610   -1.07450
  0.8630   -1.04590
  0.8650   -1.01710
  0.8670   -0.98780
  0.8690   -0.95860
  0.8710   -0.92990
  0.8730   -0.90110
  0.8750   -0.87190
  0.8770   -0.84280
  0.8790   -0.81420
  0.8810   -0.78580
  0.8830   -0.75710
  0.8850   -0.72820
  0.8870   -0.69950
  0.8890   -0.67120
  0.8910   -0.64300
  0.8930   -0.61520
  0.8950   -0.58800
  0.8970   -0.56140
  0.8990   -0.53530
  0.9010   -0.50980
  0.9030   -0.48430
  0.9050   -0.45940
  0.9070   -0.43500
  0.9090   -0.41120
  0.9110   -0.38800
  0.9130   -0.36550
  0.9150   -0.34380
  0.9170   -0.32270
  0.9190   -0.30260
  0.9210   -0.28340
  0.9230   -0.26530
  0.9250   -0.24790
  0.9270   -0.23120
  0.9290   -0.21540
  0.9310   -0.20070
  0.9330   -0.18690
  0.9350   -0.17400
  0.9370   -0.16210
  0.9390   -0.15110
  0.9410   -0.14120
  0.9430   -0.13220
  0.9450   -0.12400
  0.9470   -0.11660
  0.9490   -0.11040
  0.9510   -0.10510
  0.9530   -0.10080
  0.9550   -0.09730
  0.9570   -0.09460
  0.9590   -0.09280
  0.9610   -0.09190
  0.9630   -0.09180
  0.9650   -0.09250
  0.9670   -0.09400
  0.9690   -0.09630
  0.9710   -0.09950
  0.9730   -0.10330
  0.9750   -0.10740
  0.9770   -0.11230
  0.9790   -0.11800
  0.9810   -0.12410
  0.9830   -0.13060
  0.9850   -0.13770
  0.9870   -0.14520
  0.9890   -0.15300
  0.9910   -0.16100
  0.9930   -0.16960
  0.9950   -0.17840
  0.9970   -0.18760
  0.9990   -0.19680
  1.0010   -0.20600
  1.0030   -0.21580
  1.0050   -0.22570
  1.0070   -0.23550
  1.0090   -0.24520
  1.0110   -0.25510
  1.0130   -0.26480
  1.0150   -0.27430
  1.0170   -0.28380
  1.0190   -0.29350
  1.0210   -0.30310
  1.0230   -0.31260
  1.0250   -0.32180
  1.0270   -0.33080
  1.0290   -0.33960
  1.0310   -0.34820
  1.0330   -0.35650
  1.0350   -0.36460
  1.0370   -0.37260
  1.0390   -0.38030
  1.0410   -0.38760
  1.0430   -0.39470
  1.0450   -0.40150
  1.0470   -0.40800
  1.0490   -0.41410
  1.0510   -0.41980
  1.0530   -0.42520
  1.0550   -0.43030
  1.0570   -0.43490
  1.0590   -0.43920
  1.0610   -0.44310
  1.0630   -0.44680
  1.0650   -0.45000
  1.0670   -0.45300
  1.0690   -0.45580
  1.0710   -0.45820
  1.0730   -0.46010
  1.0750   -0.46170
  1.0770   -0.46300
  1.0790   -0.46390
  1.0810   -0.46450
  1.0830   -0.46470
  1.0850   -0.46430
  1.0870   -0.46350
  1.0890   -0.46250
  1.0910   -0.46120
  1.0930   -0.45950
  1.0950   -0.45750
  1.0970   -0.45510
  1.0990   -0.45230
  1.1010   -0.44940
  1.1030   -0.44640
  1.1050   -0.44280
  1.1070   -0.43890
  1.1090   -0.43480
  1.1110   -0.43060
  1.1130   -0.42610
  1.1150   -0.42130
  1.1170   -0.41650
  1.1190   -0.41170
  1.1210   -0.40640
  1.1230   -0.40060
  1.1250   -0.39480
  1.1270   -0.38890
  1.1290   -0.38290
  1.1310   -0.37660
  1.1330   -0.37000
  1.1350   -0.36340
  1.1370   -0.35660
  1.1390   -0.34980
  1.1410   -0.34290
  1.1430   -0.33580
  1.1450   -0.32860
  1.1470   -0.32140
  1.1490   -0.31410
  1.1510   -0.30650
  1.1530   -0.29880
  1.1550   -0.29100
  1.1570   -0.28330
  1.1590   -0.27540
  1.1610   -0.26760
  1.1630   -0.25970
  1.1650   -0.25160
  1.1670   -0.24350
  1.1690   -0.23540
  1.1710   -0.22740
  1.1730   -0.21930
  1.1750   -0.21130
  1.1770   -0.20330
  1.1790   -0.19520
  1.1810   -0.18690
  1.1830   -0.17870
  1.1850   -0.17050
  1.1870   -0.16240
  1.1890   -0.15440
  1.1910   -0.14640
  1.1930   -0.13860
  1.1950   -0.13080
  1.1970   -0.12290
  1.1990   -0.11520
  1.2010   -0.10750
  1.2030   -0.09980
  1.2050   -0.09230
  1.2070   -0.08490
  1.2090   -0.07760
  1.2110   -0.07030
  1.2130   -0.06330
  1.2150   -0.05640
  1.2170   -0.04960
  1.2190   -0.04290
  1.2210   -0.03640
  1.2230   -0.03000
  1.2250   -0.02380
  1.2270   -0.01780
  1.2290   -0.01210
  1.2310   -0.00660
  1.2330   -0.00120
  1.2350    0.00400
  1.2370    0.00890
  1.2390    0.01370
  1.2410    0.01840
  1.2430    0.02280
  1.2450    0.02700
  1.2470    0.03100
  1.2490    0.03480
  1.2510    0.03830
  1.2530    0.04150
  1.2550    0.04450
  1.2570    0.04710
  1.2590    0.04970
  1.2610    0.05200
  1.2630    0.05390
  1.2650    0.05570
  1.2670    0.05720
  1.2690    0.05850
  1.2710    0.05950
  1.2730    0.06020
  1.2750    0.06060
  1.2770    0.06080
  1.2790    0.06080
  1.2810    0.06050
  1.2830    0.06010
  1.2850    0.05940
  1.2870    0.05850
  1.2890    0.05730
  1.2910    0.05610
  1.2930    0.05470
  1.2950    0.05290
  1.2970    0.05110
  1.2990    0.04920
  1.3010    0.04720
  1.3030    0.04500
  1.3050    0.04250
  1.3070    0.04000
  1.3090    0.03730
  1.3110    0.03450
  1.3130    0.03170
  1.3150    0.02870
  1.3170    0.02570
  1.3190    0.02270
  1.3210    0.01950
  1.3230    0.01630
  1.3250    0.01310
  1.3270    0.00990
  1.3290    0.00660
  1.3310    0.00350
  1.3330    0.00040
  1.3350   -0.00270
  1.3370   -0.00570
  1.3390   -0.00840
  1.3410   -0.01110
  1.3430   -0.01380
  1.3450   -0.01640
  1.3470   -0.01890
  1.3490   -0.02120
  1.3510   -0.02350
  1.3530   -0.02560
  1.3550   -0.02740
  1.3570   -0.02920
  1.3590   -0.03100
  1.3610   -0.03260
  1.3630   -0.03400
  1.3650   -0.03520
  1.3670   -0.03640
  1.3690   -0.03750
  1.3710   -0.03850
  1.3730   -0.03930
  1.3750   -0.03990
  1.3770   -0.04040
  1.3790   -0.04080
  1.3810   -0.04120
  1.3830   -0.04140
  1.3850   -0.04170
  1.3870   -0.04220
  1.3890   -0.04270
  1.3910   -0.04310
  1.3930   -0.04360
  1.3950   -0.04420
  1.3970   -0.04490
  1.3990   -0.04600
