# z (nm)   (kJ/mol)
  0.263000,  6.893200
  0.265000,  6.261700
  0.267000,  5.615000
  0.269000,  4.953100
  0.271000,  4.287400
  0.273000,  3.617600
  0.275000,  2.922400
  0.277000,  2.214100
  0.279000,  1.491200
  0.281000,  0.781800
  0.283000,  0.087900
  0.285000, -0.636300
  0.287000, -1.378400
  0.289000, -2.108700
  0.291000, -2.823200
  0.293000, -3.538100
  0.295000, -4.250600
  0.297000, -4.957000
  0.299000, -5.663100
  0.301000, -6.364600
  0.303000, -7.067700
  0.305000, -7.762600
  0.307000, -8.435200
  0.309000, -9.092000
  0.311000, -9.738000
  0.313000,-10.373800
  0.315000,-10.997500
  0.317000,-11.615100
  0.319000,-12.218600
  0.321000,-12.801600
  0.323000,-13.367400
  0.325000,-13.919900
  0.327000,-14.462700
  0.329000,-14.984000
  0.331000,-15.486500
  0.333000,-15.977100
  0.335000,-16.450500
  0.337000,-16.901100
  0.339000,-17.333400
  0.341000,-17.750200
  0.343000,-18.149300
  0.345000,-18.529600
  0.347000,-18.891100
  0.349000,-19.234000
  0.351000,-19.557200
  0.353000,-19.858900
  0.355000,-20.141700
  0.357000,-20.405100
  0.359000,-20.649900
  0.361000,-20.877700
  0.363000,-21.085300
  0.365000,-21.270100
  0.367000,-21.434100
  0.369000,-21.578500
  0.371000,-21.701800
  0.373000,-21.803400
  0.375000,-21.885900
  0.377000,-21.951200
  0.379000,-21.999600
  0.381000,-22.030500
  0.383000,-22.043000
  0.385000,-22.036500
  0.387000,-22.012400
  0.389000,-21.973200
  0.391000,-21.918900
  0.393000,-21.850100
  0.395000,-21.765800
  0.397000,-21.668000
  0.399000,-21.558200
  0.401000,-21.437000
  0.403000,-21.303900
  0.405000,-21.157600
  0.407000,-21.001400
  0.409000,-20.835800
  0.411000,-20.660400
  0.413000,-20.477200
  0.415000,-20.287400
  0.417000,-20.090200
  0.419000,-19.885800
  0.421000,-19.676100
  0.423000,-19.461400
  0.425000,-19.241900
  0.427000,-19.019500
  0.429000,-18.793500
  0.431000,-18.563900
  0.433000,-18.332300
  0.435000,-18.098500
  0.437000,-17.864300
  0.439000,-17.630500
  0.441000,-17.395900
  0.443000,-17.161200
  0.445000,-16.928000
  0.447000,-16.696200
  0.449000,-16.465600
  0.451000,-16.236700
  0.453000,-16.010100
  0.455000,-15.786000
  0.457000,-15.565200
  0.459000,-15.348000
  0.461000,-15.134600
  0.463000,-14.925400
  0.465000,-14.720800
  0.467000,-14.520400
  0.469000,-14.324500
  0.471000,-14.133800
  0.473000,-13.948100
  0.475000,-13.767400
  0.477000,-13.591700
  0.479000,-13.422100
  0.481000,-13.257900
  0.483000,-13.098400
  0.485000,-12.944400
  0.487000,-12.795700
  0.489000,-12.652300
  0.491000,-12.514100
  0.493000,-12.381000
  0.495000,-12.252700
  0.497000,-12.129200
  0.499000,-12.010300
  0.501000,-11.895600
  0.503000,-11.784600
  0.505000,-11.677400
  0.507000,-11.573400
  0.509000,-11.472100
  0.511000,-11.373200
  0.513000,-11.276700
  0.515000,-11.182200
  0.517000,-11.089100
  0.519000,-10.997300
  0.521000,-10.906100
  0.523000,-10.815600
  0.525000,-10.725100
  0.527000,-10.633800
  0.529000,-10.541600
  0.531000,-10.448200
  0.533000,-10.352700
  0.535000,-10.254800
  0.537000,-10.154700
  0.539000,-10.051900
  0.541000, -9.945800
  0.543000, -9.836300
  0.545000, -9.723400
  0.547000, -9.606500
  0.549000, -9.485500
  0.551000, -9.359600
  0.553000, -9.229500
  0.555000, -9.095200
  0.557000, -8.955700
  0.559000, -8.810700
  0.561000, -8.661000
  0.563000, -8.507400
  0.565000, -8.348200
  0.567000, -8.183700
  0.569000, -8.014900
  0.571000, -7.841400
  0.573000, -7.664700
  0.575000, -7.484600
  0.577000, -7.300100
  0.579000, -7.111200
  0.581000, -6.918600
  0.583000, -6.723600
  0.585000, -6.527400
  0.587000, -6.329600
  0.589000, -6.129500
  0.591000, -5.927300
  0.593000, -5.724900
  0.595000, -5.524200
  0.597000, -5.323700
  0.599000, -5.122200
  0.601000, -4.921400
  0.603000, -4.722100
  0.605000, -4.524700
  0.607000, -4.329800
  0.609000, -4.139000
  0.611000, -3.951700
  0.613000, -3.767800
  0.615000, -3.588100
  0.617000, -3.412600
  0.619000, -3.243000
  0.621000, -3.079000
  0.623000, -2.920100
  0.625000, -2.767700
  0.627000, -2.623000
  0.629000, -2.485700
  0.631000, -2.355300
  0.633000, -2.232200
  0.635000, -2.116700
  0.637000, -2.009100
  0.639000, -1.909400
  0.641000, -1.817600
  0.643000, -1.734100
  0.645000, -1.658000
  0.647000, -1.588600
  0.649000, -1.527300
  0.651000, -1.474200
  0.653000, -1.428400
  0.655000, -1.390200
  0.657000, -1.359300
  0.659000, -1.335400
  0.661000, -1.318400
  0.663000, -1.307100
  0.665000, -1.301000
  0.667000, -1.301300
  0.669000, -1.308000
  0.671000, -1.318400
  0.673000, -1.332000
  0.675000, -1.350400
  0.677000, -1.374100
  0.679000, -1.401300
  0.681000, -1.431100
  0.683000, -1.463600
  0.685000, -1.498100
  0.687000, -1.534400
  0.689000, -1.571800
  0.691000, -1.610900
  0.693000, -1.652100
  0.695000, -1.693900
  0.697000, -1.735600
  0.699000, -1.777300
  0.701000, -1.818600
  0.703000, -1.859200
  0.705000, -1.898800
  0.707000, -1.937300
  0.709000, -1.975200
  0.711000, -2.012100
  0.713000, -2.046800
  0.715000, -2.079400
  0.717000, -2.111600
  0.719000, -2.142400
  0.721000, -2.170800
  0.723000, -2.197600
  0.725000, -2.222700
  0.727000, -2.245900
  0.729000, -2.266800
  0.731000, -2.285000
  0.733000, -2.301000
  0.735000, -2.314900
  0.737000, -2.326500
  0.739000, -2.336000
  0.741000, -2.343300
  0.743000, -2.348400
  0.745000, -2.351700
  0.747000, -2.353000
  0.749000, -2.352300
  0.751000, -2.349700
  0.753000, -2.345000
  0.755000, -2.338600
  0.757000, -2.330400
  0.759000, -2.320400
  0.761000, -2.309200
  0.763000, -2.296800
  0.765000, -2.283200
  0.767000, -2.268500
  0.769000, -2.252200
  0.771000, -2.234500
  0.773000, -2.215800
  0.775000, -2.196400
  0.777000, -2.176100
  0.779000, -2.155000
  0.781000, -2.133100
  0.783000, -2.110400
  0.785000, -2.087500
  0.787000, -2.063800
  0.789000, -2.040200
  0.791000, -2.015900
  0.793000, -1.990800
  0.795000, -1.965700
  0.797000, -1.940200
  0.799000, -1.914900
  0.801000, -1.889400
  0.803000, -1.863700
  0.805000, -1.838200
  0.807000, -1.812400
  0.809000, -1.786200
  0.811000, -1.760000
  0.813000, -1.733800
  0.815000, -1.707400
  0.817000, -1.680900
  0.819000, -1.654300
  0.821000, -1.627400
  0.823000, -1.600500
  0.825000, -1.573500
  0.827000, -1.546600
  0.829000, -1.519600
  0.831000, -1.492700
  0.833000, -1.465800
  0.835000, -1.438600
  0.837000, -1.411300
  0.839000, -1.383900
  0.841000, -1.356300
  0.843000, -1.328600
  0.845000, -1.300800
  0.847000, -1.273000
  0.849000, -1.245200
  0.851000, -1.217100
  0.853000, -1.188900
  0.855000, -1.160600
  0.857000, -1.132100
  0.859000, -1.103300
  0.861000, -1.074500
  0.863000, -1.045900
  0.865000, -1.017100
  0.867000, -0.987800
  0.869000, -0.958600
  0.871000, -0.929900
  0.873000, -0.901100
  0.875000, -0.871900
  0.877000, -0.842800
  0.879000, -0.814200
  0.881000, -0.785800
  0.883000, -0.757100
  0.885000, -0.728200
  0.887000, -0.699500
  0.889000, -0.671200
  0.891000, -0.643000
  0.893000, -0.615200
  0.895000, -0.588000
  0.897000, -0.561400
  0.899000, -0.535300
  0.901000, -0.509800
  0.903000, -0.484300
  0.905000, -0.459400
  0.907000, -0.435000
  0.909000, -0.411200
  0.911000, -0.388000
  0.913000, -0.365500
  0.915000, -0.343800
  0.917000, -0.322700
  0.919000, -0.302600
  0.921000, -0.283400
  0.923000, -0.265300
  0.925000, -0.247900
  0.927000, -0.231200
  0.929000, -0.215400
  0.931000, -0.200700
  0.933000, -0.186900
  0.935000, -0.174000
  0.937000, -0.162100
  0.939000, -0.151100
  0.941000, -0.141200
  0.943000, -0.132200
  0.945000, -0.124000
  0.947000, -0.116600
  0.949000, -0.110400
  0.951000, -0.105100
  0.953000, -0.100800
  0.955000, -0.097300
  0.957000, -0.094600
  0.959000, -0.092800
  0.961000, -0.091900
  0.963000, -0.091800
  0.965000, -0.092500
  0.967000, -0.094000
  0.969000, -0.096300
  0.971000, -0.099500
  0.973000, -0.103300
  0.975000, -0.107400
  0.977000, -0.112300
  0.979000, -0.118000
  0.981000, -0.124100
  0.983000, -0.130600
  0.985000, -0.137700
  0.987000, -0.145200
  0.989000, -0.153000
  0.991000, -0.161000
  0.993000, -0.169600
  0.995000, -0.178400
  0.997000, -0.187600
  0.999000, -0.196800
  1.001000, -0.206000
  1.003000, -0.215800
  1.005000, -0.225700
  1.007000, -0.235500
  1.009000, -0.245200
  1.011000, -0.255100
  1.013000, -0.264800
  1.015000, -0.274300
  1.017000, -0.283800
  1.019000, -0.293500
  1.021000, -0.303100
  1.023000, -0.312600
  1.025000, -0.321800
  1.027000, -0.330800
  1.029000, -0.339600
  1.031000, -0.348200
  1.033000, -0.356500
  1.035000, -0.364600
  1.037000, -0.372600
  1.039000, -0.380300
  1.041000, -0.387600
  1.043000, -0.394700
  1.045000, -0.401500
  1.047000, -0.408000
  1.049000, -0.414100
  1.051000, -0.419800
  1.053000, -0.425200
  1.055000, -0.430300
  1.057000, -0.434900
  1.059000, -0.439200
  1.061000, -0.443100
  1.063000, -0.446800
  1.065000, -0.450000
  1.067000, -0.453000
  1.069000, -0.455800
  1.071000, -0.458200
  1.073000, -0.460100
  1.075000, -0.461700
  1.077000, -0.463000
  1.079000, -0.463900
  1.081000, -0.464500
  1.083000, -0.464700
  1.085000, -0.464300
  1.087000, -0.463500
  1.089000, -0.462500
  1.091000, -0.461200
  1.093000, -0.459500
  1.095000, -0.457500
  1.097000, -0.455100
  1.099000, -0.452300
  1.101000, -0.449400
  1.103000, -0.446400
  1.105000, -0.442800
  1.107000, -0.438900
  1.109000, -0.434800
  1.111000, -0.430600
  1.113000, -0.426100
  1.115000, -0.421300
  1.117000, -0.416500
  1.119000, -0.411700
  1.121000, -0.406400
  1.123000, -0.400600
  1.125000, -0.394800
  1.127000, -0.388900
  1.129000, -0.382900
  1.131000, -0.376600
  1.133000, -0.370000
  1.135000, -0.363400
  1.137000, -0.356600
  1.139000, -0.349800
  1.141000, -0.342900
  1.143000, -0.335800
  1.145000, -0.328600
  1.147000, -0.321400
  1.149000, -0.314100
  1.151000, -0.306500
  1.153000, -0.298800
  1.155000, -0.291000
  1.157000, -0.283300
  1.159000, -0.275400
  1.161000, -0.267600
  1.163000, -0.259700
  1.165000, -0.251600
  1.167000, -0.243500
  1.169000, -0.235400
  1.171000, -0.227400
  1.173000, -0.219300
  1.175000, -0.211300
  1.177000, -0.203300
  1.179000, -0.195200
  1.181000, -0.186900
  1.183000, -0.178700
  1.185000, -0.170500
  1.187000, -0.162400
  1.189000, -0.154400
  1.191000, -0.146400
  1.193000, -0.138600
  1.195000, -0.130800
  1.197000, -0.122900
  1.199000, -0.115200
  1.201000, -0.107500
  1.203000, -0.099800
  1.205000, -0.092300
  1.207000, -0.084900
  1.209000, -0.077600
  1.211000, -0.070300
  1.213000, -0.063300
  1.215000, -0.056400
  1.217000, -0.049600
  1.219000, -0.042900
  1.221000, -0.036400
  1.223000, -0.030000
  1.225000, -0.023800
  1.227000, -0.017800
  1.229000, -0.012100
  1.231000, -0.006600
  1.233000, -0.001200
  1.235000,  0.004000
  1.237000,  0.008900
  1.239000,  0.013700
  1.241000,  0.018400
  1.243000,  0.022800
  1.245000,  0.027000
  1.247000,  0.031000
  1.249000,  0.034800
  1.251000,  0.038300
  1.253000,  0.041500
  1.255000,  0.044500
  1.257000,  0.047100
  1.259000,  0.049700
  1.261000,  0.052000
  1.263000,  0.053900
  1.265000,  0.055700
  1.267000,  0.057200
  1.269000,  0.058500
  1.271000,  0.059500
  1.273000,  0.060200
  1.275000,  0.060600
  1.277000,  0.060800
  1.279000,  0.060800
  1.281000,  0.060500
  1.283000,  0.060100
  1.285000,  0.059400
  1.287000,  0.058500
  1.289000,  0.057300
  1.291000,  0.056100
  1.293000,  0.054700
  1.295000,  0.052900
  1.297000,  0.051100
  1.299000,  0.049200
  1.301000,  0.047200
  1.303000,  0.045000
  1.305000,  0.042500
  1.307000,  0.040000
  1.309000,  0.037300
  1.311000,  0.034500
  1.313000,  0.031700
  1.315000,  0.028700
  1.317000,  0.025700
  1.319000,  0.022700
  1.321000,  0.019500
  1.323000,  0.016300
  1.325000,  0.013100
  1.327000,  0.009900
  1.329000,  0.006600
  1.331000,  0.003500
  1.333000,  0.000400
  1.335000, -0.002700
  1.337000, -0.005700
  1.339000, -0.008400
  1.341000, -0.011100
  1.343000, -0.013800
  1.345000, -0.016400
  1.347000, -0.018900
  1.349000, -0.021200
  1.351000, -0.023500
  1.353000, -0.025600
  1.355000, -0.027400
  1.357000, -0.029200
  1.359000, -0.031000
  1.361000, -0.032600
  1.363000, -0.034000
  1.365000, -0.035200
  1.367000, -0.036400
  1.369000, -0.037500
  1.371000, -0.038500
  1.373000, -0.039300
  1.375000, -0.039900
  1.377000, -0.040400
  1.379000, -0.040800
  1.381000, -0.041200
  1.383000, -0.041400
  1.385000, -0.041700
  1.387000, -0.042200
  1.389000, -0.042700
  1.391000, -0.043100
  1.393000, -0.043600
  1.395000, -0.044200
  1.397000, -0.044900
  1.399000, -0.046000
