# z (nm)   (kJ/mol)
  0.239000,  3.472100
  0.241000,  2.723000
  0.243000,  1.919400
  0.245000,  1.065900
  0.247000,  0.213600
  0.249000, -0.594600
  0.251000, -1.432900
  0.253000, -2.303600
  0.255000, -3.165500
  0.257000, -4.017600
  0.259000, -4.905900
  0.261000, -5.808600
  0.263000, -6.705200
  0.265000, -7.608700
  0.267000, -8.520400
  0.269000, -9.431300
  0.271000,-10.330500
  0.273000,-11.227600
  0.275000,-12.122700
  0.277000,-13.016300
  0.279000,-13.899700
  0.281000,-14.772600
  0.283000,-15.637400
  0.285000,-16.488200
  0.287000,-17.319300
  0.289000,-18.134500
  0.291000,-18.936700
  0.293000,-19.723400
  0.295000,-20.487900
  0.297000,-21.228100
  0.299000,-21.946000
  0.301000,-22.637000
  0.303000,-23.300800
  0.305000,-23.936800
  0.307000,-24.546800
  0.309000,-25.128800
  0.311000,-25.681200
  0.313000,-26.202300
  0.315000,-26.690000
  0.317000,-27.145600
  0.319000,-27.568700
  0.321000,-27.958200
  0.323000,-28.310500
  0.325000,-28.627400
  0.327000,-28.909700
  0.329000,-29.155100
  0.331000,-29.364200
  0.333000,-29.536500
  0.335000,-29.672300
  0.337000,-29.772300
  0.339000,-29.836600
  0.341000,-29.865400
  0.343000,-29.859300
  0.345000,-29.819900
  0.347000,-29.746700
  0.349000,-29.639200
  0.351000,-29.499300
  0.353000,-29.329100
  0.355000,-29.131200
  0.357000,-28.903300
  0.359000,-28.647800
  0.361000,-28.370400
  0.363000,-28.068300
  0.365000,-27.744100
  0.367000,-27.401500
  0.369000,-27.040000
  0.371000,-26.660900
  0.373000,-26.266500
  0.375000,-25.859400
  0.377000,-25.439900
  0.379000,-25.010900
  0.381000,-24.574100
  0.383000,-24.130400
  0.385000,-23.682600
  0.387000,-23.231100
  0.389000,-22.778500
  0.391000,-22.327600
  0.393000,-21.878500
  0.395000,-21.433100
  0.397000,-20.992400
  0.399000,-20.556500
  0.401000,-20.127400
  0.403000,-19.707900
  0.405000,-19.297800
  0.407000,-18.897000
  0.409000,-18.507200
  0.411000,-18.128000
  0.413000,-17.760800
  0.415000,-17.406500
  0.417000,-17.064700
  0.419000,-16.735600
  0.421000,-16.419100
  0.423000,-16.115900
  0.425000,-15.826700
  0.427000,-15.550300
  0.429000,-15.286400
  0.431000,-15.035900
  0.433000,-14.798000
  0.435000,-14.571200
  0.437000,-14.355900
  0.439000,-14.152700
  0.441000,-13.960500
  0.443000,-13.778600
  0.445000,-13.605100
  0.447000,-13.440400
  0.449000,-13.284100
  0.451000,-13.135000
  0.453000,-12.993800
  0.455000,-12.859000
  0.457000,-12.729400
  0.459000,-12.605300
  0.461000,-12.486100
  0.463000,-12.370200
  0.465000,-12.257400
  0.467000,-12.147100
  0.469000,-12.038900
  0.471000,-11.932500
  0.473000,-11.827200
  0.475000,-11.722500
  0.477000,-11.618200
  0.479000,-11.513700
  0.481000,-11.408400
  0.483000,-11.301900
  0.485000,-11.194200
  0.487000,-11.085200
  0.489000,-10.974500
  0.491000,-10.861800
  0.493000,-10.747200
  0.495000,-10.630400
  0.497000,-10.511400
  0.499000,-10.390400
  0.501000,-10.266800
  0.503000,-10.141100
  0.505000,-10.013100
  0.507000, -9.882900
  0.509000, -9.750600
  0.511000, -9.616600
  0.513000, -9.481100
  0.515000, -9.344100
  0.517000, -9.205700
  0.519000, -9.065900
  0.521000, -8.925000
  0.523000, -8.783400
  0.525000, -8.641100
  0.527000, -8.498800
  0.529000, -8.356500
  0.531000, -8.214300
  0.533000, -8.072800
  0.535000, -7.931500
  0.537000, -7.790900
  0.539000, -7.651100
  0.541000, -7.512600
  0.543000, -7.375500
  0.545000, -7.240100
  0.547000, -7.107000
  0.549000, -6.975900
  0.551000, -6.846900
  0.553000, -6.720200
  0.555000, -6.595400
  0.557000, -6.472800
  0.559000, -6.352700
  0.561000, -6.235400
  0.563000, -6.120700
  0.565000, -6.008500
  0.567000, -5.898500
  0.569000, -5.791200
  0.571000, -5.686600
  0.573000, -5.584500
  0.575000, -5.484800
  0.577000, -5.387700
  0.579000, -5.293000
  0.581000, -5.199800
  0.583000, -5.108600
  0.585000, -5.019700
  0.587000, -4.932300
  0.589000, -4.846500
  0.591000, -4.762200
  0.593000, -4.679400
  0.595000, -4.598000
  0.597000, -4.517500
  0.599000, -4.437600
  0.601000, -4.359000
  0.603000, -4.281300
  0.605000, -4.203900
  0.607000, -4.127000
  0.609000, -4.050400
  0.611000, -3.973800
  0.613000, -3.897600
  0.615000, -3.821600
  0.617000, -3.745200
  0.619000, -3.669100
  0.621000, -3.593300
  0.623000, -3.517200
  0.625000, -3.440900
  0.627000, -3.364800
  0.629000, -3.288300
  0.631000, -3.211200
  0.633000, -3.134400
  0.635000, -3.057600
  0.637000, -2.980600
  0.639000, -2.903300
  0.641000, -2.827300
  0.643000, -2.752000
  0.645000, -2.676100
  0.647000, -2.600200
  0.649000, -2.525500
  0.651000, -2.451700
  0.653000, -2.378100
  0.655000, -2.305400
  0.657000, -2.233800
  0.659000, -2.162300
  0.661000, -2.091700
  0.663000, -2.023700
  0.665000, -1.957800
  0.667000, -1.893900
  0.669000, -1.831300
  0.671000, -1.770300
  0.673000, -1.712400
  0.675000, -1.656100
  0.677000, -1.600600
  0.679000, -1.547900
  0.681000, -1.498500
  0.683000, -1.451600
  0.685000, -1.406700
  0.687000, -1.364700
  0.689000, -1.325200
  0.691000, -1.288200
  0.693000, -1.254200
  0.695000, -1.223200
  0.697000, -1.194800
  0.699000, -1.168900
  0.701000, -1.145900
  0.703000, -1.126100
  0.705000, -1.109100
  0.707000, -1.094900
  0.709000, -1.082800
  0.711000, -1.073400
  0.713000, -1.066900
  0.715000, -1.062700
  0.717000, -1.060900
  0.719000, -1.060900
  0.721000, -1.063000
  0.723000, -1.067100
  0.725000, -1.073000
  0.727000, -1.081000
  0.729000, -1.090400
  0.731000, -1.101300
  0.733000, -1.113500
  0.735000, -1.127000
  0.737000, -1.141400
  0.739000, -1.156800
  0.741000, -1.173000
  0.743000, -1.189300
  0.745000, -1.206500
  0.747000, -1.223800
  0.749000, -1.241900
  0.751000, -1.260600
  0.753000, -1.279100
  0.755000, -1.297100
  0.757000, -1.315000
  0.759000, -1.332700
  0.761000, -1.349700
  0.763000, -1.366000
  0.765000, -1.381300
  0.767000, -1.395900
  0.769000, -1.409800
  0.771000, -1.422800
  0.773000, -1.434800
  0.775000, -1.445700
  0.777000, -1.455700
  0.779000, -1.464600
  0.781000, -1.472200
  0.783000, -1.478600
  0.785000, -1.483700
  0.787000, -1.487600
  0.789000, -1.490200
  0.791000, -1.491300
  0.793000, -1.491000
  0.795000, -1.489300
  0.797000, -1.486400
  0.799000, -1.482100
  0.801000, -1.476600
  0.803000, -1.469500
  0.805000, -1.461000
  0.807000, -1.451100
  0.809000, -1.440100
  0.811000, -1.428100
  0.813000, -1.414800
  0.815000, -1.400000
  0.817000, -1.384200
  0.819000, -1.367600
  0.821000, -1.350000
  0.823000, -1.331400
  0.825000, -1.311800
  0.827000, -1.291400
  0.829000, -1.270500
  0.831000, -1.248900
  0.833000, -1.226400
  0.835000, -1.203400
  0.837000, -1.180000
  0.839000, -1.156100
  0.841000, -1.131700
  0.843000, -1.107000
  0.845000, -1.081900
  0.847000, -1.056300
  0.849000, -1.030700
  0.851000, -1.005200
  0.853000, -0.979600
  0.855000, -0.954000
  0.857000, -0.928500
  0.859000, -0.903200
  0.861000, -0.878000
  0.863000, -0.853200
  0.865000, -0.828600
  0.867000, -0.804200
  0.869000, -0.780200
  0.871000, -0.756400
  0.873000, -0.733000
  0.875000, -0.710100
  0.877000, -0.687700
  0.879000, -0.666100
  0.881000, -0.645000
  0.883000, -0.624300
  0.885000, -0.604300
  0.887000, -0.585000
  0.889000, -0.566200
  0.891000, -0.548100
  0.893000, -0.530700
  0.895000, -0.513700
  0.897000, -0.497400
  0.899000, -0.481600
  0.901000, -0.466400
  0.903000, -0.451900
  0.905000, -0.438100
  0.907000, -0.424800
  0.909000, -0.412200
  0.911000, -0.400100
  0.913000, -0.388500
  0.915000, -0.377500
  0.917000, -0.367100
  0.919000, -0.357300
  0.921000, -0.348000
  0.923000, -0.339300
  0.925000, -0.330900
  0.927000, -0.322800
  0.929000, -0.315200
  0.931000, -0.307900
  0.933000, -0.301100
  0.935000, -0.294700
  0.937000, -0.288400
  0.939000, -0.282700
  0.941000, -0.277300
  0.943000, -0.272200
  0.945000, -0.267400
  0.947000, -0.262900
  0.949000, -0.258800
  0.951000, -0.254900
  0.953000, -0.251000
  0.955000, -0.247300
  0.957000, -0.244000
  0.959000, -0.240900
  0.961000, -0.237800
  0.963000, -0.234900
  0.965000, -0.232300
  0.967000, -0.229800
  0.969000, -0.227500
  0.971000, -0.225300
  0.973000, -0.223400
  0.975000, -0.221600
  0.977000, -0.219900
  0.979000, -0.218500
  0.981000, -0.217200
  0.983000, -0.216100
  0.985000, -0.215300
  0.987000, -0.214400
  0.989000, -0.213500
  0.991000, -0.212900
  0.993000, -0.212500
  0.995000, -0.212100
  0.997000, -0.212000
  0.999000, -0.212300
  1.001000, -0.212500
  1.003000, -0.212700
  1.005000, -0.212900
  1.007000, -0.213300
  1.009000, -0.214000
  1.011000, -0.214800
  1.013000, -0.215600
  1.015000, -0.216500
  1.017000, -0.217800
  1.019000, -0.219000
  1.021000, -0.220200
  1.023000, -0.221300
  1.025000, -0.222600
  1.027000, -0.224100
  1.029000, -0.225500
  1.031000, -0.226900
  1.033000, -0.228500
  1.035000, -0.230100
  1.037000, -0.231900
  1.039000, -0.233500
  1.041000, -0.235200
  1.043000, -0.236900
  1.045000, -0.238600
  1.047000, -0.240300
  1.049000, -0.242000
  1.051000, -0.243500
  1.053000, -0.244900
  1.055000, -0.246300
  1.057000, -0.247500
  1.059000, -0.248700
  1.061000, -0.250000
  1.063000, -0.251400
  1.065000, -0.252700
  1.067000, -0.253500
  1.069000, -0.254200
  1.071000, -0.254800
  1.073000, -0.255400
  1.075000, -0.256000
  1.077000, -0.256500
  1.079000, -0.256900
  1.081000, -0.257000
  1.083000, -0.257000
  1.085000, -0.256900
  1.087000, -0.256800
  1.089000, -0.256500
  1.091000, -0.256000
  1.093000, -0.255400
  1.095000, -0.254700
  1.097000, -0.253900
  1.099000, -0.252900
  1.101000, -0.251700
  1.103000, -0.250600
  1.105000, -0.249200
  1.107000, -0.247700
  1.109000, -0.246100
  1.111000, -0.244600
  1.113000, -0.242900
  1.115000, -0.241200
  1.117000, -0.239200
  1.119000, -0.237200
  1.121000, -0.235200
  1.123000, -0.232900
  1.125000, -0.230500
  1.127000, -0.228100
  1.129000, -0.225600
  1.131000, -0.222900
  1.133000, -0.220300
  1.135000, -0.217600
  1.137000, -0.214800
  1.139000, -0.211900
  1.141000, -0.208900
  1.143000, -0.205700
  1.145000, -0.202600
  1.147000, -0.199500
  1.149000, -0.196300
  1.151000, -0.192900
  1.153000, -0.189500
  1.155000, -0.186200
  1.157000, -0.183000
  1.159000, -0.179700
  1.161000, -0.176200
  1.163000, -0.172700
  1.165000, -0.169200
  1.167000, -0.165700
  1.169000, -0.162200
  1.171000, -0.158700
  1.173000, -0.155200
  1.175000, -0.151400
  1.177000, -0.147700
  1.179000, -0.144100
  1.181000, -0.140500
  1.183000, -0.137100
  1.185000, -0.133500
  1.187000, -0.129900
  1.189000, -0.126200
  1.191000, -0.122600
  1.193000, -0.119100
  1.195000, -0.115600
  1.197000, -0.112100
  1.199000, -0.108600
  1.201000, -0.105100
  1.203000, -0.101700
  1.205000, -0.098400
  1.207000, -0.095100
  1.209000, -0.091800
  1.211000, -0.088700
  1.213000, -0.085400
  1.215000, -0.082300
  1.217000, -0.079200
  1.219000, -0.076100
  1.221000, -0.073000
  1.223000, -0.070000
  1.225000, -0.067000
  1.227000, -0.064100
  1.229000, -0.061200
  1.231000, -0.058400
  1.233000, -0.055700
  1.235000, -0.053100
  1.237000, -0.050500
  1.239000, -0.047800
  1.241000, -0.045200
  1.243000, -0.042800
  1.245000, -0.040400
  1.247000, -0.038000
  1.249000, -0.035700
  1.251000, -0.033500
  1.253000, -0.031300
  1.255000, -0.029300
  1.257000, -0.027300
  1.259000, -0.025300
  1.261000, -0.023300
  1.263000, -0.021400
  1.265000, -0.019600
  1.267000, -0.017800
  1.269000, -0.016200
  1.271000, -0.014600
  1.273000, -0.013000
  1.275000, -0.011500
  1.277000, -0.009900
  1.279000, -0.008400
  1.281000, -0.007000
  1.283000, -0.005600
  1.285000, -0.004300
  1.287000, -0.003000
  1.289000, -0.001700
  1.291000, -0.000400
  1.293000,  0.000800
  1.295000,  0.002000
  1.297000,  0.003100
  1.299000,  0.004400
  1.301000,  0.005500
  1.303000,  0.006700
  1.305000,  0.007800
  1.307000,  0.008900
  1.309000,  0.010100
  1.311000,  0.011400
  1.313000,  0.012600
  1.315000,  0.013900
  1.317000,  0.015200
  1.319000,  0.016400
  1.321000,  0.017800
  1.323000,  0.019200
  1.325000,  0.020700
  1.327000,  0.022300
  1.329000,  0.023800
  1.331000,  0.025300
  1.333000,  0.026900
  1.335000,  0.028500
  1.337000,  0.030200
  1.339000,  0.032100
  1.341000,  0.033900
  1.343000,  0.035800
  1.345000,  0.037700
  1.347000,  0.039500
  1.349000,  0.041500
  1.351000,  0.043400
  1.353000,  0.045500
  1.355000,  0.047500
  1.357000,  0.049400
  1.359000,  0.051300
  1.361000,  0.053200
  1.363000,  0.055100
  1.365000,  0.056900
  1.367000,  0.058800
  1.369000,  0.060600
  1.371000,  0.062200
  1.373000,  0.063900
  1.375000,  0.065600
  1.377000,  0.067100
  1.379000,  0.068500
  1.381000,  0.069700
  1.383000,  0.070800
  1.385000,  0.071600
  1.387000,  0.072200
  1.389000,  0.072600
  1.391000,  0.072800
  1.393000,  0.072600
  1.395000,  0.072200
  1.397000,  0.071300
  1.399000,  0.070000
