# z (nm)   (kJ/mol)
  0.1280  279.02027
  0.1300  276.05052
  0.1320  273.82713
  0.1340  271.29669
  0.1360  268.76511
  0.1380  266.35902
  0.1400  263.96323
  0.1420  261.56818
  0.1440  259.15004
  0.1460  256.67944
  0.1480  254.13977
  0.1500  251.49964
  0.1520  248.74349
  0.1540  245.83784
  0.1560  242.76507
  0.1580  239.50876
  0.1600  236.05177
  0.1620  232.38229
  0.1640  228.49857
  0.1660  224.40441
  0.1680  220.13343
  0.1700  215.71512
  0.1720  211.18877
  0.1740  206.60524
  0.1760  202.00704
  0.1780  197.44075
  0.1800  192.93487
  0.1820  188.50346
  0.1840  184.15523
  0.1860  179.89789
  0.1880  175.72622
  0.1900  171.64591
  0.1920  167.66717
  0.1940  163.79146
  0.1960  160.00785
  0.1980  156.31141
  0.2000  152.68122
  0.2020  149.09373
  0.2040  145.54342
  0.2060  142.02093
  0.2080  138.54688
  0.2100  135.13752
  0.2120  131.81326
  0.2140  128.59529
  0.2160  125.48750
  0.2180  122.48455
  0.2200  119.57237
  0.2220  116.71440
  0.2240  113.88161
  0.2260  111.02019
  0.2280  108.10472
  0.2300  105.12077
  0.2320  102.09581
  0.2340   99.07363
  0.2360   96.11529
  0.2380   93.26913
  0.2400   90.56812
  0.2420   88.00527
  0.2440   85.55212
  0.2460   83.18137
  0.2480   80.83445
  0.2500   78.48181
  0.2520   76.11150
  0.2540   73.71104
  0.2560   71.30764
  0.2580   68.92592
  0.2600   66.61064
  0.2620   64.39051
  0.2640   62.28754
  0.2660   60.29330
  0.2680   58.40922
  0.2700   56.59018
  0.2720   54.81581
  0.2740   53.06013
  0.2760   51.29184
  0.2780   49.49267
  0.2800   47.68070
  0.2820   45.89792
  0.2840   44.19543
  0.2860   42.60478
  0.2880   41.12575
  0.2900   39.71552
  0.2920   38.32603
  0.2940   36.91589
  0.2960   35.48808
  0.2980   34.07403
  0.3000   32.69393
  0.3020   31.38652
  0.3040   30.17059
  0.3060   29.04106
  0.3080   27.98329
  0.3100   26.97690
  0.3120   25.98775
  0.3140   25.01099
  0.3160   24.04337
  0.3180   23.08667
  0.3200   22.15652
  0.3220   21.26572
  0.3240   20.42516
  0.3260   19.63927
  0.3280   18.91029
  0.3300   18.22110
  0.3320   17.56845
  0.3340   16.94167
  0.3360   16.33726
  0.3380   15.75369
  0.3400   15.18423
  0.3420   14.63609
  0.3440   14.11749
  0.3460   13.62641
  0.3480   13.16500
  0.3500   12.73532
  0.3520   12.33486
  0.3540   11.95966
  0.3560   11.59820
  0.3580   11.23224
  0.3600   10.87691
  0.3620   10.51020
  0.3640   10.13971
  0.3660    9.75572
  0.3680    9.38364
  0.3700    9.02233
  0.3720    8.67972
  0.3740    8.37423
  0.3760    8.10117
  0.3780    7.84870
  0.3800    7.62774
  0.3820    7.42516
  0.3840    7.23839
  0.3860    7.05244
  0.3880    6.86389
  0.3900    6.66925
  0.3920    6.47267
  0.3940    6.26548
  0.3960    6.06656
  0.3980    5.88008
  0.4000    5.71130
  0.4020    5.55838
  0.4040    5.41713
  0.4060    5.29518
  0.4080    5.19344
  0.4100    5.09989
  0.4120    5.01785
  0.4140    4.93664
  0.4160    4.85324
  0.4180    4.77019
  0.4200    4.68603
  0.4220    4.59325
  0.4240    4.50067
  0.4260    4.39846
  0.4280    4.29272
  0.4300    4.18171
  0.4320    4.06419
  0.4340    3.94379
  0.4360    3.82786
  0.4380    3.71219
  0.4400    3.61504
  0.4420    3.52285
  0.4440    3.43371
  0.4460    3.35578
  0.4480    3.28128
  0.4500    3.20641
  0.4520    3.12451
  0.4540    3.03660
  0.4560    2.94666
  0.4580    2.84921
  0.4600    2.76532
  0.4620    2.68711
  0.4640    2.62155
  0.4660    2.57308
  0.4680    2.53042
  0.4700    2.49769
  0.4720    2.46228
  0.4740    2.42562
  0.4760    2.38201
  0.4780    2.33095
  0.4800    2.27400
  0.4820    2.21856
  0.4840    2.16150
  0.4860    2.10310
  0.4880    2.05732
  0.4900    2.00437
  0.4920    1.95581
  0.4940    1.90155
  0.4960    1.85414
  0.4980    1.80387
  0.5000    1.74785
  0.5020    1.69634
  0.5040    1.64085
  0.5060    1.58395
  0.5080    1.53791
  0.5100    1.48686
  0.5120    1.43673
  0.5140    1.38359
  0.5160    1.33128
  0.5180    1.26989
  0.5200    1.20663
  0.5220    1.13783
  0.5240    1.06530
  0.5260    0.98240
  0.5280    0.89249
  0.5300    0.79552
  0.5320    0.69936
  0.5340    0.59637
  0.5360    0.50031
  0.5380    0.40787
  0.5400    0.31335
  0.5420    0.23319
  0.5440    0.16578
  0.5460    0.10235
  0.5480    0.04846
  0.5500   -0.00619
  0.5520   -0.06532
  0.5540   -0.12643
  0.5560   -0.19465
  0.5580   -0.27442
  0.5600   -0.36128
  0.5620   -0.45848
  0.5640   -0.55081
  0.5660   -0.65300
  0.5680   -0.74931
  0.5700   -0.84935
  0.5720   -0.95155
  0.5740   -1.04899
  0.5760   -1.14379
  0.5780   -1.23132
  0.5800   -1.30667
  0.5820   -1.36940
  0.5840   -1.42041
  0.5860   -1.45197
  0.5880   -1.47467
  0.5900   -1.47958
  0.5920   -1.47956
  0.5940   -1.48759
  0.5960   -1.49473
  0.5980   -1.51972
  0.6000   -1.55999
  0.6020   -1.62375
  0.6040   -1.69595
  0.6060   -1.77223
  0.6080   -1.85378
  0.6100   -1.93312
  0.6120   -1.99708
  0.6140   -2.04752
  0.6160   -2.08116
  0.6180   -2.09962
  0.6200   -2.09915
  0.6220   -2.08248
  0.6240   -2.06060
  0.6260   -2.03660
  0.6280   -2.00305
  0.6300   -1.96319
  0.6320   -1.92736
  0.6340   -1.90275
  0.6360   -1.88728
  0.6380   -1.87740
  0.6400   -1.88089
  0.6420   -1.89228
  0.6440   -1.91065
  0.6460   -1.92859
  0.6480   -1.94294
  0.6500   -1.94990
  0.6520   -1.94455
  0.6540   -1.93619
  0.6560   -1.91899
  0.6580   -1.89847
  0.6600   -1.86628
  0.6620   -1.83668
  0.6640   -1.79600
  0.6660   -1.75665
  0.6680   -1.72171
  0.6700   -1.68664
  0.6720   -1.65076
  0.6740   -1.61434
  0.6760   -1.58210
  0.6780   -1.54426
  0.6800   -1.50310
  0.6820   -1.46225
  0.6840   -1.41807
  0.6860   -1.36797
  0.6880   -1.31295
  0.6900   -1.25967
  0.6920   -1.20913
  0.6940   -1.16045
  0.6960   -1.10559
  0.6980   -1.05913
  0.7000   -1.00654
  0.7020   -0.95821
  0.7040   -0.91394
  0.7060   -0.86425
  0.7080   -0.81417
  0.7100   -0.76300
  0.7120   -0.70926
  0.7140   -0.65185
  0.7160   -0.58974
  0.7180   -0.52070
  0.7200   -0.45218
  0.7220   -0.38222
  0.7240   -0.31585
  0.7260   -0.24865
  0.7280   -0.17514
  0.7300   -0.10820
  0.7320   -0.04061
  0.7340    0.02952
  0.7360    0.09431
  0.7380    0.15628
  0.7400    0.22254
  0.7420    0.28495
  0.7440    0.35765
  0.7460    0.42262
  0.7480    0.48701
  0.7500    0.55379
  0.7520    0.61594
  0.7540    0.67752
  0.7560    0.73978
  0.7580    0.79992
  0.7600    0.85518
  0.7620    0.91067
  0.7640    0.95872
  0.7660    0.99170
  0.7680    1.02326
  0.7700    1.05011
  0.7720    1.07039
  0.7740    1.09213
  0.7760    1.11917
  0.7780    1.14540
  0.7800    1.17797
  0.7820    1.21428
  0.7840    1.25827
  0.7860    1.29839
  0.7880    1.34185
  0.7900    1.37738
  0.7920    1.40913
  0.7940    1.43508
  0.7960    1.44715
  0.7980    1.45494
  0.8000    1.45829
  0.8020    1.45978
  0.8040    1.46228
  0.8060    1.46278
  0.8080    1.46062
  0.8100    1.45760
  0.8120    1.45766
  0.8140    1.45650
  0.8160    1.45612
  0.8180    1.45759
  0.8200    1.46361
  0.8220    1.46807
  0.8240    1.46461
  0.8260    1.46068
  0.8280    1.45147
  0.8300    1.44178
  0.8320    1.42412
  0.8340    1.40661
  0.8360    1.39066
  0.8380    1.37700
  0.8400    1.36543
  0.8420    1.35406
  0.8440    1.34681
  0.8460    1.34113
  0.8480    1.33765
  0.8500    1.33037
  0.8520    1.31851
  0.8540    1.29119
  0.8560    1.25949
  0.8580    1.22215
  0.8600    1.18910
  0.8620    1.14035
  0.8640    1.09827
  0.8660    1.05374
  0.8680    1.00900
  0.8700    0.96667
  0.8720    0.93389
  0.8740    0.90314
  0.8760    0.87893
  0.8780    0.85260
  0.8800    0.83901
  0.8820    0.81533
  0.8840    0.79519
  0.8860    0.76588
  0.8880    0.73634
  0.8900    0.70918
  0.8920    0.67715
  0.8940    0.64509
  0.8960    0.61617
  0.8980    0.58032
  0.9000    0.54675
  0.9020    0.50758
  0.9040    0.47481
  0.9060    0.44126
  0.9080    0.41209
  0.9100    0.37789
  0.9120    0.34328
  0.9140    0.31243
  0.9160    0.28405
  0.9180    0.25024
  0.9200    0.22290
  0.9220    0.19907
  0.9240    0.18049
  0.9260    0.15694
  0.9280    0.13006
  0.9300    0.10729
  0.9320    0.08612
  0.9340    0.06154
  0.9360    0.03428
  0.9380    0.01000
  0.9400   -0.01103
  0.9420   -0.03370
  0.9440   -0.05266
  0.9460   -0.06658
  0.9480   -0.07821
  0.9500   -0.08788
  0.9520   -0.09448
  0.9540   -0.09773
  0.9560   -0.10020
  0.9580   -0.10484
  0.9600   -0.11238
  0.9620   -0.11694
  0.9640   -0.13206
  0.9660   -0.14687
  0.9680   -0.15801
  0.9700   -0.17032
  0.9720   -0.18100
  0.9740   -0.19220
  0.9760   -0.20069
  0.9780   -0.20102
  0.9800   -0.20788
  0.9820   -0.21105
  0.9840   -0.21288
  0.9860   -0.20922
  0.9880   -0.20271
  0.9900   -0.20501
  0.9920   -0.20414
  0.9940   -0.20114
  0.9960   -0.20470
  0.9980   -0.20133
  1.0000   -0.19349
