# z (nm)   (kJ/mol)
  0.1280  258.73809
  0.1300  255.37419
  0.1320  252.19664
  0.1340  249.46720
  0.1360  246.90287
  0.1380  244.41578
  0.1400  241.96253
  0.1420  239.42134
  0.1440  236.84021
  0.1460  234.17861
  0.1480  231.41252
  0.1500  228.51716
  0.1520  225.48184
  0.1540  222.28344
  0.1560  218.91208
  0.1580  215.36673
  0.1600  211.64057
  0.1620  207.74026
  0.1640  203.67186
  0.1660  199.44776
  0.1680  195.08421
  0.1700  190.58280
  0.1720  185.94351
  0.1740  181.16044
  0.1760  176.24408
  0.1780  171.22560
  0.1800  166.16870
  0.1820  161.16388
  0.1840  156.30818
  0.1860  151.66965
  0.1880  147.27971
  0.1900  143.12569
  0.1920  139.15752
  0.1940  135.30413
  0.1960  131.49157
  0.1980  127.66311
  0.2000  123.79555
  0.2020  119.90655
  0.2040  116.03988
  0.2060  112.23722
  0.2080  108.54423
  0.2100  104.99973
  0.2120  101.63004
  0.2140   98.45704
  0.2160   95.47214
  0.2180   92.61138
  0.2200   89.74341
  0.2220   86.75513
  0.2240   83.64968
  0.2260   80.55416
  0.2280   77.59513
  0.2300   74.80318
  0.2320   72.08345
  0.2340   69.36460
  0.2360   66.63899
  0.2380   63.97806
  0.2400   61.44942
  0.2420   59.07346
  0.2440   56.81333
  0.2460   54.59893
  0.2480   52.38343
  0.2500   50.13357
  0.2520   47.87301
  0.2540   45.64350
  0.2560   43.48962
  0.2580   41.44469
  0.2600   39.54065
  0.2620   37.76132
  0.2640   36.06402
  0.2660   34.39017
  0.2680   32.69076
  0.2700   30.95798
  0.2720   29.22198
  0.2740   27.54078
  0.2760   25.96463
  0.2780   24.51572
  0.2800   23.17038
  0.2820   21.88126
  0.2840   20.62296
  0.2860   19.37398
  0.2880   18.13944
  0.2900   16.93338
  0.2920   15.78680
  0.2940   14.72143
  0.2960   13.73461
  0.2980   12.81335
  0.3000   11.92444
  0.3020   11.05666
  0.3040   10.19466
  0.3060    9.32718
  0.3080    8.47150
  0.3100    7.65704
  0.3120    6.90483
  0.3140    6.22602
  0.3160    5.60920
  0.3180    5.04387
  0.3200    4.49897
  0.3220    3.95838
  0.3240    3.41042
  0.3260    2.86361
  0.3280    2.32046
  0.3300    1.81730
  0.3320    1.36891
  0.3340    0.97640
  0.3360    0.62929
  0.3380    0.32936
  0.3400    0.04151
  0.3420   -0.24043
  0.3440   -0.53278
  0.3460   -0.82535
  0.3480   -1.11340
  0.3500   -1.39680
  0.3520   -1.64388
  0.3540   -1.86930
  0.3560   -2.04502
  0.3580   -2.20296
  0.3600   -2.32675
  0.3620   -2.43211
  0.3640   -2.53000
  0.3660   -2.64034
  0.3680   -2.77615
  0.3700   -2.92417
  0.3720   -3.07528
  0.3740   -3.20523
  0.3760   -3.29889
  0.3780   -3.33108
  0.3800   -3.30584
  0.3820   -3.24059
  0.3840   -3.16361
  0.3860   -3.09314
  0.3880   -3.05573
  0.3900   -3.04444
  0.3920   -3.04966
  0.3940   -3.04548
  0.3960   -3.02723
  0.3980   -2.98422
  0.4000   -2.91348
  0.4020   -2.82113
  0.4040   -2.71642
  0.4060   -2.61254
  0.4080   -2.51999
  0.4100   -2.43867
  0.4120   -2.36376
  0.4140   -2.31713
  0.4160   -2.28136
  0.4180   -2.25809
  0.4200   -2.22525
  0.4220   -2.17640
  0.4240   -2.10943
  0.4260   -2.02347
  0.4280   -1.91964
  0.4300   -1.80934
  0.4320   -1.70954
  0.4340   -1.61763
  0.4360   -1.52917
  0.4380   -1.43879
  0.4400   -1.35827
  0.4420   -1.26252
  0.4440   -1.15790
  0.4460   -1.04289
  0.4480   -0.90611
  0.4500   -0.75066
  0.4520   -0.58293
  0.4540   -0.42103
  0.4560   -0.26754
  0.4580   -0.11901
  0.4600    0.00871
  0.4620    0.11198
  0.4640    0.20858
  0.4660    0.29170
  0.4680    0.37639
  0.4700    0.46914
  0.4720    0.57226
  0.4740    0.69270
  0.4760    0.82832
  0.4780    0.95838
  0.4800    1.08413
  0.4820    1.19927
  0.4840    1.29275
  0.4860    1.37078
  0.4880    1.43528
  0.4900    1.49818
  0.4920    1.55940
  0.4940    1.63678
  0.4960    1.71274
  0.4980    1.79879
  0.5000    1.90211
  0.5020    2.00314
  0.5040    2.11744
  0.5060    2.23647
  0.5080    2.36005
  0.5100    2.48690
  0.5120    2.60016
  0.5140    2.69371
  0.5160    2.77573
  0.5180    2.84526
  0.5200    2.90576
  0.5220    2.95609
  0.5240    2.99627
  0.5260    3.03195
  0.5280    3.07325
  0.5300    3.12891
  0.5320    3.19215
  0.5340    3.27045
  0.5360    3.34628
  0.5380    3.40384
  0.5400    3.44734
  0.5420    3.46927
  0.5440    3.46110
  0.5460    3.44429
  0.5480    3.42633
  0.5500    3.41981
  0.5520    3.41938
  0.5540    3.40847
  0.5560    3.38941
  0.5580    3.36322
  0.5600    3.31818
  0.5620    3.28316
  0.5640    3.25535
  0.5660    3.24667
  0.5680    3.24583
  0.5700    3.25126
  0.5720    3.24453
  0.5740    3.20765
  0.5760    3.14500
  0.5780    3.05144
  0.5800    2.93179
  0.5820    2.80735
  0.5840    2.68474
  0.5860    2.57926
  0.5880    2.48625
  0.5900    2.40802
  0.5920    2.33134
  0.5940    2.26707
  0.5960    2.20631
  0.5980    2.15689
  0.6000    2.10673
  0.6020    2.05887
  0.6040    2.01132
  0.6060    1.95508
  0.6080    1.90117
  0.6100    1.83932
  0.6120    1.78627
  0.6140    1.74263
  0.6160    1.70549
  0.6180    1.68182
  0.6200    1.66988
  0.6220    1.66828
  0.6240    1.67450
  0.6260    1.66934
  0.6280    1.66511
  0.6300    1.66381
  0.6320    1.65899
  0.6340    1.64467
  0.6360    1.62921
  0.6380    1.60225
  0.6400    1.56643
  0.6420    1.52747
  0.6440    1.48537
  0.6460    1.44745
  0.6480    1.42042
  0.6500    1.41504
  0.6520    1.42249
  0.6540    1.44341
  0.6560    1.47043
  0.6580    1.51400
  0.6600    1.54486
  0.6620    1.57449
  0.6640    1.58675
  0.6660    1.57841
  0.6680    1.55320
  0.6700    1.50873
  0.6720    1.45469
  0.6740    1.39397
  0.6760    1.33653
  0.6780    1.28804
  0.6800    1.24586
  0.6820    1.21632
  0.6840    1.19617
  0.6860    1.18679
  0.6880    1.18159
  0.6900    1.17013
  0.6920    1.15494
  0.6940    1.12450
  0.6960    1.08327
  0.6980    1.03250
  0.7000    0.96407
  0.7020    0.89915
  0.7040    0.84291
  0.7060    0.79670
  0.7080    0.76205
  0.7100    0.74373
  0.7120    0.71359
  0.7140    0.68346
  0.7160    0.64306
  0.7180    0.59451
  0.7200    0.54810
  0.7220    0.51051
  0.7240    0.48924
  0.7260    0.48051
  0.7280    0.49047
  0.7300    0.49768
  0.7320    0.49771
  0.7340    0.48498
  0.7360    0.45285
  0.7380    0.38729
  0.7400    0.30229
  0.7420    0.20593
  0.7440    0.10557
  0.7460    0.01024
  0.7480   -0.06182
  0.7500   -0.10932
  0.7520   -0.12996
  0.7540   -0.13345
  0.7560   -0.12051
  0.7580   -0.09961
  0.7600   -0.08568
  0.7620   -0.07740
  0.7640   -0.07985
  0.7660   -0.09810
  0.7680   -0.13448
  0.7700   -0.18329
  0.7720   -0.24024
  0.7740   -0.29555
  0.7760   -0.35282
  0.7780   -0.39353
  0.7800   -0.42043
  0.7820   -0.42246
  0.7840   -0.40631
  0.7860   -0.37120
  0.7880   -0.32463
  0.7900   -0.28394
  0.7920   -0.25561
  0.7940   -0.24531
  0.7960   -0.26487
  0.7980   -0.30574
  0.8000   -0.36089
  0.8020   -0.42295
  0.8040   -0.48356
  0.8060   -0.53719
  0.8080   -0.57649
  0.8100   -0.59770
  0.8120   -0.60475
  0.8140   -0.60279
  0.8160   -0.58832
  0.8180   -0.56406
  0.8200   -0.54350
  0.8220   -0.52048
  0.8240   -0.49635
  0.8260   -0.47422
  0.8280   -0.46409
  0.8300   -0.46032
  0.8320   -0.46889
  0.8340   -0.48293
  0.8360   -0.50345
  0.8380   -0.53103
  0.8400   -0.56572
  0.8420   -0.59424
  0.8440   -0.61880
  0.8460   -0.63572
  0.8480   -0.63562
  0.8500   -0.62311
  0.8520   -0.59693
  0.8540   -0.56479
  0.8560   -0.52462
  0.8580   -0.49537
  0.8600   -0.46563
  0.8620   -0.44752
  0.8640   -0.44200
  0.8660   -0.45095
  0.8680   -0.46883
  0.8700   -0.48269
  0.8720   -0.49652
  0.8740   -0.49849
  0.8760   -0.48367
  0.8780   -0.45596
  0.8800   -0.41673
  0.8820   -0.36610
  0.8840   -0.31486
  0.8860   -0.26973
  0.8880   -0.22630
  0.8900   -0.19076
  0.8920   -0.16781
  0.8940   -0.15541
  0.8960   -0.15334
  0.8980   -0.16230
  0.9000   -0.17486
  0.9020   -0.19657
  0.9040   -0.21464
  0.9060   -0.22139
  0.9080   -0.22945
  0.9100   -0.22417
  0.9120   -0.21404
  0.9140   -0.19433
  0.9160   -0.16385
  0.9180   -0.12829
  0.9200   -0.08955
  0.9220   -0.04280
  0.9240   -0.00360
  0.9260    0.03466
  0.9280    0.06543
  0.9300    0.08981
  0.9320    0.10440
  0.9340    0.10952
  0.9360    0.11039
  0.9380    0.10312
  0.9400    0.08690
  0.9420    0.07397
  0.9440    0.06614
  0.9460    0.06310
  0.9480    0.05780
  0.9500    0.06692
  0.9520    0.07838
  0.9540    0.09961
  0.9560    0.12297
  0.9580    0.13724
  0.9600    0.14474
  0.9620    0.14367
  0.9640    0.13874
  0.9660    0.12773
  0.9680    0.11929
  0.9700    0.10572
  0.9720    0.08740
  0.9740    0.06987
  0.9760    0.05028
  0.9780    0.03228
  0.9800    0.01788
  0.9820    0.00073
  0.9840   -0.01475
  0.9860   -0.03462
  0.9880   -0.04980
  0.9900   -0.06725
  0.9920   -0.08468
  0.9940   -0.08998
  0.9960   -0.09108
  0.9980   -0.08310
  1.0000   -0.07073
