# z (nm)   (kJ/mol)
  0.0660  284.00965
  0.0680  281.50239
  0.0700  279.03557
  0.0720  276.60635
  0.0740  274.60673
  0.0760  272.17818
  0.0780  269.76568
  0.0800  271.05236
  0.0820  268.44990
  0.0840  265.46360
  0.0860  262.62276
  0.0880  259.74193
  0.0900  256.92137
  0.0920  254.06015
  0.0940  251.13704
  0.0960  248.13807
  0.0980  245.05561
  0.1000  241.88351
  0.1020  238.61058
  0.1040  235.24682
  0.1060  231.78716
  0.1080  228.23380
  0.1100  224.59216
  0.1120  220.87359
  0.1140  217.08087
  0.1160  213.21554
  0.1180  209.29561
  0.1200  205.32079
  0.1220  201.31000
  0.1240  197.26884
  0.1260  193.21088
  0.1280  189.13667
  0.1300  185.06016
  0.1320  180.98248
  0.1340  176.91833
  0.1360  172.87883
  0.1380  168.86763
  0.1400  164.89853
  0.1420  160.98121
  0.1440  157.12845
  0.1460  153.34553
  0.1480  149.64585
  0.1500  146.04304
  0.1520  142.54463
  0.1540  139.15264
  0.1560  135.86080
  0.1580  132.65971
  0.1600  129.52706
  0.1620  126.44967
  0.1640  123.40360
  0.1660  120.38894
  0.1680  117.39485
  0.1700  114.41666
  0.1720  111.45255
  0.1740  108.50578
  0.1760  105.57350
  0.1780  102.66591
  0.1800   99.78241
  0.1820   96.92901
  0.1840   94.11397
  0.1860   91.34231
  0.1880   88.61750
  0.1900   85.94307
  0.1920   83.32102
  0.1940   80.73278
  0.1960   78.17822
  0.1980   75.64931
  0.2000   73.13490
  0.2020   70.63499
  0.2040   68.16564
  0.2060   65.72894
  0.2080   63.33827
  0.2100   61.00095
  0.2120   58.71821
  0.2140   56.49393
  0.2160   54.33414
  0.2180   52.22751
  0.2200   50.16509
  0.2220   48.13702
  0.2240   46.14341
  0.2260   44.17942
  0.2280   42.24715
  0.2300   40.34083
  0.2320   38.47367
  0.2340   36.63863
  0.2360   34.84402
  0.2380   33.09070
  0.2400   31.37385
  0.2420   29.69636
  0.2440   28.05355
  0.2460   26.45580
  0.2480   24.90553
  0.2500   23.40749
  0.2520   21.95695
  0.2540   20.55419
  0.2560   19.20725
  0.2580   17.91236
  0.2600   16.66551
  0.2620   15.46197
  0.2640   14.29364
  0.2660   13.15101
  0.2680   12.03451
  0.2700   10.93364
  0.2720    9.84974
  0.2740    8.80267
  0.2760    7.77392
  0.2780    6.78578
  0.2800    5.83231
  0.2820    4.91767
  0.2840    4.05061
  0.2860    3.23170
  0.2880    2.45656
  0.2900    1.72643
  0.2920    1.04263
  0.2940    0.39724
  0.2960   -0.20487
  0.2980   -0.77308
  0.3000   -1.30645
  0.3020   -1.80863
  0.3040   -2.28648
  0.3060   -2.73704
  0.3080   -3.16484
  0.3100   -3.57336
  0.3120   -3.95710
  0.3140   -4.31654
  0.3160   -4.64611
  0.3180   -4.94381
  0.3200   -5.21589
  0.3220   -5.44965
  0.3240   -5.65761
  0.3260   -5.83514
  0.3280   -5.98206
  0.3300   -6.09842
  0.3320   -6.19464
  0.3340   -6.27477
  0.3360   -6.33766
  0.3380   -6.38476
  0.3400   -6.42619
  0.3420   -6.45518
  0.3440   -6.47320
  0.3460   -6.48532
  0.3480   -6.48958
  0.3500   -6.48179
  0.3520   -6.46141
  0.3540   -6.43317
  0.3560   -6.39909
  0.3580   -6.35875
  0.3600   -6.30691
  0.3620   -6.24637
  0.3640   -6.17975
  0.3660   -6.10266
  0.3680   -6.01724
  0.3700   -5.92795
  0.3720   -5.82640
  0.3740   -5.71477
  0.3760   -5.59967
  0.3780   -5.47602
  0.3800   -5.35299
  0.3820   -5.23207
  0.3840   -5.10984
  0.3860   -4.99658
  0.3880   -4.88864
  0.3900   -4.78322
  0.3920   -4.68824
  0.3940   -4.60304
  0.3960   -4.51064
  0.3980   -4.41735
  0.4000   -4.33046
  0.4020   -4.23669
  0.4040   -4.14355
  0.4060   -4.06159
  0.4080   -3.97774
  0.4100   -3.90860
  0.4120   -3.84105
  0.4140   -3.77586
  0.4160   -3.71577
  0.4180   -3.65887
  0.4200   -3.60177
  0.4220   -3.54419
  0.4240   -3.48464
  0.4260   -3.42567
  0.4280   -3.36047
  0.4300   -3.29591
  0.4320   -3.22632
  0.4340   -3.15320
  0.4360   -3.07472
  0.4380   -2.99244
  0.4400   -2.90183
  0.4420   -2.81238
  0.4440   -2.72139
  0.4460   -2.62504
  0.4480   -2.52035
  0.4500   -2.41788
  0.4520   -2.31344
  0.4540   -2.20384
  0.4560   -2.08583
  0.4580   -1.96822
  0.4600   -1.84380
  0.4620   -1.72167
  0.4640   -1.58771
  0.4660   -1.45034
  0.4680   -1.30742
  0.4700   -1.16068
  0.4720   -1.01002
  0.4740   -0.85873
  0.4760   -0.70477
  0.4780   -0.54773
  0.4800   -0.39133
  0.4820   -0.23318
  0.4840   -0.08064
  0.4860    0.07563
  0.4880    0.23176
  0.4900    0.38270
  0.4920    0.53370
  0.4940    0.68079
  0.4960    0.82250
  0.4980    0.96091
  0.5000    1.09667
  0.5020    1.23309
  0.5040    1.36426
  0.5060    1.48621
  0.5080    1.61186
  0.5100    1.73100
  0.5120    1.84699
  0.5140    1.96374
  0.5160    2.07761
  0.5180    2.18493
  0.5200    2.29200
  0.5220    2.39407
  0.5240    2.49156
  0.5260    2.58669
  0.5280    2.66779
  0.5300    2.74042
  0.5320    2.80448
  0.5340    2.86082
  0.5360    2.90565
  0.5380    2.93988
  0.5400    2.96777
  0.5420    2.99203
  0.5440    3.00928
  0.5460    3.02614
  0.5480    3.04037
  0.5500    3.05505
  0.5520    3.06513
  0.5540    3.07582
  0.5560    3.08754
  0.5580    3.10298
  0.5600    3.11574
  0.5620    3.12882
  0.5640    3.13769
  0.5660    3.14374
  0.5680    3.13943
  0.5700    3.13161
  0.5720    3.11166
  0.5740    3.08272
  0.5760    3.04696
  0.5780    3.00080
  0.5800    2.94412
  0.5820    2.87205
  0.5840    2.79111
  0.5860    2.71264
  0.5880    2.62180
  0.5900    2.53182
  0.5920    2.43337
  0.5940    2.33536
  0.5960    2.24155
  0.5980    2.14282
  0.6000    2.04959
  0.6020    1.95975
  0.6040    1.87203
  0.6060    1.78750
  0.6080    1.70449
  0.6100    1.61837
  0.6120    1.53540
  0.6140    1.45194
  0.6160    1.36116
  0.6180    1.27055
  0.6200    1.17943
  0.6220    1.09000
  0.6240    0.99407
  0.6260    0.89533
  0.6280    0.79575
  0.6300    0.69922
  0.6320    0.60341
  0.6340    0.50703
  0.6360    0.42674
  0.6380    0.34640
  0.6400    0.27574
  0.6420    0.21326
  0.6440    0.15979
  0.6460    0.11451
  0.6480    0.07584
  0.6500    0.03903
  0.6520    0.00949
  0.6540   -0.01533
  0.6560   -0.03854
  0.6580   -0.05588
  0.6600   -0.07468
  0.6620   -0.09232
  0.6640   -0.10594
  0.6660   -0.11175
  0.6680   -0.12268
  0.6700   -0.13105
  0.6720   -0.14100
  0.6740   -0.15923
  0.6760   -0.16690
  0.6780   -0.18761
  0.6800   -0.21146
  0.6820   -0.23360
  0.6840   -0.25254
  0.6860   -0.28504
  0.6880   -0.31326
  0.6900   -0.34016
  0.6920   -0.36422
  0.6940   -0.38366
  0.6960   -0.40653
  0.6980   -0.42155
  0.7000   -0.43478
  0.7020   -0.44231
  0.7040   -0.44891
  0.7060   -0.45223
  0.7080   -0.44868
  0.7100   -0.44338
  0.7120   -0.43396
  0.7140   -0.42254
  0.7160   -0.40362
  0.7180   -0.38921
  0.7200   -0.37050
  0.7220   -0.35235
  0.7240   -0.33018
  0.7260   -0.30889
  0.7280   -0.29394
  0.7300   -0.27726
  0.7320   -0.25599
  0.7340   -0.24147
  0.7360   -0.22919
  0.7380   -0.21635
  0.7400   -0.20668
  0.7420   -0.19758
  0.7440   -0.18880
  0.7460   -0.18286
  0.7480   -0.17703
  0.7500   -0.17166
  0.7520   -0.16176
  0.7540   -0.15346
  0.7560   -0.13332
  0.7580   -0.11310
  0.7600   -0.09345
  0.7620   -0.06462
  0.7640   -0.04235
  0.7660   -0.00930
  0.7680    0.02933
  0.7700    0.06992
  0.7720    0.11073
  0.7740    0.14893
  0.7760    0.18965
  0.7780    0.22670
  0.7800    0.26559
  0.7820    0.29987
  0.7840    0.32970
  0.7860    0.35284
  0.7880    0.37449
  0.7900    0.39588
  0.7920    0.40932
  0.7940    0.41909
  0.7960    0.42756
  0.7980    0.43887
  0.8000    0.44669
  0.8020    0.45371
  0.8040    0.46050
  0.8060    0.46671
  0.8080    0.47195
  0.8100    0.47805
  0.8120    0.49159
  0.8140    0.50368
  0.8160    0.51685
  0.8180    0.52860
  0.8200    0.54911
  0.8220    0.55982
  0.8240    0.57062
  0.8260    0.58258
  0.8280    0.59294
  0.8300    0.59836
  0.8320    0.59934
  0.8340    0.60556
  0.8360    0.60709
  0.8380    0.61057
  0.8400    0.60973
  0.8420    0.61399
  0.8440    0.60715
  0.8460    0.60818
  0.8480    0.61059
  0.8500    0.61110
  0.8520    0.61276
  0.8540    0.60859
  0.8560    0.61499
  0.8580    0.61228
  0.8600    0.61290
  0.8620    0.61530
  0.8640    0.62408
  0.8660    0.61837
  0.8680    0.62112
  0.8700    0.62108
  0.8720    0.62728
  0.8740    0.62987
  0.8760    0.62861
  0.8780    0.62551
  0.8800    0.62092
  0.8820    0.61245
  0.8840    0.60417
  0.8860    0.58825
  0.8880    0.56632
  0.8900    0.53978
  0.8920    0.51405
  0.8940    0.48513
  0.8960    0.45075
  0.8980    0.41788
  0.9000    0.38528
  0.9020    0.35105
  0.9040    0.32485
  0.9060    0.29722
  0.9080    0.26584
  0.9100    0.24658
  0.9120    0.22694
  0.9140    0.21102
  0.9160    0.19314
  0.9180    0.17570
  0.9200    0.16021
  0.9220    0.14227
  0.9240    0.12928
  0.9260    0.11922
  0.9280    0.10990
  0.9300    0.10326
  0.9320    0.10324
  0.9340    0.09719
  0.9360    0.09001
  0.9380    0.08379
  0.9400    0.07368
  0.9420    0.05986
  0.9440    0.04877
  0.9460    0.03112
  0.9480    0.01092
  0.9500   -0.00839
  0.9520   -0.03213
  0.9540   -0.05582
  0.9560   -0.07937
  0.9580   -0.09786
  0.9600   -0.11220
  0.9620   -0.12244
  0.9640   -0.13652
  0.9660   -0.14225
  0.9680   -0.14914
  0.9700   -0.15080
  0.9720   -0.15764
  0.9740   -0.16027
  0.9760   -0.16015
  0.9780   -0.16280
  0.9800   -0.16192
  0.9820   -0.16445
  0.9840   -0.16493
  0.9860   -0.16265
  0.9880   -0.16722
  0.9900   -0.16734
  0.9920   -0.16860
  0.9940   -0.17187
  0.9960   -0.18523
  0.9980   -0.19634
  1.0000   -0.21673
