# z (nm)   (kJ/mol)
  0.0820  268.98181
  0.0840  266.41548
  0.0860  263.88286
  0.0880  261.21927
  0.0900  258.44070
  0.0920  255.77956
  0.0940  253.14139
  0.0960  250.44365
  0.0980  247.77178
  0.1000  245.07972
  0.1020  242.35119
  0.1040  239.57197
  0.1060  236.72675
  0.1080  233.82136
  0.1100  230.81879
  0.1120  227.73148
  0.1140  224.53666
  0.1160  221.22548
  0.1180  217.77815
  0.1200  214.18238
  0.1220  210.42438
  0.1240  206.50051
  0.1260  202.42575
  0.1280  198.22529
  0.1300  193.93943
  0.1320  189.61402
  0.1340  185.29098
  0.1360  180.99870
  0.1380  176.75644
  0.1400  172.56637
  0.1420  168.43289
  0.1440  164.34434
  0.1460  160.29968
  0.1480  156.29126
  0.1500  152.33588
  0.1520  148.44714
  0.1540  144.64744
  0.1560  140.93764
  0.1580  137.30138
  0.1600  133.72642
  0.1620  130.21091
  0.1640  126.75426
  0.1660  123.37347
  0.1680  120.06963
  0.1700  116.85212
  0.1720  113.70299
  0.1740  110.60924
  0.1760  107.53504
  0.1780  104.45839
  0.1800  101.34933
  0.1820   98.19011
  0.1840   94.98652
  0.1860   91.75517
  0.1880   88.53574
  0.1900   85.37909
  0.1920   82.32259
  0.1940   79.40618
  0.1960   76.62623
  0.1980   73.95298
  0.2000   71.33603
  0.2020   68.72145
  0.2040   66.06430
  0.2060   63.36182
  0.2080   60.61908
  0.2100   57.87559
  0.2120   55.17524
  0.2140   52.55847
  0.2160   50.04860
  0.2180   47.64461
  0.2200   45.34018
  0.2220   43.10862
  0.2240   40.92951
  0.2260   38.79125
  0.2280   36.68381
  0.2300   34.60552
  0.2320   32.55793
  0.2340   30.54403
  0.2360   28.57521
  0.2380   26.63435
  0.2400   24.72865
  0.2420   22.85272
  0.2440   20.99415
  0.2460   19.17099
  0.2480   17.40535
  0.2500   15.70851
  0.2520   14.08651
  0.2540   12.54012
  0.2560   11.06363
  0.2580    9.62650
  0.2600    8.21146
  0.2620    6.80734
  0.2640    5.41385
  0.2660    4.06299
  0.2680    2.74499
  0.2700    1.48822
  0.2720    0.29323
  0.2740   -0.83703
  0.2760   -1.91073
  0.2780   -2.93996
  0.2800   -3.92169
  0.2820   -4.84962
  0.2840   -5.72936
  0.2860   -6.56724
  0.2880   -7.36320
  0.2900   -8.12428
  0.2920   -8.86077
  0.2940   -9.56756
  0.2960  -10.23778
  0.2980  -10.87183
  0.3000  -11.46186
  0.3020  -11.99874
  0.3040  -12.47106
  0.3060  -12.88766
  0.3080  -13.25568
  0.3100  -13.58214
  0.3120  -13.87083
  0.3140  -14.13005
  0.3160  -14.37810
  0.3180  -14.61163
  0.3200  -14.83119
  0.3220  -15.03105
  0.3240  -15.21425
  0.3260  -15.36820
  0.3280  -15.48722
  0.3300  -15.56804
  0.3320  -15.61585
  0.3340  -15.63275
  0.3360  -15.61192
  0.3380  -15.56388
  0.3400  -15.49474
  0.3420  -15.39887
  0.3440  -15.29290
  0.3460  -15.17751
  0.3480  -15.05127
  0.3500  -14.91852
  0.3520  -14.77168
  0.3540  -14.61609
  0.3560  -14.45199
  0.3580  -14.27051
  0.3600  -14.07020
  0.3620  -13.84696
  0.3640  -13.61425
  0.3660  -13.35995
  0.3680  -13.09554
  0.3700  -12.81977
  0.3720  -12.54848
  0.3740  -12.29184
  0.3760  -12.05044
  0.3780  -11.82740
  0.3800  -11.62156
  0.3820  -11.42963
  0.3840  -11.24914
  0.3860  -11.07008
  0.3880  -10.88199
  0.3900  -10.68346
  0.3920  -10.46378
  0.3940  -10.23037
  0.3960  -10.00892
  0.3980   -9.78313
  0.4000   -9.57076
  0.4020   -9.36968
  0.4040   -9.19246
  0.4060   -9.03176
  0.4080   -8.88962
  0.4100   -8.75945
  0.4120   -8.64363
  0.4140   -8.53590
  0.4160   -8.43092
  0.4180   -8.32263
  0.4200   -8.20517
  0.4220   -8.08521
  0.4240   -7.96040
  0.4260   -7.82915
  0.4280   -7.69566
  0.4300   -7.56890
  0.4320   -7.44179
  0.4340   -7.31459
  0.4360   -7.19094
  0.4380   -7.06642
  0.4400   -6.95969
  0.4420   -6.86196
  0.4440   -6.77149
  0.4460   -6.68786
  0.4480   -6.61112
  0.4500   -6.53923
  0.4520   -6.47098
  0.4540   -6.40431
  0.4560   -6.33861
  0.4580   -6.27410
  0.4600   -6.20324
  0.4620   -6.12111
  0.4640   -6.03258
  0.4660   -5.94194
  0.4680   -5.84007
  0.4700   -5.73297
  0.4720   -5.61558
  0.4740   -5.49581
  0.4760   -5.38148
  0.4780   -5.26965
  0.4800   -5.16183
  0.4820   -5.06240
  0.4840   -4.97326
  0.4860   -4.89868
  0.4880   -4.83445
  0.4900   -4.78391
  0.4920   -4.73753
  0.4940   -4.69177
  0.4960   -4.64749
  0.4980   -4.60200
  0.5000   -4.55926
  0.5020   -4.50564
  0.5040   -4.44981
  0.5060   -4.38609
  0.5080   -4.31978
  0.5100   -4.25131
  0.5120   -4.18190
  0.5140   -4.12033
  0.5160   -4.06498
  0.5180   -4.01633
  0.5200   -3.96462
  0.5220   -3.91515
  0.5240   -3.86284
  0.5260   -3.81343
  0.5280   -3.75798
  0.5300   -3.69716
  0.5320   -3.63727
  0.5340   -3.57438
  0.5360   -3.50618
  0.5380   -3.43713
  0.5400   -3.37306
  0.5420   -3.29585
  0.5440   -3.21281
  0.5460   -3.11125
  0.5480   -3.00771
  0.5500   -2.88953
  0.5520   -2.75616
  0.5540   -2.60424
  0.5560   -2.44783
  0.5580   -2.27550
  0.5600   -2.09698
  0.5620   -1.90978
  0.5640   -1.72966
  0.5660   -1.55585
  0.5680   -1.38867
  0.5700   -1.23994
  0.5720   -1.10429
  0.5740   -0.97886
  0.5760   -0.85744
  0.5780   -0.73314
  0.5800   -0.60758
  0.5820   -0.47174
  0.5840   -0.32411
  0.5860   -0.16872
  0.5880    0.00159
  0.5900    0.16772
  0.5920    0.33634
  0.5940    0.49794
  0.5960    0.65238
  0.5980    0.78798
  0.6000    0.90180
  0.6020    0.99208
  0.6040    1.06228
  0.6060    1.11421
  0.6080    1.15032
  0.6100    1.16280
  0.6120    1.17606
  0.6140    1.17410
  0.6160    1.17248
  0.6180    1.16044
  0.6200    1.14447
  0.6220    1.12600
  0.6240    1.10464
  0.6260    1.08043
  0.6280    1.05630
  0.6300    1.02560
  0.6320    1.00626
  0.6340    0.97949
  0.6360    0.96083
  0.6380    0.94123
  0.6400    0.91867
  0.6420    0.89197
  0.6440    0.86132
  0.6460    0.81299
  0.6480    0.77312
  0.6500    0.71365
  0.6520    0.64797
  0.6540    0.58360
  0.6560    0.51535
  0.6580    0.44767
  0.6600    0.38565
  0.6620    0.32628
  0.6640    0.27923
  0.6660    0.23871
  0.6680    0.21161
  0.6700    0.19811
  0.6720    0.18863
  0.6740    0.17750
  0.6760    0.16535
  0.6780    0.15064
  0.6800    0.13735
  0.6820    0.11029
  0.6840    0.07736
  0.6860    0.03786
  0.6880   -0.00791
  0.6900   -0.06184
  0.6920   -0.11721
  0.6940   -0.16910
  0.6960   -0.22228
  0.6980   -0.26232
  0.7000   -0.29235
  0.7020   -0.31704
  0.7040   -0.33141
  0.7060   -0.33742
  0.7080   -0.34838
  0.7100   -0.35580
  0.7120   -0.36884
  0.7140   -0.39233
  0.7160   -0.41516
  0.7180   -0.44243
  0.7200   -0.47680
  0.7220   -0.50725
  0.7240   -0.53653
  0.7260   -0.56670
  0.7280   -0.59373
  0.7300   -0.61445
  0.7320   -0.63133
  0.7340   -0.64746
  0.7360   -0.65410
  0.7380   -0.65791
  0.7400   -0.66781
  0.7420   -0.66950
  0.7440   -0.67147
  0.7460   -0.66512
  0.7480   -0.65935
  0.7500   -0.64740
  0.7520   -0.64189
  0.7540   -0.63889
  0.7560   -0.63994
  0.7580   -0.64352
  0.7600   -0.64892
  0.7620   -0.65862
  0.7640   -0.66539
  0.7660   -0.67083
  0.7680   -0.67285
  0.7700   -0.66676
  0.7720   -0.65867
  0.7740   -0.64809
  0.7760   -0.62361
  0.7780   -0.59893
  0.7800   -0.56823
  0.7820   -0.54037
  0.7840   -0.51103
  0.7860   -0.49184
  0.7880   -0.47760
  0.7900   -0.46587
  0.7920   -0.46739
  0.7940   -0.46896
  0.7960   -0.47417
  0.7980   -0.47538
  0.8000   -0.48214
  0.8020   -0.48308
  0.8040   -0.48583
  0.8060   -0.48353
  0.8080   -0.46996
  0.8100   -0.45280
  0.8120   -0.43691
  0.8140   -0.41944
  0.8160   -0.39839
  0.8180   -0.38301
  0.8200   -0.36898
  0.8220   -0.35773
  0.8240   -0.34639
  0.8260   -0.33682
  0.8280   -0.33432
  0.8300   -0.33269
  0.8320   -0.32645
  0.8340   -0.31944
  0.8360   -0.31065
  0.8380   -0.31158
  0.8400   -0.29131
  0.8420   -0.28003
  0.8440   -0.26719
  0.8460   -0.24755
  0.8480   -0.22555
  0.8500   -0.20772
  0.8520   -0.19056
  0.8540   -0.18717
  0.8560   -0.19017
  0.8580   -0.20326
  0.8600   -0.21556
  0.8620   -0.23141
  0.8640   -0.23907
  0.8660   -0.24233
  0.8680   -0.23064
  0.8700   -0.21569
  0.8720   -0.19090
  0.8740   -0.14967
  0.8760   -0.10711
  0.8780   -0.06341
  0.8800   -0.02206
  0.8820    0.01342
  0.8840    0.04502
  0.8860    0.07419
  0.8880    0.07630
  0.8900    0.07509
  0.8920    0.06777
  0.8940    0.06527
  0.8960    0.06476
  0.8980    0.06391
  0.9000    0.06656
  0.9020    0.06929
  0.9040    0.07940
  0.9060    0.08706
  0.9080    0.09249
  0.9100    0.10190
  0.9120    0.10696
  0.9140    0.11573
  0.9160    0.12263
  0.9180    0.12289
  0.9200    0.12544
  0.9220    0.13266
  0.9240    0.13417
  0.9260    0.14209
  0.9280    0.14367
  0.9300    0.14806
  0.9320    0.14364
  0.9340    0.13923
  0.9360    0.12780
  0.9380    0.11072
  0.9400    0.09513
  0.9420    0.07402
  0.9440    0.05274
  0.9460    0.03503
  0.9480    0.02555
  0.9500    0.01537
  0.9520    0.01357
  0.9540    0.01632
  0.9560    0.01852
  0.9580    0.02021
  0.9600    0.02350
  0.9620    0.01969
  0.9640    0.01200
  0.9660   -0.00005
  0.9680   -0.02196
  0.9700   -0.04713
  0.9720   -0.06990
  0.9740   -0.10270
  0.9760   -0.12841
  0.9780   -0.15974
  0.9800   -0.17764
  0.9820   -0.19430
  0.9840   -0.20330
  0.9860   -0.20623
  0.9880   -0.20507
  0.9900   -0.19734
  0.9920   -0.19481
  0.9940   -0.19243
  0.9960   -0.18931
  0.9980   -0.18722
  1.0000   -0.18999
