# z (nm)   (kJ/mol)
  0.1180  270.81570
  0.1200  268.54678
  0.1220  266.31335
  0.1240  263.72203
  0.1260  261.09924
  0.1280  258.76754
  0.1300  256.42471
  0.1320  254.01376
  0.1340  251.56950
  0.1360  249.08066
  0.1380  246.51890
  0.1400  243.89027
  0.1420  241.15850
  0.1440  238.33916
  0.1460  235.41379
  0.1480  232.38097
  0.1500  229.22978
  0.1520  225.97028
  0.1540  222.59657
  0.1560  219.10644
  0.1580  215.50057
  0.1600  211.78515
  0.1620  207.96702
  0.1640  204.05350
  0.1660  200.07574
  0.1680  196.05223
  0.1700  191.99836
  0.1720  187.93803
  0.1740  183.88563
  0.1760  179.85279
  0.1780  175.85001
  0.1800  171.88631
  0.1820  167.97203
  0.1840  164.13849
  0.1860  160.40915
  0.1880  156.80693
  0.1900  153.33654
  0.1920  149.98881
  0.1940  146.72763
  0.1960  143.50013
  0.1980  140.26582
  0.2000  137.00871
  0.2020  133.73949
  0.2040  130.48655
  0.2060  127.28356
  0.2080  124.17176
  0.2100  121.15991
  0.2120  118.23622
  0.2140  115.38205
  0.2160  112.56135
  0.2180  109.75356
  0.2200  106.94075
  0.2220  104.12307
  0.2240  101.29076
  0.2260   98.45689
  0.2280   95.62699
  0.2300   92.81793
  0.2320   90.04345
  0.2340   87.33598
  0.2360   84.70689
  0.2380   82.17115
  0.2400   79.71872
  0.2420   77.34046
  0.2440   75.00970
  0.2460   72.71245
  0.2480   70.45030
  0.2500   68.20401
  0.2520   65.97970
  0.2540   63.77904
  0.2560   61.61438
  0.2580   59.49988
  0.2600   57.44414
  0.2620   55.46521
  0.2640   53.57423
  0.2660   51.76837
  0.2680   50.01333
  0.2700   48.27202
  0.2720   46.52990
  0.2740   44.76855
  0.2760   43.00829
  0.2780   41.26511
  0.2800   39.59170
  0.2820   37.99575
  0.2840   36.48736
  0.2860   35.04274
  0.2880   33.62019
  0.2900   32.21829
  0.2920   30.82590
  0.2940   29.45603
  0.2960   28.11790
  0.2980   26.80717
  0.3000   25.52027
  0.3020   24.25514
  0.3040   23.02294
  0.3060   21.82570
  0.3080   20.67804
  0.3100   19.58024
  0.3120   18.53998
  0.3140   17.54817
  0.3160   16.58425
  0.3180   15.63292
  0.3200   14.68768
  0.3220   13.72702
  0.3240   12.75202
  0.3260   11.78618
  0.3280   10.85253
  0.3300    9.95817
  0.3320    9.12047
  0.3340    8.33017
  0.3360    7.58427
  0.3380    6.87893
  0.3400    6.18867
  0.3420    5.49700
  0.3440    4.80103
  0.3460    4.09481
  0.3480    3.39523
  0.3500    2.72165
  0.3520    2.07897
  0.3540    1.47013
  0.3560    0.89697
  0.3580    0.35195
  0.3600   -0.16594
  0.3620   -0.66547
  0.3640   -1.16093
  0.3660   -1.63416
  0.3680   -2.08528
  0.3700   -2.51471
  0.3720   -2.90957
  0.3740   -3.26322
  0.3760   -3.58007
  0.3780   -3.85902
  0.3800   -4.10452
  0.3820   -4.32716
  0.3840   -4.52979
  0.3860   -4.74065
  0.3880   -4.94950
  0.3900   -5.15990
  0.3920   -5.36180
  0.3940   -5.54389
  0.3960   -5.70453
  0.3980   -5.83387
  0.4000   -5.93430
  0.4020   -6.01773
  0.4040   -6.09766
  0.4060   -6.16910
  0.4080   -6.24652
  0.4100   -6.32253
  0.4120   -6.39573
  0.4140   -6.45398
  0.4160   -6.50886
  0.4180   -6.54244
  0.4200   -6.55650
  0.4220   -6.56582
  0.4240   -6.56779
  0.4260   -6.57075
  0.4280   -6.57442
  0.4300   -6.59701
  0.4320   -6.62143
  0.4340   -6.64656
  0.4360   -6.67521
  0.4380   -6.69574
  0.4400   -6.69998
  0.4420   -6.70647
  0.4440   -6.69917
  0.4460   -6.68263
  0.4480   -6.66624
  0.4500   -6.65795
  0.4520   -6.65445
  0.4540   -6.65740
  0.4560   -6.67260
  0.4580   -6.68094
  0.4600   -6.69132
  0.4620   -6.67529
  0.4640   -6.63654
  0.4660   -6.57971
  0.4680   -6.50577
  0.4700   -6.42220
  0.4720   -6.33910
  0.4740   -6.26143
  0.4760   -6.19096
  0.4780   -6.12241
  0.4800   -6.06769
  0.4820   -6.00781
  0.4840   -5.95710
  0.4860   -5.90976
  0.4880   -5.85826
  0.4900   -5.80865
  0.4920   -5.76255
  0.4940   -5.70727
  0.4960   -5.65456
  0.4980   -5.60519
  0.5000   -5.56612
  0.5020   -5.53968
  0.5040   -5.52884
  0.5060   -5.53565
  0.5080   -5.55476
  0.5100   -5.58192
  0.5120   -5.61817
  0.5140   -5.66435
  0.5160   -5.71589
  0.5180   -5.76237
  0.5200   -5.80619
  0.5220   -5.84613
  0.5240   -5.86423
  0.5260   -5.87477
  0.5280   -5.86222
  0.5300   -5.84239
  0.5320   -5.80846
  0.5340   -5.76042
  0.5360   -5.71872
  0.5380   -5.68716
  0.5400   -5.67120
  0.5420   -5.66128
  0.5440   -5.66423
  0.5460   -5.66749
  0.5480   -5.66961
  0.5500   -5.65983
  0.5520   -5.63631
  0.5540   -5.59377
  0.5560   -5.53404
  0.5580   -5.46858
  0.5600   -5.37489
  0.5620   -5.27334
  0.5640   -5.16371
  0.5660   -5.04630
  0.5680   -4.93092
  0.5700   -4.82207
  0.5720   -4.71794
  0.5740   -4.61761
  0.5760   -4.52981
  0.5780   -4.44308
  0.5800   -4.35792
  0.5820   -4.26342
  0.5840   -4.15804
  0.5860   -4.03120
  0.5880   -3.89247
  0.5900   -3.73816
  0.5920   -3.57040
  0.5940   -3.38712
  0.5960   -3.18913
  0.5980   -2.99548
  0.6000   -2.80801
  0.6020   -2.63698
  0.6040   -2.48527
  0.6060   -2.35650
  0.6080   -2.24204
  0.6100   -2.13425
  0.6120   -2.03497
  0.6140   -1.93240
  0.6160   -1.82893
  0.6180   -1.73146
  0.6200   -1.63267
  0.6220   -1.54925
  0.6240   -1.49037
  0.6260   -1.43755
  0.6280   -1.39111
  0.6300   -1.34344
  0.6320   -1.29482
  0.6340   -1.23597
  0.6360   -1.15796
  0.6380   -1.06952
  0.6400   -0.97261
  0.6420   -0.87946
  0.6440   -0.80553
  0.6460   -0.75506
  0.6480   -0.73348
  0.6500   -0.73791
  0.6520   -0.76032
  0.6540   -0.79159
  0.6560   -0.83029
  0.6580   -0.84646
  0.6600   -0.85726
  0.6620   -0.83968
  0.6640   -0.80318
  0.6660   -0.75334
  0.6680   -0.71156
  0.6700   -0.67999
  0.6720   -0.64042
  0.6740   -0.60953
  0.6760   -0.58757
  0.6780   -0.56240
  0.6800   -0.54912
  0.6820   -0.52525
  0.6840   -0.50229
  0.6860   -0.48023
  0.6880   -0.45714
  0.6900   -0.43002
  0.6920   -0.39464
  0.6940   -0.38392
  0.6960   -0.37360
  0.6980   -0.37403
  0.7000   -0.38248
  0.7020   -0.39567
  0.7040   -0.41517
  0.7060   -0.42697
  0.7080   -0.42682
  0.7100   -0.41876
  0.7120   -0.39683
  0.7140   -0.36721
  0.7160   -0.33963
  0.7180   -0.30488
  0.7200   -0.26915
  0.7220   -0.24157
  0.7240   -0.21991
  0.7260   -0.20459
  0.7280   -0.19766
  0.7300   -0.19799
  0.7320   -0.19856
  0.7340   -0.19169
  0.7360   -0.18037
  0.7380   -0.15990
  0.7400   -0.13475
  0.7420   -0.11119
  0.7440   -0.08867
  0.7460   -0.07185
  0.7480   -0.06416
  0.7500   -0.07671
  0.7520   -0.09580
  0.7540   -0.12550
  0.7560   -0.15094
  0.7580   -0.17851
  0.7600   -0.19977
  0.7620   -0.21386
  0.7640   -0.22328
  0.7660   -0.22052
  0.7680   -0.21794
  0.7700   -0.21359
  0.7720   -0.20612
  0.7740   -0.19606
  0.7760   -0.19010
  0.7780   -0.18834
  0.7800   -0.18409
  0.7820   -0.17248
  0.7840   -0.15752
  0.7860   -0.14015
  0.7880   -0.12600
  0.7900   -0.10986
  0.7920   -0.10181
  0.7940   -0.11283
  0.7960   -0.13603
  0.7980   -0.17534
  0.8000   -0.22403
  0.8020   -0.28735
  0.8040   -0.34566
  0.8060   -0.39711
  0.8080   -0.43220
  0.8100   -0.43724
  0.8120   -0.41097
  0.8140   -0.35516
  0.8160   -0.28791
  0.8180   -0.21936
  0.8200   -0.16573
  0.8220   -0.15056
  0.8240   -0.18477
  0.8260   -0.27163
  0.8280   -0.39810
  0.8300   -0.53505
  0.8320   -0.64220
  0.8340   -0.68845
  0.8360   -0.66849
  0.8380   -0.59259
  0.8400   -0.49489
  0.8420   -0.41060
  0.8440   -0.35776
  0.8460   -0.34775
  0.8480   -0.37067
  0.8500   -0.41826
  0.8520   -0.47827
  0.8540   -0.53744
  0.8560   -0.59027
  0.8580   -0.63331
  0.8600   -0.65093
  0.8620   -0.65194
  0.8640   -0.63790
  0.8660   -0.61240
  0.8680   -0.57802
  0.8700   -0.54405
  0.8720   -0.51052
  0.8740   -0.47544
  0.8760   -0.45244
  0.8780   -0.44046
  0.8800   -0.43554
  0.8820   -0.44007
  0.8840   -0.44621
  0.8860   -0.45279
  0.8880   -0.45514
  0.8900   -0.45270
  0.8920   -0.43352
  0.8940   -0.40429
  0.8960   -0.35848
  0.8980   -0.30866
  0.9000   -0.24668
  0.9020   -0.18443
  0.9040   -0.12932
  0.9060   -0.08881
  0.9080   -0.07358
  0.9100   -0.08015
  0.9120   -0.10902
  0.9140   -0.14639
  0.9160   -0.19604
  0.9180   -0.23116
  0.9200   -0.25854
  0.9220   -0.26211
  0.9240   -0.24900
  0.9260   -0.20973
  0.9280   -0.16664
  0.9300   -0.12100
  0.9320   -0.08282
  0.9340   -0.04934
  0.9360   -0.03329
  0.9380   -0.02654
  0.9400   -0.03079
  0.9420   -0.04416
  0.9440   -0.05643
  0.9460   -0.07315
  0.9480   -0.08080
  0.9500   -0.07783
  0.9520   -0.07778
  0.9540   -0.07087
  0.9560   -0.05276
  0.9580   -0.03081
  0.9600   -0.00091
  0.9620    0.04853
  0.9640    0.08457
  0.9660    0.11660
  0.9680    0.13497
  0.9700    0.14211
  0.9720    0.13809
  0.9740    0.11994
  0.9760    0.09045
  0.9780    0.06333
  0.9800    0.03699
  0.9820    0.02269
  0.9840    0.03721
  0.9860    0.06516
  0.9880    0.11744
  0.9900    0.18516
  0.9920    0.26141
  0.9940    0.33811
  0.9960    0.39713
  0.9980    0.43693
  1.0000    0.45738
