# z (nm)   (kJ/mol)
  0.108000,280.190730
  0.110000,277.676450
  0.112000,275.198170
  0.114000,276.926090
  0.116000,274.321810
  0.118000,271.737130
  0.120000,268.936280
  0.122000,266.233450
  0.124000,263.500650
  0.126000,260.730530
  0.128000,258.016300
  0.130000,255.193390
  0.132000,252.330180
  0.134000,249.439250
  0.136000,246.465690
  0.138000,243.413120
  0.140000,240.253610
  0.142000,236.986730
  0.144000,233.603150
  0.146000,230.104060
  0.148000,226.485920
  0.150000,222.759110
  0.152000,218.927300
  0.154000,215.009760
  0.156000,211.023150
  0.158000,206.989820
  0.160000,202.927470
  0.162000,198.863860
  0.164000,194.813660
  0.166000,190.792580
  0.168000,186.798680
  0.170000,182.845530
  0.172000,178.926290
  0.174000,175.032250
  0.176000,171.147140
  0.178000,167.270720
  0.180000,163.392200
  0.182000,159.508050
  0.184000,155.623680
  0.186000,151.753740
  0.188000,147.922240
  0.190000,144.153310
  0.192000,140.475940
  0.194000,136.912710
  0.196000,133.476440
  0.198000,130.167120
  0.200000,126.979170
  0.202000,123.889300
  0.204000,120.879950
  0.206000,117.919840
  0.208000,114.989960
  0.210000,112.077420
  0.212000,109.175310
  0.214000,106.281530
  0.216000,103.397060
  0.218000,100.524540
  0.220000, 97.670410
  0.222000, 94.840460
  0.224000, 92.041420
  0.226000, 89.284470
  0.228000, 86.578360
  0.230000, 83.923960
  0.232000, 81.317740
  0.234000, 78.765800
  0.236000, 76.263100
  0.238000, 73.796950
  0.240000, 71.360640
  0.242000, 68.953350
  0.244000, 66.568780
  0.246000, 64.216010
  0.248000, 61.893500
  0.250000, 59.595380
  0.252000, 57.331980
  0.254000, 55.101250
  0.256000, 52.894700
  0.258000, 50.727710
  0.260000, 48.595530
  0.262000, 46.508530
  0.264000, 44.458220
  0.266000, 42.452620
  0.268000, 40.493730
  0.270000, 38.577390
  0.272000, 36.717610
  0.274000, 34.916040
  0.276000, 33.173700
  0.278000, 31.490320
  0.280000, 29.857180
  0.282000, 28.268160
  0.284000, 26.712850
  0.286000, 25.176610
  0.288000, 23.651230
  0.290000, 22.147270
  0.292000, 20.647920
  0.294000, 19.171130
  0.296000, 17.729310
  0.298000, 16.338340
  0.300000, 15.014030
  0.302000, 13.765360
  0.304000, 12.580510
  0.306000, 11.458710
  0.308000, 10.389780
  0.310000,  9.355750
  0.312000,  8.343620
  0.314000,  7.343100
  0.316000,  6.353550
  0.318000,  5.365660
  0.320000,  4.397540
  0.322000,  3.448580
  0.324000,  2.535440
  0.326000,  1.676700
  0.328000,  0.856550
  0.330000,  0.089750
  0.332000, -0.624250
  0.334000, -1.284890
  0.336000, -1.902730
  0.338000, -2.490310
  0.340000, -3.059950
  0.342000, -3.613370
  0.344000, -4.145310
  0.346000, -4.661440
  0.348000, -5.168900
  0.350000, -5.648750
  0.352000, -6.107660
  0.354000, -6.531890
  0.356000, -6.929090
  0.358000, -7.289470
  0.360000, -7.617160
  0.362000, -7.914590
  0.364000, -8.179500
  0.366000, -8.430750
  0.368000, -8.648540
  0.370000, -8.848530
  0.372000, -9.017880
  0.374000, -9.169140
  0.376000, -9.301240
  0.378000, -9.417620
  0.380000, -9.521660
  0.382000, -9.613910
  0.384000, -9.689050
  0.386000, -9.764540
  0.388000, -9.833000
  0.390000, -9.891040
  0.392000, -9.944840
  0.394000, -9.987500
  0.396000,-10.025090
  0.398000,-10.048520
  0.400000,-10.064060
  0.402000,-10.067600
  0.404000,-10.048420
  0.406000,-10.024450
  0.408000, -9.982170
  0.410000, -9.935830
  0.412000, -9.880570
  0.414000, -9.813940
  0.416000, -9.740730
  0.418000, -9.658930
  0.420000, -9.575340
  0.422000, -9.494780
  0.424000, -9.409460
  0.426000, -9.311540
  0.428000, -9.206240
  0.430000, -9.105600
  0.432000, -8.999620
  0.434000, -8.879820
  0.436000, -8.757260
  0.438000, -8.627420
  0.440000, -8.484660
  0.442000, -8.338540
  0.444000, -8.195890
  0.446000, -8.051260
  0.448000, -7.906930
  0.450000, -7.770810
  0.452000, -7.642320
  0.454000, -7.516460
  0.456000, -7.393450
  0.458000, -7.271680
  0.460000, -7.146590
  0.462000, -7.016770
  0.464000, -6.876960
  0.466000, -6.734000
  0.468000, -6.592430
  0.470000, -6.441810
  0.472000, -6.289490
  0.474000, -6.136340
  0.476000, -5.978020
  0.478000, -5.820160
  0.480000, -5.656410
  0.482000, -5.492050
  0.484000, -5.327410
  0.486000, -5.157190
  0.488000, -4.983540
  0.490000, -4.810050
  0.492000, -4.634080
  0.494000, -4.455310
  0.496000, -4.270490
  0.498000, -4.088050
  0.500000, -3.905030
  0.502000, -3.711600
  0.504000, -3.518360
  0.506000, -3.319070
  0.508000, -3.116800
  0.510000, -2.915990
  0.512000, -2.715470
  0.514000, -2.513560
  0.516000, -2.310960
  0.518000, -2.110210
  0.520000, -1.912310
  0.522000, -1.716790
  0.524000, -1.528710
  0.526000, -1.337560
  0.528000, -1.151720
  0.530000, -0.969830
  0.532000, -0.791100
  0.534000, -0.614520
  0.536000, -0.441550
  0.538000, -0.270470
  0.540000, -0.104160
  0.542000,  0.061670
  0.544000,  0.223560
  0.546000,  0.378210
  0.548000,  0.525210
  0.550000,  0.667920
  0.552000,  0.810010
  0.554000,  0.942310
  0.556000,  1.072020
  0.558000,  1.195080
  0.560000,  1.319410
  0.562000,  1.433770
  0.564000,  1.546040
  0.566000,  1.656480
  0.568000,  1.774500
  0.570000,  1.887890
  0.572000,  1.992370
  0.574000,  2.090870
  0.576000,  2.189540
  0.578000,  2.277750
  0.580000,  2.358500
  0.582000,  2.438870
  0.584000,  2.508480
  0.586000,  2.568310
  0.588000,  2.629600
  0.590000,  2.686090
  0.592000,  2.739780
  0.594000,  2.797350
  0.596000,  2.845800
  0.598000,  2.897570
  0.600000,  2.953000
  0.602000,  2.990800
  0.604000,  3.018590
  0.606000,  3.040680
  0.608000,  3.048820
  0.610000,  3.040480
  0.612000,  3.022290
  0.614000,  2.988940
  0.616000,  2.939970
  0.618000,  2.881220
  0.620000,  2.821280
  0.622000,  2.753690
  0.624000,  2.685340
  0.626000,  2.623430
  0.628000,  2.565920
  0.630000,  2.511640
  0.632000,  2.460070
  0.634000,  2.412750
  0.636000,  2.355200
  0.638000,  2.293010
  0.640000,  2.223850
  0.642000,  2.143400
  0.644000,  2.053060
  0.646000,  1.954380
  0.648000,  1.855950
  0.650000,  1.749570
  0.652000,  1.640930
  0.654000,  1.532950
  0.656000,  1.418540
  0.658000,  1.306900
  0.660000,  1.197680
  0.662000,  1.090480
  0.664000,  0.987650
  0.666000,  0.887120
  0.668000,  0.785770
  0.670000,  0.693930
  0.672000,  0.607360
  0.674000,  0.520830
  0.676000,  0.430720
  0.678000,  0.343400
  0.680000,  0.259800
  0.682000,  0.167080
  0.684000,  0.080890
  0.686000, -0.014950
  0.688000, -0.114260
  0.690000, -0.207150
  0.692000, -0.308370
  0.694000, -0.414000
  0.696000, -0.509360
  0.698000, -0.603330
  0.700000, -0.690480
  0.702000, -0.772850
  0.704000, -0.850910
  0.706000, -0.919920
  0.708000, -0.976910
  0.710000, -1.028910
  0.712000, -1.066380
  0.714000, -1.102000
  0.716000, -1.137870
  0.718000, -1.167950
  0.720000, -1.188380
  0.722000, -1.208460
  0.724000, -1.231240
  0.726000, -1.242270
  0.728000, -1.262690
  0.730000, -1.282850
  0.732000, -1.304910
  0.734000, -1.327310
  0.736000, -1.361200
  0.738000, -1.392090
  0.740000, -1.426020
  0.742000, -1.455190
  0.744000, -1.477840
  0.746000, -1.490130
  0.748000, -1.499610
  0.750000, -1.504610
  0.752000, -1.499740
  0.754000, -1.484040
  0.756000, -1.461430
  0.758000, -1.432950
  0.760000, -1.409330
  0.762000, -1.382580
  0.764000, -1.360400
  0.766000, -1.338590
  0.768000, -1.324290
  0.770000, -1.323700
  0.772000, -1.323270
  0.774000, -1.326920
  0.776000, -1.335070
  0.778000, -1.345380
  0.780000, -1.352850
  0.782000, -1.356880
  0.784000, -1.355660
  0.786000, -1.350880
  0.788000, -1.346760
  0.790000, -1.333250
  0.792000, -1.315510
  0.794000, -1.288470
  0.796000, -1.260700
  0.798000, -1.226240
  0.800000, -1.188350
  0.802000, -1.142690
  0.804000, -1.100330
  0.806000, -1.051030
  0.808000, -0.996340
  0.810000, -0.943470
  0.812000, -0.894230
  0.814000, -0.845240
  0.816000, -0.795850
  0.818000, -0.754730
  0.820000, -0.717420
  0.822000, -0.684930
  0.824000, -0.652280
  0.826000, -0.628580
  0.828000, -0.593970
  0.830000, -0.572950
  0.832000, -0.544310
  0.834000, -0.518560
  0.836000, -0.488060
  0.838000, -0.449460
  0.840000, -0.415230
  0.842000, -0.377790
  0.844000, -0.342730
  0.846000, -0.311910
  0.848000, -0.276640
  0.850000, -0.240390
  0.852000, -0.210220
  0.854000, -0.177750
  0.856000, -0.148510
  0.858000, -0.121640
  0.860000, -0.098350
  0.862000, -0.072180
  0.864000, -0.047150
  0.866000, -0.024050
  0.868000, -0.002120
  0.870000,  0.022870
  0.872000,  0.044300
  0.874000,  0.063910
  0.876000,  0.083700
  0.878000,  0.104990
  0.880000,  0.124830
  0.882000,  0.144200
  0.884000,  0.164650
  0.886000,  0.180040
  0.888000,  0.198810
  0.890000,  0.209300
  0.892000,  0.223050
  0.894000,  0.229320
  0.896000,  0.233300
  0.898000,  0.233790
  0.900000,  0.235150
  0.902000,  0.234630
  0.904000,  0.236860
  0.906000,  0.241330
  0.908000,  0.243140
  0.910000,  0.252390
  0.912000,  0.257950
  0.914000,  0.265260
  0.916000,  0.273840
  0.918000,  0.285180
  0.920000,  0.293740
  0.922000,  0.299240
  0.924000,  0.297550
  0.926000,  0.296070
  0.928000,  0.288360
  0.930000,  0.273390
  0.932000,  0.261100
  0.934000,  0.244800
  0.936000,  0.224260
  0.938000,  0.205240
  0.940000,  0.179860
  0.942000,  0.154200
  0.944000,  0.125420
  0.946000,  0.095180
  0.948000,  0.061130
  0.950000,  0.024590
  0.952000, -0.006920
  0.954000, -0.041260
  0.956000, -0.071660
  0.958000, -0.103170
  0.960000, -0.125470
  0.962000, -0.152170
  0.964000, -0.163230
  0.966000, -0.174100
  0.968000, -0.180500
  0.970000, -0.187270
  0.972000, -0.189820
  0.974000, -0.189220
  0.976000, -0.190020
  0.978000, -0.193730
  0.980000, -0.198290
  0.982000, -0.208670
  0.984000, -0.224020
  0.986000, -0.246580
  0.988000, -0.276810
  0.990000, -0.311300
  0.992000, -0.353880
  0.994000, -0.392610
  0.996000, -0.433730
  0.998000, -0.477500
  1.000000, -0.522800
