# z (nm)   (kJ/mol)
  0.090000,270.455310
  0.092000,267.758150
  0.094000,264.993120
  0.096000,262.191070
  0.098000,259.442800
  0.100000,256.678080
  0.102000,253.899830
  0.104000,251.066900
  0.106000,248.180750
  0.108000,245.247880
  0.110000,242.257790
  0.112000,239.191340
  0.114000,236.047270
  0.116000,232.815040
  0.118000,229.490240
  0.120000,226.065280
  0.122000,222.535090
  0.124000,218.897440
  0.126000,215.150510
  0.128000,211.300430
  0.130000,207.347410
  0.132000,203.297160
  0.134000,199.166890
  0.136000,194.975780
  0.138000,190.734780
  0.140000,186.475870
  0.142000,182.212200
  0.144000,177.962370
  0.146000,173.734830
  0.148000,169.540000
  0.150000,165.381720
  0.152000,161.263450
  0.154000,157.182310
  0.156000,153.167810
  0.158000,149.230120
  0.160000,145.390770
  0.162000,141.673910
  0.164000,138.086870
  0.166000,134.631240
  0.168000,131.291230
  0.170000,128.050010
  0.172000,124.883600
  0.174000,121.760240
  0.176000,118.669900
  0.178000,115.586630
  0.180000,112.506950
  0.182000,109.429520
  0.184000,106.351430
  0.186000,103.281120
  0.188000,100.213970
  0.190000, 97.166130
  0.192000, 94.150080
  0.194000, 91.171160
  0.196000, 88.247490
  0.198000, 85.381870
  0.200000, 82.572630
  0.202000, 79.821860
  0.204000, 77.112460
  0.206000, 74.436090
  0.208000, 71.785310
  0.210000, 69.151890
  0.212000, 66.548150
  0.214000, 63.987170
  0.216000, 61.480880
  0.218000, 59.038620
  0.220000, 56.673650
  0.222000, 54.371650
  0.224000, 52.125390
  0.226000, 49.926530
  0.228000, 47.765080
  0.230000, 45.626390
  0.232000, 43.512730
  0.234000, 41.426920
  0.236000, 39.386670
  0.238000, 37.401120
  0.240000, 35.483340
  0.242000, 33.632770
  0.244000, 31.847000
  0.246000, 30.124320
  0.248000, 28.439730
  0.250000, 26.782280
  0.252000, 25.146910
  0.254000, 23.527650
  0.256000, 21.927150
  0.258000, 20.347530
  0.260000, 18.819570
  0.262000, 17.336150
  0.264000, 15.923250
  0.266000, 14.580250
  0.268000, 13.304660
  0.270000, 12.096550
  0.272000, 10.949580
  0.274000,  9.845890
  0.276000,  8.778520
  0.278000,  7.732150
  0.280000,  6.703910
  0.282000,  5.697630
  0.284000,  4.712770
  0.286000,  3.745900
  0.288000,  2.804980
  0.290000,  1.903430
  0.292000,  1.050100
  0.294000,  0.238460
  0.296000, -0.512530
  0.298000, -1.225630
  0.300000, -1.889030
  0.302000, -2.520390
  0.304000, -3.114390
  0.306000, -3.692960
  0.308000, -4.247420
  0.310000, -4.784520
  0.312000, -5.300410
  0.314000, -5.794790
  0.316000, -6.257620
  0.318000, -6.689190
  0.320000, -7.085030
  0.322000, -7.451080
  0.324000, -7.783520
  0.326000, -8.081420
  0.328000, -8.352460
  0.330000, -8.595160
  0.332000, -8.822680
  0.334000, -9.032860
  0.336000, -9.230460
  0.338000, -9.412410
  0.340000, -9.585790
  0.342000, -9.749810
  0.344000, -9.899670
  0.346000,-10.030110
  0.348000,-10.146380
  0.350000,-10.252310
  0.352000,-10.329200
  0.354000,-10.389840
  0.356000,-10.421280
  0.358000,-10.447340
  0.360000,-10.467050
  0.362000,-10.480450
  0.364000,-10.480030
  0.366000,-10.481200
  0.368000,-10.476080
  0.370000,-10.461410
  0.372000,-10.442900
  0.374000,-10.421590
  0.376000,-10.383390
  0.378000,-10.343050
  0.380000,-10.300280
  0.382000,-10.254660
  0.384000,-10.209050
  0.386000,-10.157240
  0.388000,-10.102350
  0.390000,-10.045880
  0.392000, -9.983200
  0.394000, -9.910130
  0.396000, -9.819840
  0.398000, -9.725960
  0.400000, -9.614300
  0.402000, -9.489380
  0.404000, -9.353590
  0.406000, -9.218850
  0.408000, -9.082920
  0.410000, -8.952680
  0.412000, -8.831630
  0.414000, -8.719860
  0.416000, -8.619030
  0.418000, -8.522220
  0.420000, -8.424870
  0.422000, -8.325350
  0.424000, -8.207900
  0.426000, -8.080880
  0.428000, -7.936970
  0.430000, -7.776090
  0.432000, -7.599640
  0.434000, -7.420500
  0.436000, -7.238820
  0.438000, -7.062550
  0.440000, -6.898510
  0.442000, -6.741240
  0.444000, -6.606040
  0.446000, -6.487090
  0.448000, -6.380850
  0.450000, -6.295230
  0.452000, -6.207940
  0.454000, -6.121310
  0.456000, -6.031960
  0.458000, -5.928650
  0.460000, -5.814280
  0.462000, -5.682750
  0.464000, -5.546200
  0.466000, -5.394220
  0.468000, -5.250640
  0.470000, -5.113440
  0.472000, -4.983980
  0.474000, -4.875760
  0.476000, -4.774960
  0.478000, -4.691770
  0.480000, -4.610050
  0.482000, -4.535090
  0.484000, -4.463200
  0.486000, -4.386460
  0.488000, -4.313560
  0.490000, -4.236390
  0.492000, -4.158490
  0.494000, -4.074020
  0.496000, -3.992620
  0.498000, -3.917740
  0.500000, -3.848100
  0.502000, -3.773030
  0.504000, -3.698090
  0.506000, -3.620670
  0.508000, -3.536290
  0.510000, -3.455570
  0.512000, -3.374500
  0.514000, -3.289410
  0.516000, -3.204530
  0.518000, -3.120880
  0.520000, -3.038310
  0.522000, -2.956600
  0.524000, -2.869980
  0.526000, -2.789230
  0.528000, -2.710260
  0.530000, -2.622050
  0.532000, -2.521560
  0.534000, -2.414190
  0.536000, -2.300820
  0.538000, -2.177220
  0.540000, -2.052210
  0.542000, -1.924260
  0.544000, -1.793720
  0.546000, -1.671030
  0.548000, -1.551510
  0.550000, -1.435820
  0.552000, -1.331110
  0.554000, -1.223430
  0.556000, -1.117690
  0.558000, -1.008690
  0.560000, -0.895950
  0.562000, -0.782780
  0.564000, -0.653920
  0.566000, -0.519630
  0.568000, -0.370060
  0.570000, -0.210750
  0.572000, -0.049470
  0.574000,  0.114310
  0.576000,  0.280130
  0.578000,  0.444980
  0.580000,  0.603230
  0.582000,  0.747100
  0.584000,  0.880000
  0.586000,  1.002160
  0.588000,  1.112750
  0.590000,  1.214640
  0.592000,  1.315130
  0.594000,  1.408790
  0.596000,  1.489280
  0.598000,  1.561160
  0.600000,  1.633940
  0.602000,  1.695270
  0.604000,  1.747210
  0.606000,  1.785240
  0.608000,  1.816330
  0.610000,  1.823060
  0.612000,  1.810810
  0.614000,  1.784260
  0.616000,  1.737790
  0.618000,  1.683340
  0.620000,  1.624080
  0.622000,  1.566460
  0.624000,  1.530480
  0.626000,  1.508450
  0.628000,  1.508250
  0.630000,  1.520820
  0.632000,  1.540230
  0.634000,  1.560260
  0.636000,  1.563870
  0.638000,  1.545680
  0.640000,  1.488070
  0.642000,  1.391270
  0.644000,  1.255170
  0.646000,  1.085390
  0.648000,  0.899720
  0.650000,  0.708160
  0.652000,  0.542230
  0.654000,  0.416570
  0.656000,  0.338780
  0.658000,  0.319020
  0.660000,  0.332450
  0.662000,  0.375050
  0.664000,  0.423550
  0.666000,  0.468050
  0.668000,  0.469050
  0.670000,  0.429850
  0.672000,  0.349130
  0.674000,  0.241990
  0.676000,  0.115020
  0.678000, -0.015470
  0.680000, -0.142340
  0.682000, -0.254660
  0.684000, -0.339350
  0.686000, -0.400060
  0.688000, -0.447170
  0.690000, -0.468890
  0.692000, -0.475010
  0.694000, -0.478330
  0.696000, -0.474210
  0.698000, -0.473030
  0.700000, -0.477260
  0.702000, -0.487450
  0.704000, -0.502090
  0.706000, -0.535670
  0.708000, -0.577320
  0.710000, -0.621150
  0.712000, -0.662550
  0.714000, -0.710250
  0.716000, -0.757980
  0.718000, -0.800920
  0.720000, -0.834310
  0.722000, -0.850670
  0.724000, -0.861370
  0.726000, -0.864110
  0.728000, -0.852400
  0.730000, -0.842660
  0.732000, -0.823570
  0.734000, -0.797390
  0.736000, -0.776740
  0.738000, -0.760320
  0.740000, -0.750630
  0.742000, -0.745460
  0.744000, -0.745080
  0.746000, -0.755240
  0.748000, -0.770170
  0.750000, -0.794330
  0.752000, -0.815940
  0.754000, -0.843630
  0.756000, -0.866480
  0.758000, -0.890920
  0.760000, -0.911470
  0.762000, -0.928610
  0.764000, -0.938960
  0.766000, -0.942410
  0.768000, -0.944460
  0.770000, -0.938740
  0.772000, -0.928530
  0.774000, -0.911940
  0.776000, -0.888800
  0.778000, -0.867140
  0.780000, -0.838640
  0.782000, -0.811840
  0.784000, -0.787110
  0.786000, -0.756290
  0.788000, -0.735640
  0.790000, -0.714900
  0.792000, -0.694820
  0.794000, -0.679590
  0.796000, -0.671480
  0.798000, -0.667190
  0.800000, -0.663940
  0.802000, -0.660350
  0.804000, -0.661280
  0.806000, -0.661690
  0.808000, -0.659550
  0.810000, -0.649960
  0.812000, -0.635740
  0.814000, -0.616390
  0.816000, -0.592050
  0.818000, -0.563310
  0.820000, -0.530080
  0.822000, -0.497560
  0.824000, -0.465050
  0.826000, -0.432920
  0.828000, -0.405060
  0.830000, -0.382120
  0.832000, -0.362520
  0.834000, -0.348530
  0.836000, -0.331270
  0.838000, -0.321650
  0.840000, -0.315060
  0.842000, -0.310040
  0.844000, -0.304380
  0.846000, -0.295180
  0.848000, -0.277070
  0.850000, -0.264720
  0.852000, -0.245580
  0.854000, -0.232560
  0.856000, -0.208870
  0.858000, -0.180290
  0.860000, -0.158700
  0.862000, -0.129580
  0.864000, -0.100710
  0.866000, -0.073930
  0.868000, -0.050220
  0.870000, -0.024930
  0.872000,  0.000040
  0.874000,  0.024810
  0.876000,  0.044800
  0.878000,  0.060820
  0.880000,  0.068220
  0.882000,  0.070280
  0.884000,  0.068610
  0.886000,  0.064010
  0.888000,  0.055870
  0.890000,  0.042770
  0.892000,  0.031930
  0.894000,  0.025300
  0.896000,  0.027420
  0.898000,  0.035650
  0.900000,  0.055910
  0.902000,  0.077770
  0.904000,  0.105860
  0.906000,  0.141620
  0.908000,  0.174780
  0.910000,  0.195330
  0.912000,  0.206510
  0.914000,  0.208420
  0.916000,  0.200070
  0.918000,  0.172380
  0.920000,  0.137330
  0.922000,  0.095490
  0.924000,  0.053600
  0.926000,  0.013950
  0.928000, -0.017930
  0.930000, -0.030730
  0.932000, -0.034030
  0.934000, -0.028030
  0.936000, -0.003630
  0.938000,  0.038500
  0.940000,  0.071660
  0.942000,  0.116950
  0.944000,  0.159700
  0.946000,  0.193010
  0.948000,  0.214450
  0.950000,  0.219890
  0.952000,  0.204920
  0.954000,  0.170570
  0.956000,  0.125850
  0.958000,  0.061820
  0.960000, -0.005580
  0.962000, -0.071480
  0.964000, -0.129490
  0.966000, -0.172140
  0.968000, -0.200020
  0.970000, -0.212940
  0.972000, -0.205920
  0.974000, -0.187060
  0.976000, -0.151450
  0.978000, -0.113130
  0.980000, -0.091910
  0.982000, -0.063610
  0.984000, -0.054770
  0.986000, -0.061110
  0.988000, -0.085350
  0.990000, -0.122870
  0.992000, -0.163700
  0.994000, -0.213150
  0.996000, -0.266460
  0.998000, -0.317830
  1.000000, -0.356130
