# z (nm)   (kJ/mol)
  0.0980  271.27467
  0.1000  268.85549
  0.1020  266.46940
  0.1040  263.03589
  0.1060  260.07648
  0.1080  257.47890
  0.1100  254.97690
  0.1120  252.40521
  0.1140  249.76464
  0.1160  247.12784
  0.1180  244.43407
  0.1200  241.65546
  0.1220  238.77108
  0.1240  235.76748
  0.1260  232.60830
  0.1280  229.27555
  0.1300  225.74880
  0.1320  222.01878
  0.1340  218.09016
  0.1360  213.98045
  0.1380  209.72431
  0.1400  205.36356
  0.1420  200.93797
  0.1440  196.48262
  0.1460  192.02571
  0.1480  187.58521
  0.1500  183.17150
  0.1520  178.79755
  0.1540  174.46774
  0.1560  170.19461
  0.1580  165.98643
  0.1600  161.84781
  0.1620  157.78153
  0.1640  153.77909
  0.1660  149.84487
  0.1680  145.97300
  0.1700  142.15917
  0.1720  138.40180
  0.1740  134.69931
  0.1760  131.05929
  0.1780  127.47939
  0.1800  123.95176
  0.1820  120.48183
  0.1840  117.05907
  0.1860  113.68921
  0.1880  110.37271
  0.1900  107.11163
  0.1920  103.90984
  0.1940  100.77675
  0.1960   97.70678
  0.1980   94.68945
  0.2000   91.72410
  0.2020   88.78857
  0.2040   85.87352
  0.2060   82.96336
  0.2080   80.04101
  0.2100   77.11055
  0.2120   74.17905
  0.2140   71.26450
  0.2160   68.40507
  0.2180   65.62365
  0.2200   62.95633
  0.2220   60.41367
  0.2240   57.98776
  0.2260   55.65609
  0.2280   53.38927
  0.2300   51.15160
  0.2320   48.91260
  0.2340   46.67137
  0.2360   44.43000
  0.2380   42.20442
  0.2400   40.02145
  0.2420   37.90892
  0.2440   35.88808
  0.2460   33.96270
  0.2480   32.12930
  0.2500   30.37854
  0.2520   28.68780
  0.2540   27.01835
  0.2560   25.35656
  0.2580   23.70377
  0.2600   22.04723
  0.2620   20.39459
  0.2640   18.77060
  0.2660   17.18587
  0.2680   15.66253
  0.2700   14.22945
  0.2720   12.89504
  0.2740   11.65373
  0.2760   10.47683
  0.2780    9.35354
  0.2800    8.24154
  0.2820    7.10350
  0.2840    5.94469
  0.2860    4.75912
  0.2880    3.58481
  0.2900    2.45493
  0.2920    1.39981
  0.2940    0.44302
  0.2960   -0.41380
  0.2980   -1.18801
  0.3000   -1.92746
  0.3020   -2.66445
  0.3040   -3.42934
  0.3060   -4.22267
  0.3080   -5.04428
  0.3100   -5.86128
  0.3120   -6.64387
  0.3140   -7.37487
  0.3160   -8.03269
  0.3180   -8.62709
  0.3200   -9.15374
  0.3220   -9.64924
  0.3240  -10.12566
  0.3260  -10.59411
  0.3280  -11.05317
  0.3300  -11.50878
  0.3320  -11.95361
  0.3340  -12.38614
  0.3360  -12.79209
  0.3380  -13.17519
  0.3400  -13.52967
  0.3420  -13.85699
  0.3440  -14.14089
  0.3460  -14.39725
  0.3480  -14.61208
  0.3500  -14.79893
  0.3520  -14.95997
  0.3540  -15.10207
  0.3560  -15.24185
  0.3580  -15.37697
  0.3600  -15.50641
  0.3620  -15.62737
  0.3640  -15.74217
  0.3660  -15.83376
  0.3680  -15.89771
  0.3700  -15.93814
  0.3720  -15.96508
  0.3740  -15.97804
  0.3760  -15.97094
  0.3780  -15.95661
  0.3800  -15.94885
  0.3820  -15.92628
  0.3840  -15.90976
  0.3860  -15.88231
  0.3880  -15.85609
  0.3900  -15.83018
  0.3920  -15.80674
  0.3940  -15.77077
  0.3960  -15.72971
  0.3980  -15.67888
  0.4000  -15.61767
  0.4020  -15.53579
  0.4040  -15.44442
  0.4060  -15.34602
  0.4080  -15.24360
  0.4100  -15.13496
  0.4120  -15.01499
  0.4140  -14.89105
  0.4160  -14.75465
  0.4180  -14.60830
  0.4200  -14.45694
  0.4220  -14.29673
  0.4240  -14.13929
  0.4260  -13.97608
  0.4280  -13.81567
  0.4300  -13.65516
  0.4320  -13.48760
  0.4340  -13.31854
  0.4360  -13.13818
  0.4380  -12.95709
  0.4400  -12.76465
  0.4420  -12.56870
  0.4440  -12.37676
  0.4460  -12.18328
  0.4480  -11.99010
  0.4500  -11.79793
  0.4520  -11.60940
  0.4540  -11.42451
  0.4560  -11.24633
  0.4580  -11.07599
  0.4600  -10.91440
  0.4620  -10.76065
  0.4640  -10.62097
  0.4660  -10.49098
  0.4680  -10.37403
  0.4700  -10.25704
  0.4720  -10.14305
  0.4740  -10.01961
  0.4760   -9.89763
  0.4780   -9.76510
  0.4800   -9.62939
  0.4820   -9.47896
  0.4840   -9.33695
  0.4860   -9.21114
  0.4880   -9.10365
  0.4900   -9.02477
  0.4920   -8.97839
  0.4940   -8.94042
  0.4960   -8.90689
  0.4980   -8.84560
  0.5000   -8.75529
  0.5020   -8.62758
  0.5040   -8.48108
  0.5060   -8.33798
  0.5080   -8.21530
  0.5100   -8.12880
  0.5120   -8.07043
  0.5140   -8.03716
  0.5160   -8.01614
  0.5180   -7.99580
  0.5200   -7.97969
  0.5220   -7.95784
  0.5240   -7.92375
  0.5260   -7.89463
  0.5280   -7.86015
  0.5300   -7.80944
  0.5320   -7.74207
  0.5340   -7.64873
  0.5360   -7.53477
  0.5380   -7.41647
  0.5400   -7.30348
  0.5420   -7.21617
  0.5440   -7.15001
  0.5460   -7.08715
  0.5480   -7.02924
  0.5500   -6.95241
  0.5520   -6.85615
  0.5540   -6.74085
  0.5560   -6.60337
  0.5580   -6.44421
  0.5600   -6.27193
  0.5620   -6.08623
  0.5640   -5.90283
  0.5660   -5.70107
  0.5680   -5.49904
  0.5700   -5.30178
  0.5720   -5.11264
  0.5740   -4.92692
  0.5760   -4.75251
  0.5780   -4.58008
  0.5800   -4.40685
  0.5820   -4.22202
  0.5840   -4.02440
  0.5860   -3.81521
  0.5880   -3.57856
  0.5900   -3.32815
  0.5920   -3.06899
  0.5940   -2.80570
  0.5960   -2.54442
  0.5980   -2.30351
  0.6000   -2.07646
  0.6020   -1.87246
  0.6040   -1.68895
  0.6060   -1.52032
  0.6080   -1.35937
  0.6100   -1.20586
  0.6120   -1.04983
  0.6140   -0.90525
  0.6160   -0.76659
  0.6180   -0.63255
  0.6200   -0.51204
  0.6220   -0.40711
  0.6240   -0.31152
  0.6260   -0.22631
  0.6280   -0.15022
  0.6300   -0.08356
  0.6320   -0.02787
  0.6340    0.01907
  0.6360    0.06462
  0.6380    0.10415
  0.6400    0.13853
  0.6420    0.16119
  0.6440    0.17650
  0.6460    0.18554
  0.6480    0.17858
  0.6500    0.15134
  0.6520    0.10519
  0.6540    0.04352
  0.6560   -0.02348
  0.6580   -0.09552
  0.6600   -0.15166
  0.6620   -0.19293
  0.6640   -0.22255
  0.6660   -0.23836
  0.6680   -0.24717
  0.6700   -0.25766
  0.6720   -0.27828
  0.6740   -0.30919
  0.6760   -0.36130
  0.6780   -0.43003
  0.6800   -0.50830
  0.6820   -0.58245
  0.6840   -0.65156
  0.6860   -0.71308
  0.6880   -0.77159
  0.6900   -0.81721
  0.6920   -0.86954
  0.6940   -0.92025
  0.6960   -0.97105
  0.6980   -1.02895
  0.7000   -1.06436
  0.7020   -1.08961
  0.7040   -1.10503
  0.7060   -1.10795
  0.7080   -1.09896
  0.7100   -1.08039
  0.7120   -1.05807
  0.7140   -1.04469
  0.7160   -1.03500
  0.7180   -1.02795
  0.7200   -1.02937
  0.7220   -1.03932
  0.7240   -1.05854
  0.7260   -1.07836
  0.7280   -1.09802
  0.7300   -1.11054
  0.7320   -1.11968
  0.7340   -1.11451
  0.7360   -1.10821
  0.7380   -1.08937
  0.7400   -1.06449
  0.7420   -1.05274
  0.7440   -1.04193
  0.7460   -1.02811
  0.7480   -1.02655
  0.7500   -1.03177
  0.7520   -1.04423
  0.7540   -1.06866
  0.7560   -1.09715
  0.7580   -1.12252
  0.7600   -1.13368
  0.7620   -1.13429
  0.7640   -1.11555
  0.7660   -1.07597
  0.7680   -1.03515
  0.7700   -0.98417
  0.7720   -0.93101
  0.7740   -0.88346
  0.7760   -0.84370
  0.7780   -0.80389
  0.7800   -0.77583
  0.7820   -0.75162
  0.7840   -0.72594
  0.7860   -0.70485
  0.7880   -0.69031
  0.7900   -0.68328
  0.7920   -0.68360
  0.7940   -0.69176
  0.7960   -0.69744
  0.7980   -0.69532
  0.8000   -0.68508
  0.8020   -0.66159
  0.8040   -0.62809
  0.8060   -0.58702
  0.8080   -0.55155
  0.8100   -0.51702
  0.8120   -0.49894
  0.8140   -0.48212
  0.8160   -0.48008
  0.8180   -0.47677
  0.8200   -0.46585
  0.8220   -0.45970
  0.8240   -0.44092
  0.8260   -0.42353
  0.8280   -0.40020
  0.8300   -0.38731
  0.8320   -0.37395
  0.8340   -0.36572
  0.8360   -0.35616
  0.8380   -0.34501
  0.8400   -0.33368
  0.8420   -0.31692
  0.8440   -0.30054
  0.8460   -0.28174
  0.8480   -0.26608
  0.8500   -0.25806
  0.8520   -0.25058
  0.8540   -0.24855
  0.8560   -0.24545
  0.8580   -0.23936
  0.8600   -0.22651
  0.8620   -0.21059
  0.8640   -0.18883
  0.8660   -0.16666
  0.8680   -0.13783
  0.8700   -0.10439
  0.8720   -0.07229
  0.8740   -0.04078
  0.8760   -0.00565
  0.8780    0.03059
  0.8800    0.05839
  0.8820    0.07328
  0.8840    0.07439
  0.8860    0.07997
  0.8880    0.07398
  0.8900    0.07203
  0.8920    0.08304
  0.8940    0.10591
  0.8960    0.12861
  0.8980    0.15633
  0.9000    0.17225
  0.9020    0.18357
  0.9040    0.17570
  0.9060    0.16985
  0.9080    0.15747
  0.9100    0.14715
  0.9120    0.14808
  0.9140    0.16357
  0.9160    0.18509
  0.9180    0.21924
  0.9200    0.26232
  0.9220    0.30341
  0.9240    0.33722
  0.9260    0.35411
  0.9280    0.35510
  0.9300    0.33794
  0.9320    0.31502
  0.9340    0.27634
  0.9360    0.22981
  0.9380    0.17919
  0.9400    0.12658
  0.9420    0.07780
  0.9440    0.03241
  0.9460   -0.00908
  0.9480   -0.03773
  0.9500   -0.06548
  0.9520   -0.08728
  0.9540   -0.09244
  0.9560   -0.08520
  0.9580   -0.07641
  0.9600   -0.06081
  0.9620   -0.03993
  0.9640   -0.02269
  0.9660   -0.01924
  0.9680   -0.02059
  0.9700   -0.03757
  0.9720   -0.07168
  0.9740   -0.11770
  0.9760   -0.16344
  0.9780   -0.22626
  0.9800   -0.28176
  0.9820   -0.32438
  0.9840   -0.35352
  0.9860   -0.37275
  0.9880   -0.37300
  0.9900   -0.36894
  0.9920   -0.34562
  0.9940   -0.31114
  0.9960   -0.28476
  0.9980   -0.25563
  1.0000   -0.23197
