# z (nm)   (kJ/mol)
  0.0780  258.40435
  0.0800  255.96065
  0.0820  252.66183
  0.0840  249.93310
  0.0860  247.32985
  0.0880  244.79802
  0.0900  242.22816
  0.0920  239.68657
  0.0940  237.10931
  0.0960  234.50109
  0.0980  231.82620
  0.1000  229.10612
  0.1020  226.30502
  0.1040  223.43726
  0.1060  220.49184
  0.1080  217.46366
  0.1100  214.35719
  0.1120  211.17380
  0.1140  207.91657
  0.1160  204.59125
  0.1180  201.19931
  0.1200  197.74632
  0.1220  194.24175
  0.1240  190.68954
  0.1260  187.09321
  0.1280  183.46244
  0.1300  179.80874
  0.1320  176.15107
  0.1340  172.51347
  0.1360  168.92058
  0.1380  165.39029
  0.1400  161.95759
  0.1420  158.63092
  0.1440  155.40895
  0.1460  152.29352
  0.1480  149.27058
  0.1500  146.33503
  0.1520  143.48016
  0.1540  140.70742
  0.1560  138.00985
  0.1580  135.38876
  0.1600  132.82280
  0.1620  130.27912
  0.1640  127.73009
  0.1660  125.14143
  0.1680  122.50089
  0.1700  119.81264
  0.1720  117.10413
  0.1740  114.40498
  0.1760  111.74612
  0.1780  109.15806
  0.1800  106.64559
  0.1820  104.19909
  0.1840  101.81013
  0.1860   99.45732
  0.1880   97.12544
  0.1900   94.79572
  0.1920   92.45565
  0.1940   90.10941
  0.1960   87.74847
  0.1980   85.37398
  0.2000   82.99431
  0.2020   80.61991
  0.2040   78.27818
  0.2060   75.97268
  0.2080   73.73441
  0.2100   71.56703
  0.2120   69.46324
  0.2140   67.39711
  0.2160   65.35630
  0.2180   63.31160
  0.2200   61.25004
  0.2220   59.19082
  0.2240   57.15170
  0.2260   55.15952
  0.2280   53.23396
  0.2300   51.37224
  0.2320   49.54539
  0.2340   47.73672
  0.2360   45.92634
  0.2380   44.11059
  0.2400   42.29182
  0.2420   40.50074
  0.2440   38.74903
  0.2460   37.05010
  0.2480   35.41564
  0.2500   33.85505
  0.2520   32.37057
  0.2540   30.95972
  0.2560   29.60575
  0.2580   28.30856
  0.2600   27.03794
  0.2620   25.79335
  0.2640   24.56755
  0.2660   23.35579
  0.2680   22.17707
  0.2700   21.03773
  0.2720   19.94998
  0.2740   18.91446
  0.2760   17.93387
  0.2780   16.99900
  0.2800   16.10048
  0.2820   15.23043
  0.2840   14.38434
  0.2860   13.55842
  0.2880   12.74361
  0.2900   11.96104
  0.2920   11.21724
  0.2940   10.51120
  0.2960    9.85431
  0.2980    9.23916
  0.3000    8.66578
  0.3020    8.12243
  0.3040    7.58490
  0.3060    7.05241
  0.3080    6.51098
  0.3100    5.94965
  0.3120    5.38156
  0.3140    4.81623
  0.3160    4.26699
  0.3180    3.73698
  0.3200    3.23261
  0.3220    2.76211
  0.3240    2.31757
  0.3260    1.89150
  0.3280    1.48293
  0.3300    1.09722
  0.3320    0.72678
  0.3340    0.38066
  0.3360    0.06591
  0.3380   -0.23406
  0.3400   -0.50189
  0.3420   -0.76080
  0.3440   -1.00049
  0.3460   -1.22644
  0.3480   -1.42608
  0.3500   -1.60634
  0.3520   -1.76027
  0.3540   -1.88725
  0.3560   -1.98530
  0.3580   -2.05655
  0.3600   -2.10765
  0.3620   -2.15879
  0.3640   -2.20775
  0.3660   -2.24388
  0.3680   -2.28409
  0.3700   -2.30869
  0.3720   -2.31119
  0.3740   -2.30504
  0.3760   -2.28203
  0.3780   -2.25624
  0.3800   -2.22926
  0.3820   -2.20656
  0.3840   -2.19078
  0.3860   -2.17753
  0.3880   -2.17100
  0.3900   -2.16319
  0.3920   -2.15461
  0.3940   -2.13556
  0.3960   -2.11011
  0.3980   -2.07721
  0.4000   -2.03008
  0.4020   -1.97212
  0.4040   -1.90662
  0.4060   -1.82764
  0.4080   -1.74463
  0.4100   -1.66566
  0.4120   -1.57590
  0.4140   -1.49041
  0.4160   -1.40635
  0.4180   -1.32010
  0.4200   -1.24195
  0.4220   -1.16537
  0.4240   -1.09444
  0.4260   -1.03047
  0.4280   -0.96768
  0.4300   -0.89871
  0.4320   -0.83132
  0.4340   -0.74705
  0.4360   -0.67031
  0.4380   -0.57478
  0.4400   -0.47143
  0.4420   -0.37027
  0.4440   -0.27160
  0.4460   -0.18071
  0.4480   -0.09520
  0.4500   -0.02444
  0.4520    0.03488
  0.4540    0.08506
  0.4560    0.13745
  0.4580    0.18986
  0.4600    0.24043
  0.4620    0.29796
  0.4640    0.35203
  0.4660    0.41478
  0.4680    0.47603
  0.4700    0.54095
  0.4720    0.61427
  0.4740    0.69417
  0.4760    0.77743
  0.4780    0.86007
  0.4800    0.94120
  0.4820    1.01391
  0.4840    1.07684
  0.4860    1.12831
  0.4880    1.15543
  0.4900    1.16091
  0.4920    1.15000
  0.4940    1.13101
  0.4960    1.10139
  0.4980    1.07098
  0.5000    1.03938
  0.5020    1.00489
  0.5040    0.97075
  0.5060    0.93894
  0.5080    0.90283
  0.5100    0.86314
  0.5120    0.81252
  0.5140    0.75259
  0.5160    0.67988
  0.5180    0.59540
  0.5200    0.49816
  0.5220    0.39317
  0.5240    0.29876
  0.5260    0.21135
  0.5280    0.12340
  0.5300    0.05130
  0.5320   -0.01891
  0.5340   -0.07512
  0.5360   -0.12698
  0.5380   -0.17465
  0.5400   -0.21562
  0.5420   -0.26564
  0.5440   -0.30775
  0.5460   -0.35497
  0.5480   -0.40703
  0.5500   -0.46041
  0.5520   -0.51544
  0.5540   -0.57634
  0.5560   -0.64010
  0.5580   -0.69892
  0.5600   -0.75662
  0.5620   -0.80576
  0.5640   -0.83666
  0.5660   -0.86485
  0.5680   -0.87899
  0.5700   -0.87138
  0.5720   -0.85949
  0.5740   -0.84407
  0.5760   -0.82109
  0.5780   -0.79608
  0.5800   -0.77151
  0.5820   -0.74743
  0.5840   -0.73233
  0.5860   -0.71817
  0.5880   -0.70919
  0.5900   -0.71031
  0.5920   -0.71224
  0.5940   -0.71084
  0.5960   -0.70351
  0.5980   -0.69258
  0.6000   -0.67117
  0.6020   -0.64120
  0.6040   -0.60154
  0.6060   -0.56114
  0.6080   -0.51568
  0.6100   -0.46250
  0.6120   -0.41193
  0.6140   -0.36281
  0.6160   -0.31458
  0.6180   -0.26723
  0.6200   -0.22451
  0.6220   -0.19365
  0.6240   -0.15466
  0.6260   -0.11798
  0.6280   -0.08503
  0.6300   -0.04131
  0.6320   -0.00420
  0.6340    0.04366
  0.6360    0.08839
  0.6380    0.13972
  0.6400    0.19243
  0.6420    0.24830
  0.6440    0.29986
  0.6460    0.35656
  0.6480    0.40090
  0.6500    0.43723
  0.6520    0.47336
  0.6540    0.49689
  0.6560    0.51140
  0.6580    0.51856
  0.6600    0.51917
  0.6620    0.51013
  0.6640    0.49417
  0.6660    0.47096
  0.6680    0.45200
  0.6700    0.44406
  0.6720    0.43200
  0.6740    0.42726
  0.6760    0.43624
  0.6780    0.45660
  0.6800    0.48019
  0.6820    0.51433
  0.6840    0.54853
  0.6860    0.59467
  0.6880    0.63890
  0.6900    0.67588
  0.6920    0.70699
  0.6940    0.72038
  0.6960    0.72189
  0.6980    0.71130
  0.7000    0.68824
  0.7020    0.66083
  0.7040    0.62446
  0.7060    0.58319
  0.7080    0.54572
  0.7100    0.51406
  0.7120    0.48612
  0.7140    0.46004
  0.7160    0.44164
  0.7180    0.42649
  0.7200    0.42806
  0.7220    0.42759
  0.7240    0.43248
  0.7260    0.44946
  0.7280    0.46562
  0.7300    0.48691
  0.7320    0.50507
  0.7340    0.51896
  0.7360    0.52716
  0.7380    0.53375
  0.7400    0.53714
  0.7420    0.53177
  0.7440    0.51124
  0.7460    0.48291
  0.7480    0.44494
  0.7500    0.40924
  0.7520    0.36524
  0.7540    0.32715
  0.7560    0.28822
  0.7580    0.25864
  0.7600    0.24132
  0.7620    0.23847
  0.7640    0.23541
  0.7660    0.25097
  0.7680    0.27701
  0.7700    0.30586
  0.7720    0.33433
  0.7740    0.36157
  0.7760    0.38827
  0.7780    0.41730
  0.7800    0.43240
  0.7820    0.44567
  0.7840    0.45033
  0.7860    0.44413
  0.7880    0.43341
  0.7900    0.42467
  0.7920    0.41677
  0.7940    0.40264
  0.7960    0.39097
  0.7980    0.38122
  0.8000    0.38051
  0.8020    0.37703
  0.8040    0.37637
  0.8060    0.38041
  0.8080    0.38170
  0.8100    0.38853
  0.8120    0.39513
  0.8140    0.39613
  0.8160    0.39141
  0.8180    0.38456
  0.8200    0.38062
  0.8220    0.37531
  0.8240    0.35811
  0.8260    0.35089
  0.8280    0.33806
  0.8300    0.33082
  0.8320    0.32456
  0.8340    0.32931
  0.8360    0.33542
  0.8380    0.35251
  0.8400    0.37171
  0.8420    0.39504
  0.8440    0.41431
  0.8460    0.42941
  0.8480    0.44375
  0.8500    0.44790
  0.8520    0.45089
  0.8540    0.45581
  0.8560    0.44645
  0.8580    0.43950
  0.8600    0.43034
  0.8620    0.41815
  0.8640    0.40210
  0.8660    0.39161
  0.8680    0.37795
  0.8700    0.36899
  0.8720    0.35283
  0.8740    0.34518
  0.8760    0.33664
  0.8780    0.33454
  0.8800    0.33602
  0.8820    0.33240
  0.8840    0.34133
  0.8860    0.34601
  0.8880    0.34626
  0.8900    0.34922
  0.8920    0.35424
  0.8940    0.35633
  0.8960    0.35473
  0.8980    0.35117
  0.9000    0.33202
  0.9020    0.33042
  0.9040    0.31786
  0.9060    0.30119
  0.9080    0.28676
  0.9100    0.26899
  0.9120    0.25503
  0.9140    0.24104
  0.9160    0.22546
  0.9180    0.21466
  0.9200    0.20771
  0.9220    0.20812
  0.9240    0.20227
  0.9260    0.19389
  0.9280    0.17976
  0.9300    0.16815
  0.9320    0.14917
  0.9340    0.12701
  0.9360    0.10556
  0.9380    0.08546
  0.9400    0.06013
  0.9420    0.03485
  0.9440    0.02294
  0.9460    0.00144
  0.9480   -0.01709
  0.9500   -0.03277
  0.9520   -0.05032
  0.9540   -0.06917
  0.9560   -0.08794
  0.9580   -0.10753
  0.9600   -0.12672
  0.9620   -0.14531
  0.9640   -0.15179
  0.9660   -0.15383
  0.9680   -0.15305
  0.9700   -0.14389
  0.9720   -0.13359
  0.9740   -0.12625
  0.9760   -0.11822
  0.9780   -0.11619
  0.9800   -0.11819
  0.9820   -0.12663
  0.9840   -0.13995
  0.9860   -0.16087
  0.9880   -0.18319
  0.9900   -0.21669
  0.9920   -0.25470
  0.9940   -0.28656
  0.9960   -0.31149
  0.9980   -0.32545
  1.0000   -0.33050
