# z (nm)   (kJ/mol)
  0.1720  248.36014
  0.1740  244.06764
  0.1760  241.44483
  0.1780  239.23313
  0.1800  236.96201
  0.1820  234.79699
  0.1840  232.59722
  0.1860  230.35535
  0.1880  228.07151
  0.1900  225.68166
  0.1920  223.15043
  0.1940  220.44712
  0.1960  217.53393
  0.1980  214.37331
  0.2000  210.93421
  0.2020  207.18783
  0.2040  203.13270
  0.2060  198.80422
  0.2080  194.25570
  0.2100  189.56125
  0.2120  184.78321
  0.2140  179.98214
  0.2160  175.21451
  0.2180  170.53581
  0.2200  165.98535
  0.2220  161.56861
  0.2240  157.24372
  0.2260  152.96298
  0.2280  148.72245
  0.2300  144.56377
  0.2320  140.54005
  0.2340  136.66115
  0.2360  132.86675
  0.2380  129.08640
  0.2400  125.28839
  0.2420  121.51804
  0.2440  117.87752
  0.2460  114.47357
  0.2480  111.30257
  0.2500  108.22584
  0.2520  105.02241
  0.2540  101.57618
  0.2560   97.96091
  0.2580   94.39580
  0.2600   91.07034
  0.2620   88.03075
  0.2640   85.23350
  0.2660   82.57472
  0.2680   79.95872
  0.2700   77.30030
  0.2720   74.53362
  0.2740   71.67328
  0.2760   68.77410
  0.2780   65.95203
  0.2800   63.27917
  0.2820   60.78362
  0.2840   58.42538
  0.2860   56.11522
  0.2880   53.79898
  0.2900   51.42999
  0.2920   49.01323
  0.2940   46.61998
  0.2960   44.32324
  0.2980   42.17719
  0.3000   40.18275
  0.3020   38.30942
  0.3040   36.48712
  0.3060   34.66966
  0.3080   32.84139
  0.3100   31.01008
  0.3120   29.19385
  0.3140   27.41544
  0.3160   25.69403
  0.3180   24.02352
  0.3200   22.42097
  0.3220   20.87742
  0.3240   19.37058
  0.3260   17.90228
  0.3280   16.47656
  0.3300   15.08783
  0.3320   13.75190
  0.3340   12.48426
  0.3360   11.27893
  0.3380   10.13184
  0.3400    9.01680
  0.3420    7.92754
  0.3440    6.84036
  0.3460    5.75462
  0.3480    4.67769
  0.3500    3.62797
  0.3520    2.61571
  0.3540    1.66263
  0.3560    0.76262
  0.3580   -0.09184
  0.3600   -0.90191
  0.3620   -1.67276
  0.3640   -2.42394
  0.3660   -3.13943
  0.3680   -3.81870
  0.3700   -4.47012
  0.3720   -5.11261
  0.3740   -5.76847
  0.3760   -6.45704
  0.3780   -7.15172
  0.3800   -7.80948
  0.3820   -8.38591
  0.3840   -8.86268
  0.3860   -9.25696
  0.3880   -9.62090
  0.3900  -10.00586
  0.3920  -10.47015
  0.3940  -11.02076
  0.3960  -11.61034
  0.3980  -12.17366
  0.4000  -12.61879
  0.4020  -12.92321
  0.4040  -13.11015
  0.4060  -13.26696
  0.4080  -13.45758
  0.4100  -13.73509
  0.4120  -14.07971
  0.4140  -14.44761
  0.4160  -14.79553
  0.4180  -15.08609
  0.4200  -15.30199
  0.4220  -15.45975
  0.4240  -15.59430
  0.4260  -15.72151
  0.4280  -15.85992
  0.4300  -15.99090
  0.4320  -16.11639
  0.4340  -16.24534
  0.4360  -16.37499
  0.4380  -16.50684
  0.4400  -16.64390
  0.4420  -16.76715
  0.4440  -16.85939
  0.4460  -16.90374
  0.4480  -16.89553
  0.4500  -16.82867
  0.4520  -16.71302
  0.4540  -16.58611
  0.4560  -16.46614
  0.4580  -16.38351
  0.4600  -16.32955
  0.4620  -16.28553
  0.4640  -16.20864
  0.4660  -16.09672
  0.4680  -15.94673
  0.4700  -15.76019
  0.4720  -15.57110
  0.4740  -15.36894
  0.4760  -15.15584
  0.4780  -14.93564
  0.4800  -14.71099
  0.4820  -14.48921
  0.4840  -14.27369
  0.4860  -14.08185
  0.4880  -13.91671
  0.4900  -13.78244
  0.4920  -13.65091
  0.4940  -13.51134
  0.4960  -13.35194
  0.4980  -13.16892
  0.5000  -12.97922
  0.5020  -12.80065
  0.5040  -12.63732
  0.5060  -12.48631
  0.5080  -12.33527
  0.5100  -12.18019
  0.5120  -12.01990
  0.5140  -11.84974
  0.5160  -11.66769
  0.5180  -11.49137
  0.5200  -11.32478
  0.5220  -11.17463
  0.5240  -11.04451
  0.5260  -10.92684
  0.5280  -10.83219
  0.5300  -10.72676
  0.5320  -10.59949
  0.5340  -10.43667
  0.5360  -10.26020
  0.5380  -10.08333
  0.5400   -9.92998
  0.5420   -9.81222
  0.5440   -9.73338
  0.5460   -9.66310
  0.5480   -9.58766
  0.5500   -9.48365
  0.5520   -9.34728
  0.5540   -9.18406
  0.5560   -9.01168
  0.5580   -8.84086
  0.5600   -8.68242
  0.5620   -8.55330
  0.5640   -8.44655
  0.5660   -8.36825
  0.5680   -8.31047
  0.5700   -8.26546
  0.5720   -8.21947
  0.5740   -8.16215
  0.5760   -8.08990
  0.5780   -8.00099
  0.5800   -7.90460
  0.5820   -7.80030
  0.5840   -7.70207
  0.5860   -7.61070
  0.5880   -7.53529
  0.5900   -7.47273
  0.5920   -7.40959
  0.5940   -7.35850
  0.5960   -7.29940
  0.5980   -7.22917
  0.6000   -7.14883
  0.6020   -7.07119
  0.6040   -7.02133
  0.6060   -6.99716
  0.6080   -6.98877
  0.6100   -6.99095
  0.6120   -6.98196
  0.6140   -6.93395
  0.6160   -6.84303
  0.6180   -6.71608
  0.6200   -6.56931
  0.6220   -6.44256
  0.6240   -6.35638
  0.6260   -6.33462
  0.6280   -6.36324
  0.6300   -6.41078
  0.6320   -6.43265
  0.6340   -6.41839
  0.6360   -6.34662
  0.6380   -6.22053
  0.6400   -6.05062
  0.6420   -5.86987
  0.6440   -5.70338
  0.6460   -5.56309
  0.6480   -5.45355
  0.6500   -5.37168
  0.6520   -5.30155
  0.6540   -5.23681
  0.6560   -5.15955
  0.6580   -5.06377
  0.6600   -4.94481
  0.6620   -4.82178
  0.6640   -4.69650
  0.6660   -4.57648
  0.6680   -4.46176
  0.6700   -4.35639
  0.6720   -4.27220
  0.6740   -4.19089
  0.6760   -4.12616
  0.6780   -4.06312
  0.6800   -4.02323
  0.6820   -3.97451
  0.6840   -3.92745
  0.6860   -3.86747
  0.6880   -3.79565
  0.6900   -3.73573
  0.6920   -3.67636
  0.6940   -3.63566
  0.6960   -3.61409
  0.6980   -3.60772
  0.7000   -3.62301
  0.7020   -3.62925
  0.7040   -3.61292
  0.7060   -3.59081
  0.7080   -3.54122
  0.7100   -3.46996
  0.7120   -3.41032
  0.7140   -3.35407
  0.7160   -3.32725
  0.7180   -3.32279
  0.7200   -3.34909
  0.7220   -3.37744
  0.7240   -3.41057
  0.7260   -3.42085
  0.7280   -3.39546
  0.7300   -3.35281
  0.7320   -3.27630
  0.7340   -3.18166
  0.7360   -3.08381
  0.7380   -2.99862
  0.7400   -2.94195
  0.7420   -2.92084
  0.7440   -2.93496
  0.7460   -2.96044
  0.7480   -2.96643
  0.7500   -2.93424
  0.7520   -2.87062
  0.7540   -2.80377
  0.7560   -2.75369
  0.7580   -2.73119
  0.7600   -2.72006
  0.7620   -2.70650
  0.7640   -2.67766
  0.7660   -2.63879
  0.7680   -2.59810
  0.7700   -2.55981
  0.7720   -2.51502
  0.7740   -2.46193
  0.7760   -2.40878
  0.7780   -2.35512
  0.7800   -2.31424
  0.7820   -2.29128
  0.7840   -2.28459
  0.7860   -2.29612
  0.7880   -2.29956
  0.7900   -2.28999
  0.7920   -2.23968
  0.7940   -2.15058
  0.7960   -2.03542
  0.7980   -1.90220
  0.8000   -1.78247
  0.8020   -1.68821
  0.8040   -1.62481
  0.8060   -1.60093
  0.8080   -1.60788
  0.8100   -1.63039
  0.8120   -1.65661
  0.8140   -1.67293
  0.8160   -1.66405
  0.8180   -1.62479
  0.8200   -1.56779
  0.8220   -1.49118
  0.8240   -1.40331
  0.8260   -1.31718
  0.8280   -1.23337
  0.8300   -1.16377
  0.8320   -1.09796
  0.8340   -1.04363
  0.8360   -0.99543
  0.8380   -0.95006
  0.8400   -0.89381
  0.8420   -0.83829
  0.8440   -0.77236
  0.8460   -0.70309
  0.8480   -0.64715
  0.8500   -0.60278
  0.8520   -0.56680
  0.8540   -0.54041
  0.8560   -0.53572
  0.8580   -0.54235
  0.8600   -0.55973
  0.8620   -0.57790
  0.8640   -0.59275
  0.8660   -0.59727
  0.8680   -0.57854
  0.8700   -0.54534
  0.8720   -0.50246
  0.8740   -0.45431
  0.8760   -0.40649
  0.8780   -0.36562
  0.8800   -0.34348
  0.8820   -0.34450
  0.8840   -0.36696
  0.8860   -0.41231
  0.8880   -0.45759
  0.8900   -0.51682
  0.8920   -0.56323
  0.8940   -0.59034
  0.8960   -0.59147
  0.8980   -0.56310
  0.9000   -0.51711
  0.9020   -0.45362
  0.9040   -0.38161
  0.9060   -0.31129
  0.9080   -0.25548
  0.9100   -0.22166
  0.9120   -0.19648
  0.9140   -0.17831
  0.9160   -0.16754
  0.9180   -0.15535
  0.9200   -0.13591
  0.9220   -0.11696
  0.9240   -0.09244
  0.9260   -0.06854
  0.9280   -0.05043
  0.9300   -0.03937
  0.9320   -0.03433
  0.9340   -0.02633
  0.9360   -0.02101
  0.9380   -0.01354
  0.9400   -0.00742
  0.9420    0.00895
  0.9440    0.02136
  0.9460    0.03400
  0.9480    0.05071
  0.9500    0.06286
  0.9520    0.07406
  0.9540    0.08291
  0.9560    0.08930
  0.9580    0.09358
  0.9600    0.10265
  0.9620    0.12047
  0.9640    0.14681
  0.9660    0.18764
  0.9680    0.23217
  0.9700    0.27544
  0.9720    0.29545
  0.9740    0.27686
  0.9760    0.22305
  0.9780    0.14131
  0.9800    0.05897
  0.9820   -0.00964
  0.9840   -0.04797
  0.9860   -0.04842
  0.9880   -0.02234
  0.9900    0.01848
  0.9920    0.05932
  0.9940    0.09606
  0.9960    0.11362
  0.9980    0.10738
  1.0000    0.08259
