# z (nm)   (kJ/mol)
  0.1170   11.58400
  0.1190   11.26000
  0.1210   10.95400
  0.1230   10.62800
  0.1250   10.27200
  0.1270    9.93800
  0.1290    9.59900
  0.1310    9.25100
  0.1330    8.89800
  0.1350    8.53800
  0.1370    8.18200
  0.1390    7.81700
  0.1410    7.45000
  0.1430    7.08800
  0.1450    6.72200
  0.1470    6.34700
  0.1490    5.97600
  0.1510    5.60800
  0.1530    5.23400
  0.1550    4.86200
  0.1570    4.49300
  0.1590    4.12100
  0.1610    3.74900
  0.1630    3.38300
  0.1650    3.02000
  0.1670    2.66200
  0.1690    2.30400
  0.1710    1.94800
  0.1730    1.59700
  0.1750    1.25200
  0.1770    0.91600
  0.1790    0.58400
  0.1810    0.25300
  0.1830   -0.07300
  0.1850   -0.39700
  0.1870   -0.71900
  0.1890   -1.03400
  0.1910   -1.34200
  0.1930   -1.64700
  0.1950   -1.94900
  0.1970   -2.24300
  0.1990   -2.53200
  0.2010   -2.81800
  0.2030   -3.09700
  0.2050   -3.37100
  0.2070   -3.64000
  0.2090   -3.90600
  0.2110   -4.16500
  0.2130   -4.41800
  0.2150   -4.66500
  0.2170   -4.90600
  0.2190   -5.14000
  0.2210   -5.36900
  0.2230   -5.59300
  0.2250   -5.81000
  0.2270   -6.01900
  0.2290   -6.22300
  0.2310   -6.42000
  0.2330   -6.61000
  0.2350   -6.79300
  0.2370   -6.97100
  0.2390   -7.14100
  0.2410   -7.30400
  0.2430   -7.46000
  0.2450   -7.60900
  0.2470   -7.75100
  0.2490   -7.88500
  0.2510   -8.01200
  0.2530   -8.13300
  0.2550   -8.24600
  0.2570   -8.35200
  0.2590   -8.45000
  0.2610   -8.54000
  0.2630   -8.62400
  0.2650   -8.70100
  0.2670   -8.77100
  0.2690   -8.83400
  0.2710   -8.89000
  0.2730   -8.94000
  0.2750   -8.98300
  0.2770   -9.02000
  0.2790   -9.05000
  0.2810   -9.07300
  0.2830   -9.09000
  0.2850   -9.10000
  0.2870   -9.10400
  0.2890   -9.10200
  0.2910   -9.09400
  0.2930   -9.08100
  0.2950   -9.06100
  0.2970   -9.03500
  0.2990   -9.00400
  0.3010   -8.96800
  0.3030   -8.92700
  0.3050   -8.88200
  0.3070   -8.83200
  0.3090   -8.77700
  0.3110   -8.71800
  0.3130   -8.65500
  0.3150   -8.58700
  0.3170   -8.51500
  0.3190   -8.43800
  0.3210   -8.35900
  0.3230   -8.27500
  0.3250   -8.18800
  0.3270   -8.09800
  0.3290   -8.00400
  0.3310   -7.90800
  0.3330   -7.80900
  0.3350   -7.70700
  0.3370   -7.60200
  0.3390   -7.49400
  0.3410   -7.38400
  0.3430   -7.27300
  0.3450   -7.15900
  0.3470   -7.04200
  0.3490   -6.92500
  0.3510   -6.80500
  0.3530   -6.68400
  0.3550   -6.56100
  0.3570   -6.43800
  0.3590   -6.31300
  0.3610   -6.18700
  0.3630   -6.06100
  0.3650   -5.93300
  0.3670   -5.80500
  0.3690   -5.67700
  0.3710   -5.54800
  0.3730   -5.41900
  0.3750   -5.29000
  0.3770   -5.16100
  0.3790   -5.03300
  0.3810   -4.90500
  0.3830   -4.77800
  0.3850   -4.65100
  0.3870   -4.52500
  0.3890   -4.40100
  0.3910   -4.27700
  0.3930   -4.15400
  0.3950   -4.03300
  0.3970   -3.91300
  0.3990   -3.79500
  0.4010   -3.67900
  0.4030   -3.56600
  0.4050   -3.45400
  0.4070   -3.34500
  0.4090   -3.23800
  0.4110   -3.13300
  0.4130   -3.03100
  0.4150   -2.93100
  0.4170   -2.83400
  0.4190   -2.74000
  0.4210   -2.64900
  0.4230   -2.56100
  0.4250   -2.47600
  0.4270   -2.39400
  0.4290   -2.31600
  0.4310   -2.24000
  0.4330   -2.16900
  0.4350   -2.10100
  0.4370   -2.03600
  0.4390   -1.97400
  0.4410   -1.91600
  0.4430   -1.86100
  0.4450   -1.80900
  0.4470   -1.76100
  0.4490   -1.71600
  0.4510   -1.67500
  0.4530   -1.63600
  0.4550   -1.60100
  0.4570   -1.56900
  0.4590   -1.54000
  0.4610   -1.51400
  0.4630   -1.49000
  0.4650   -1.47000
  0.4670   -1.45300
  0.4690   -1.43800
  0.4710   -1.42500
  0.4730   -1.41500
  0.4750   -1.40700
  0.4770   -1.40200
  0.4790   -1.39800
  0.4810   -1.39600
  0.4830   -1.39600
  0.4850   -1.39800
  0.4870   -1.40200
  0.4890   -1.40700
  0.4910   -1.41300
  0.4930   -1.42000
  0.4950   -1.42900
  0.4970   -1.43800
  0.4990   -1.44900
  0.5010   -1.46000
  0.5030   -1.47200
  0.5050   -1.48400
  0.5070   -1.49700
  0.5090   -1.50900
  0.5110   -1.52200
  0.5130   -1.53500
  0.5150   -1.54800
  0.5170   -1.56100
  0.5190   -1.57400
  0.5210   -1.58600
  0.5230   -1.59800
  0.5250   -1.60900
  0.5270   -1.62100
  0.5290   -1.63100
  0.5310   -1.64100
  0.5330   -1.65100
  0.5350   -1.65900
  0.5370   -1.66700
  0.5390   -1.67400
  0.5410   -1.68100
  0.5430   -1.68700
  0.5450   -1.69100
  0.5470   -1.69500
  0.5490   -1.69800
  0.5510   -1.70000
  0.5530   -1.70100
  0.5550   -1.70200
  0.5570   -1.70100
  0.5590   -1.70000
  0.5610   -1.69700
  0.5630   -1.69400
  0.5650   -1.68900
  0.5670   -1.68400
  0.5690   -1.67900
  0.5710   -1.67200
  0.5730   -1.66400
  0.5750   -1.65600
  0.5770   -1.64700
  0.5790   -1.63700
  0.5810   -1.62700
  0.5830   -1.61500
  0.5850   -1.60400
  0.5870   -1.59100
  0.5890   -1.57800
  0.5910   -1.56500
  0.5930   -1.55100
  0.5950   -1.53600
  0.5970   -1.52100
  0.5990   -1.50500
  0.6010   -1.48900
  0.6030   -1.47300
  0.6050   -1.45600
  0.6070   -1.43900
  0.6090   -1.42200
  0.6110   -1.40400
  0.6130   -1.38600
  0.6150   -1.36800
  0.6170   -1.34900
  0.6190   -1.33100
  0.6210   -1.31200
  0.6230   -1.29300
  0.6250   -1.27400
  0.6270   -1.25500
  0.6290   -1.23500
  0.6310   -1.21600
  0.6330   -1.19600
  0.6350   -1.17600
  0.6370   -1.15700
  0.6390   -1.13700
  0.6410   -1.11700
  0.6430   -1.09800
  0.6450   -1.07800
  0.6470   -1.05800
  0.6490   -1.03900
  0.6510   -1.01900
  0.6530   -1.00000
  0.6550   -0.98000
  0.6570   -0.96100
  0.6590   -0.94200
  0.6610   -0.92200
  0.6630   -0.90300
  0.6650   -0.88400
  0.6670   -0.86600
  0.6690   -0.84700
  0.6710   -0.82800
  0.6730   -0.81000
  0.6750   -0.79200
  0.6770   -0.77400
  0.6790   -0.75600
  0.6810   -0.73900
  0.6830   -0.72200
  0.6850   -0.70500
  0.6870   -0.68800
  0.6890   -0.67100
  0.6910   -0.65500
  0.6930   -0.63900
  0.6950   -0.62300
  0.6970   -0.60800
  0.6990   -0.59200
  0.7010   -0.57800
  0.7030   -0.56300
  0.7050   -0.54900
  0.7070   -0.53500
  0.7090   -0.52100
  0.7110   -0.50800
  0.7130   -0.49500
  0.7150   -0.48200
  0.7170   -0.47000
  0.7190   -0.45800
  0.7210   -0.44700
  0.7230   -0.43600
  0.7250   -0.42500
  0.7270   -0.41500
  0.7290   -0.40500
  0.7310   -0.39600
  0.7330   -0.38600
  0.7350   -0.37800
  0.7370   -0.36900
  0.7390   -0.36200
  0.7410   -0.35400
  0.7430   -0.34700
  0.7450   -0.34000
  0.7470   -0.33300
  0.7490   -0.32700
  0.7510   -0.32100
  0.7530   -0.31600
  0.7550   -0.31100
  0.7570   -0.30600
  0.7590   -0.30200
  0.7610   -0.29800
  0.7630   -0.29400
  0.7650   -0.29000
  0.7670   -0.28700
  0.7690   -0.28400
  0.7710   -0.28100
  0.7730   -0.27900
  0.7750   -0.27700
  0.7770   -0.27500
  0.7790   -0.27300
  0.7810   -0.27200
  0.7830   -0.27100
  0.7850   -0.27000
  0.7870   -0.27000
  0.7890   -0.26900
  0.7910   -0.26900
  0.7930   -0.26800
  0.7950   -0.26900
  0.7970   -0.26900
  0.7990   -0.26900
  0.8010   -0.26900
  0.8030   -0.26900
  0.8050   -0.27000
  0.8070   -0.27000
  0.8090   -0.27100
  0.8110   -0.27100
  0.8130   -0.27200
  0.8150   -0.27300
  0.8170   -0.27400
  0.8190   -0.27400
  0.8210   -0.27500
  0.8230   -0.27600
  0.8250   -0.27600
  0.8270   -0.27700
  0.8290   -0.27700
  0.8310   -0.27800
  0.8330   -0.27800
  0.8350   -0.27800
  0.8370   -0.27900
  0.8390   -0.27900
  0.8410   -0.27900
  0.8430   -0.27900
  0.8450   -0.27900
  0.8470   -0.27900
  0.8490   -0.27900
  0.8510   -0.27800
  0.8530   -0.27800
  0.8550   -0.27800
  0.8570   -0.27700
  0.8590   -0.27600
  0.8610   -0.27500
  0.8630   -0.27500
  0.8650   -0.27400
  0.8670   -0.27300
  0.8690   -0.27200
  0.8710   -0.27100
  0.8730   -0.26900
  0.8750   -0.26800
  0.8770   -0.26700
  0.8790   -0.26600
  0.8810   -0.26500
  0.8830   -0.26400
  0.8850   -0.26200
  0.8870   -0.26100
  0.8890   -0.26000
  0.8910   -0.25900
  0.8930   -0.25800
  0.8950   -0.25700
  0.8970   -0.25600
  0.8990   -0.25500
  0.9010   -0.25500
  0.9030   -0.25400
  0.9050   -0.25300
  0.9070   -0.25200
  0.9090   -0.25200
  0.9110   -0.25100
  0.9130   -0.25100
  0.9150   -0.25100
  0.9170   -0.25000
  0.9190   -0.25000
  0.9210   -0.25000
  0.9230   -0.25000
  0.9250   -0.25000
  0.9270   -0.25000
  0.9290   -0.25000
  0.9310   -0.25000
  0.9330   -0.25000
  0.9350   -0.25100
  0.9370   -0.25100
  0.9390   -0.25100
  0.9410   -0.25100
  0.9430   -0.25100
  0.9450   -0.25100
  0.9470   -0.25100
  0.9490   -0.25100
  0.9510   -0.25000
  0.9530   -0.25000
  0.9550   -0.24900
  0.9570   -0.24800
  0.9590   -0.24800
  0.9610   -0.24700
  0.9630   -0.24600
  0.9650   -0.24400
  0.9670   -0.24300
  0.9690   -0.24100
  0.9710   -0.24000
  0.9730   -0.23800
  0.9750   -0.23600
  0.9770   -0.23300
  0.9790   -0.23000
  0.9810   -0.22800
  0.9830   -0.22500
  0.9850   -0.22100
  0.9870   -0.21800
  0.9890   -0.21500
  0.9910   -0.21100
  0.9930   -0.20700
  0.9950   -0.20300
  0.9970   -0.19900
  0.9990   -0.19400
  1.0010   -0.19000
  1.0030   -0.18500
  1.0050   -0.18000
  1.0070   -0.17500
  1.0090   -0.17000
  1.0110   -0.16500
  1.0130   -0.16000
  1.0150   -0.15500
  1.0170   -0.15000
  1.0190   -0.14500
  1.0210   -0.13900
  1.0230   -0.13400
  1.0250   -0.12800
  1.0270   -0.12300
  1.0290   -0.11800
  1.0310   -0.11300
  1.0330   -0.10800
  1.0350   -0.10300
  1.0370   -0.09800
  1.0390   -0.09300
  1.0410   -0.08900
  1.0430   -0.08400
  1.0450   -0.08000
  1.0470   -0.07600
  1.0490   -0.07200
  1.0510   -0.06800
  1.0530   -0.06500
  1.0550   -0.06100
  1.0570   -0.05800
  1.0590   -0.05500
  1.0610   -0.05200
  1.0630   -0.04900
  1.0650   -0.04700
  1.0670   -0.04500
  1.0690   -0.04200
  1.0710   -0.04000
  1.0730   -0.03900
  1.0750   -0.03700
  1.0770   -0.03600
  1.0790   -0.03400
  1.0810   -0.03300
  1.0830   -0.03200
  1.0850   -0.03100
  1.0870   -0.03000
  1.0890   -0.02900
  1.0910   -0.02900
  1.0930   -0.02800
  1.0950   -0.02800
  1.0970   -0.02700
  1.0990   -0.02700
  1.1010   -0.02700
  1.1030   -0.02700
  1.1050   -0.02700
  1.1070   -0.02800
  1.1090   -0.02800
  1.1110   -0.02800
  1.1130   -0.02800
  1.1150   -0.02900
  1.1170   -0.02900
  1.1190   -0.02900
  1.1210   -0.03000
  1.1230   -0.03000
  1.1250   -0.03100
  1.1270   -0.03200
  1.1290   -0.03200
  1.1310   -0.03300
  1.1330   -0.03300
  1.1350   -0.03400
  1.1370   -0.03500
  1.1390   -0.03500
  1.1410   -0.03600
  1.1430   -0.03700
  1.1450   -0.03800
  1.1470   -0.03900
  1.1490   -0.03900
  1.1510   -0.04000
  1.1530   -0.04100
  1.1550   -0.04200
  1.1570   -0.04200
  1.1590   -0.04300
  1.1610   -0.04400
  1.1630   -0.04500
  1.1650   -0.04500
  1.1670   -0.04600
  1.1690   -0.04700
  1.1710   -0.04700
  1.1730   -0.04800
  1.1750   -0.04800
  1.1770   -0.04800
  1.1790   -0.04900
  1.1810   -0.04900
  1.1830   -0.04900
  1.1850   -0.04900
  1.1870   -0.04900
  1.1890   -0.04900
  1.1910   -0.04900
  1.1930   -0.04800
  1.1950   -0.04800
  1.1970   -0.04800
  1.1990   -0.04800
  1.2010   -0.04700
  1.2030   -0.04700
  1.2050   -0.04600
  1.2070   -0.04500
  1.2090   -0.04500
  1.2110   -0.04400
  1.2130   -0.04300
  1.2150   -0.04200
  1.2170   -0.04100
  1.2190   -0.04000
  1.2210   -0.03900
  1.2230   -0.03800
  1.2250   -0.03800
  1.2270   -0.03700
  1.2290   -0.03600
  1.2310   -0.03500
  1.2330   -0.03400
  1.2350   -0.03300
  1.2370   -0.03200
  1.2390   -0.03100
  1.2410   -0.03100
  1.2430   -0.03000
  1.2450   -0.02900
  1.2470   -0.02800
  1.2490   -0.02800
  1.2510   -0.02700
  1.2530   -0.02700
  1.2550   -0.02700
  1.2570   -0.02600
  1.2590   -0.02600
  1.2610   -0.02600
  1.2630   -0.02500
  1.2650   -0.02500
  1.2670   -0.02500
  1.2690   -0.02600
  1.2710   -0.02600
  1.2730   -0.02500
  1.2750   -0.02500
  1.2770   -0.02500
  1.2790   -0.02500
  1.2810   -0.02500
  1.2830   -0.02500
  1.2850   -0.02500
  1.2870   -0.02500
  1.2890   -0.02500
  1.2910   -0.02500
  1.2930   -0.02500
  1.2950   -0.02500
  1.2970   -0.02500
  1.2990   -0.02500
  1.3010   -0.02400
  1.3030   -0.02400
  1.3050   -0.02300
  1.3070   -0.02200
  1.3090   -0.02200
  1.3110   -0.02100
  1.3130   -0.02000
  1.3150   -0.01900
  1.3170   -0.01700
  1.3190   -0.01600
  1.3210   -0.01500
  1.3230   -0.01300
  1.3250   -0.01100
  1.3270   -0.00900
  1.3290   -0.00700
  1.3310   -0.00400
  1.3330   -0.00200
  1.3350    0.00100
  1.3370    0.00400
  1.3390    0.00700
  1.3410    0.01000
  1.3430    0.01400
  1.3450    0.01700
  1.3470    0.02000
  1.3490    0.02400
  1.3510    0.02800
  1.3530    0.03200
  1.3550    0.03600
  1.3570    0.04000
  1.3590    0.04400
  1.3610    0.04800
  1.3630    0.05200
  1.3650    0.05600
  1.3670    0.06000
  1.3690    0.06400
  1.3710    0.06800
  1.3730    0.07200
  1.3750    0.07700
  1.3770    0.08000
  1.3790    0.08400
  1.3810    0.08700
  1.3830    0.09100
  1.3850    0.09400
  1.3870    0.09600
  1.3890    0.09900
  1.3910    0.10100
  1.3930    0.10200
  1.3950    0.10300
  1.3970    0.10400
  1.3990    0.10500
