# z (nm)   (kJ/mol)
  0.1130   -3.95600
  0.1150   -4.61400
  0.1170   -5.36300
  0.1190   -6.12200
  0.1210   -6.87100
  0.1230   -7.61600
  0.1250   -8.35200
  0.1270   -9.06900
  0.1290   -9.78400
  0.1310  -10.49200
  0.1330  -11.18700
  0.1350  -11.87500
  0.1370  -12.54400
  0.1390  -13.19700
  0.1410  -13.83300
  0.1430  -14.45400
  0.1450  -15.05500
  0.1470  -15.63300
  0.1490  -16.19300
  0.1510  -16.73200
  0.1530  -17.24900
  0.1550  -17.74400
  0.1570  -18.21700
  0.1590  -18.66800
  0.1610  -19.09600
  0.1630  -19.50000
  0.1650  -19.88100
  0.1670  -20.23900
  0.1690  -20.57300
  0.1710  -20.88100
  0.1730  -21.16500
  0.1750  -21.42700
  0.1770  -21.66400
  0.1790  -21.87700
  0.1810  -22.06700
  0.1830  -22.23300
  0.1850  -22.37700
  0.1870  -22.49800
  0.1890  -22.59600
  0.1910  -22.67300
  0.1930  -22.72900
  0.1950  -22.76500
  0.1970  -22.78200
  0.1990  -22.78000
  0.2010  -22.76000
  0.2030  -22.72100
  0.2050  -22.66600
  0.2070  -22.59400
  0.2090  -22.50900
  0.2110  -22.41000
  0.2130  -22.29800
  0.2150  -22.17400
  0.2170  -22.04100
  0.2190  -21.89800
  0.2210  -21.74400
  0.2230  -21.58400
  0.2250  -21.41700
  0.2270  -21.24300
  0.2290  -21.06300
  0.2310  -20.88000
  0.2330  -20.69300
  0.2350  -20.50300
  0.2370  -20.31200
  0.2390  -20.11700
  0.2410  -19.92100
  0.2430  -19.72400
  0.2450  -19.52600
  0.2470  -19.32800
  0.2490  -19.13100
  0.2510  -18.93400
  0.2530  -18.73800
  0.2550  -18.54400
  0.2570  -18.35000
  0.2590  -18.15800
  0.2610  -17.96700
  0.2630  -17.77800
  0.2650  -17.59100
  0.2670  -17.40500
  0.2690  -17.22000
  0.2710  -17.03800
  0.2730  -16.85700
  0.2750  -16.67800
  0.2770  -16.49900
  0.2790  -16.32200
  0.2810  -16.14600
  0.2830  -15.97200
  0.2850  -15.80000
  0.2870  -15.62800
  0.2890  -15.45700
  0.2910  -15.28600
  0.2930  -15.11600
  0.2950  -14.94700
  0.2970  -14.77800
  0.2990  -14.61000
  0.3010  -14.44300
  0.3030  -14.27500
  0.3050  -14.10800
  0.3070  -13.94200
  0.3090  -13.77500
  0.3110  -13.60800
  0.3130  -13.44100
  0.3150  -13.27500
  0.3170  -13.10800
  0.3190  -12.94200
  0.3210  -12.77600
  0.3230  -12.60900
  0.3250  -12.44400
  0.3270  -12.27800
  0.3290  -12.11200
  0.3310  -11.94600
  0.3330  -11.78100
  0.3350  -11.61700
  0.3370  -11.45300
  0.3390  -11.28900
  0.3410  -11.12500
  0.3430  -10.96200
  0.3450  -10.80000
  0.3470  -10.63800
  0.3490  -10.47700
  0.3510  -10.31700
  0.3530  -10.15700
  0.3550   -9.99800
  0.3570   -9.84000
  0.3590   -9.68300
  0.3610   -9.52600
  0.3630   -9.37000
  0.3650   -9.21500
  0.3670   -9.06100
  0.3690   -8.90700
  0.3710   -8.75400
  0.3730   -8.60200
  0.3750   -8.45100
  0.3770   -8.30100
  0.3790   -8.15100
  0.3810   -8.00200
  0.3830   -7.85400
  0.3850   -7.70700
  0.3870   -7.56100
  0.3890   -7.41500
  0.3910   -7.27100
  0.3930   -7.12700
  0.3950   -6.98300
  0.3970   -6.84100
  0.3990   -6.69900
  0.4010   -6.55800
  0.4030   -6.41800
  0.4050   -6.27800
  0.4070   -6.14000
  0.4090   -6.00200
  0.4110   -5.86500
  0.4130   -5.73000
  0.4150   -5.59500
  0.4170   -5.46100
  0.4190   -5.32900
  0.4210   -5.19800
  0.4230   -5.06700
  0.4250   -4.93900
  0.4270   -4.81100
  0.4290   -4.68400
  0.4310   -4.55900
  0.4330   -4.43400
  0.4350   -4.31100
  0.4370   -4.18900
  0.4390   -4.07000
  0.4410   -3.95100
  0.4430   -3.83500
  0.4450   -3.72100
  0.4470   -3.60800
  0.4490   -3.49800
  0.4510   -3.38900
  0.4530   -3.28300
  0.4550   -3.18000
  0.4570   -3.07800
  0.4590   -2.97800
  0.4610   -2.88100
  0.4630   -2.78700
  0.4650   -2.69500
  0.4670   -2.60600
  0.4690   -2.52000
  0.4710   -2.43700
  0.4730   -2.35700
  0.4750   -2.28000
  0.4770   -2.20500
  0.4790   -2.13400
  0.4810   -2.06700
  0.4830   -2.00200
  0.4850   -1.94000
  0.4870   -1.88100
  0.4890   -1.82500
  0.4910   -1.77300
  0.4930   -1.72300
  0.4950   -1.67700
  0.4970   -1.63300
  0.4990   -1.59300
  0.5010   -1.55600
  0.5030   -1.52300
  0.5050   -1.49100
  0.5070   -1.46300
  0.5090   -1.43800
  0.5110   -1.41600
  0.5130   -1.39500
  0.5150   -1.37800
  0.5170   -1.36300
  0.5190   -1.35100
  0.5210   -1.34100
  0.5230   -1.33300
  0.5250   -1.32800
  0.5270   -1.32400
  0.5290   -1.32300
  0.5310   -1.32300
  0.5330   -1.32600
  0.5350   -1.33000
  0.5370   -1.33600
  0.5390   -1.34200
  0.5410   -1.35100
  0.5430   -1.36000
  0.5450   -1.37100
  0.5470   -1.38200
  0.5490   -1.39400
  0.5510   -1.40700
  0.5530   -1.42100
  0.5550   -1.43600
  0.5570   -1.45000
  0.5590   -1.46500
  0.5610   -1.48100
  0.5630   -1.49600
  0.5650   -1.51100
  0.5670   -1.52600
  0.5690   -1.54100
  0.5710   -1.55600
  0.5730   -1.57100
  0.5750   -1.58600
  0.5770   -1.59900
  0.5790   -1.61300
  0.5810   -1.62600
  0.5830   -1.63800
  0.5850   -1.65000
  0.5870   -1.66100
  0.5890   -1.67200
  0.5910   -1.68100
  0.5930   -1.69000
  0.5950   -1.69800
  0.5970   -1.70600
  0.5990   -1.71300
  0.6010   -1.71800
  0.6030   -1.72300
  0.6050   -1.72700
  0.6070   -1.73100
  0.6090   -1.73300
  0.6110   -1.73500
  0.6130   -1.73600
  0.6150   -1.73500
  0.6170   -1.73400
  0.6190   -1.73200
  0.6210   -1.73000
  0.6230   -1.72600
  0.6250   -1.72200
  0.6270   -1.71800
  0.6290   -1.71200
  0.6310   -1.70600
  0.6330   -1.69900
  0.6350   -1.69100
  0.6370   -1.68300
  0.6390   -1.67400
  0.6410   -1.66500
  0.6430   -1.65500
  0.6450   -1.64400
  0.6470   -1.63300
  0.6490   -1.62200
  0.6510   -1.61000
  0.6530   -1.59700
  0.6550   -1.58400
  0.6570   -1.57000
  0.6590   -1.55600
  0.6610   -1.54200
  0.6630   -1.52800
  0.6650   -1.51300
  0.6670   -1.49700
  0.6690   -1.48200
  0.6710   -1.46600
  0.6730   -1.44900
  0.6750   -1.43300
  0.6770   -1.41600
  0.6790   -1.39900
  0.6810   -1.38200
  0.6830   -1.36500
  0.6850   -1.34700
  0.6870   -1.32900
  0.6890   -1.31100
  0.6910   -1.29300
  0.6930   -1.27400
  0.6950   -1.25500
  0.6970   -1.23700
  0.6990   -1.21800
  0.7010   -1.19900
  0.7030   -1.17900
  0.7050   -1.16000
  0.7070   -1.14100
  0.7090   -1.12100
  0.7110   -1.10200
  0.7130   -1.08300
  0.7150   -1.06300
  0.7170   -1.04300
  0.7190   -1.02400
  0.7210   -1.00400
  0.7230   -0.98500
  0.7250   -0.96600
  0.7270   -0.94600
  0.7290   -0.92700
  0.7310   -0.90800
  0.7330   -0.88900
  0.7350   -0.87000
  0.7370   -0.85200
  0.7390   -0.83300
  0.7410   -0.81500
  0.7430   -0.79800
  0.7450   -0.78000
  0.7470   -0.76300
  0.7490   -0.74600
  0.7510   -0.72900
  0.7530   -0.71300
  0.7550   -0.69700
  0.7570   -0.68100
  0.7590   -0.66600
  0.7610   -0.65100
  0.7630   -0.63700
  0.7650   -0.62300
  0.7670   -0.60900
  0.7690   -0.59700
  0.7710   -0.58400
  0.7730   -0.57200
  0.7750   -0.56000
  0.7770   -0.54900
  0.7790   -0.53800
  0.7810   -0.52800
  0.7830   -0.51800
  0.7850   -0.50800
  0.7870   -0.49900
  0.7890   -0.49100
  0.7910   -0.48200
  0.7930   -0.47500
  0.7950   -0.46800
  0.7970   -0.46100
  0.7990   -0.45400
  0.8010   -0.44800
  0.8030   -0.44300
  0.8050   -0.43800
  0.8070   -0.43300
  0.8090   -0.42800
  0.8110   -0.42500
  0.8130   -0.42100
  0.8150   -0.41800
  0.8170   -0.41500
  0.8190   -0.41200
  0.8210   -0.41000
  0.8230   -0.40800
  0.8250   -0.40600
  0.8270   -0.40500
  0.8290   -0.40300
  0.8310   -0.40300
  0.8330   -0.40200
  0.8350   -0.40200
  0.8370   -0.40200
  0.8390   -0.40300
  0.8410   -0.40300
  0.8430   -0.40400
  0.8450   -0.40500
  0.8470   -0.40500
  0.8490   -0.40600
  0.8510   -0.40700
  0.8530   -0.40900
  0.8550   -0.41000
  0.8570   -0.41200
  0.8590   -0.41300
  0.8610   -0.41500
  0.8630   -0.41700
  0.8650   -0.41900
  0.8670   -0.42100
  0.8690   -0.42300
  0.8710   -0.42500
  0.8730   -0.42800
  0.8750   -0.43000
  0.8770   -0.43200
  0.8790   -0.43500
  0.8810   -0.43700
  0.8830   -0.43900
  0.8850   -0.44100
  0.8870   -0.44400
  0.8890   -0.44600
  0.8910   -0.44900
  0.8930   -0.45100
  0.8950   -0.45300
  0.8970   -0.45600
  0.8990   -0.45800
  0.9010   -0.46000
  0.9030   -0.46200
  0.9050   -0.46400
  0.9070   -0.46600
  0.9090   -0.46800
  0.9110   -0.46900
  0.9130   -0.47100
  0.9150   -0.47300
  0.9170   -0.47400
  0.9190   -0.47600
  0.9210   -0.47700
  0.9230   -0.47800
  0.9250   -0.48000
  0.9270   -0.48100
  0.9290   -0.48100
  0.9310   -0.48200
  0.9330   -0.48300
  0.9350   -0.48300
  0.9370   -0.48400
  0.9390   -0.48400
  0.9410   -0.48400
  0.9430   -0.48400
  0.9450   -0.48400
  0.9470   -0.48400
  0.9490   -0.48400
  0.9510   -0.48300
  0.9530   -0.48300
  0.9550   -0.48200
  0.9570   -0.48100
  0.9590   -0.48100
  0.9610   -0.48000
  0.9630   -0.47900
  0.9650   -0.47800
  0.9670   -0.47600
  0.9690   -0.47500
  0.9710   -0.47300
  0.9730   -0.47200
  0.9750   -0.47000
  0.9770   -0.46800
  0.9790   -0.46600
  0.9810   -0.46400
  0.9830   -0.46200
  0.9850   -0.46000
  0.9870   -0.45800
  0.9890   -0.45500
  0.9910   -0.45300
  0.9930   -0.45000
  0.9950   -0.44800
  0.9970   -0.44500
  0.9990   -0.44200
  1.0010   -0.43900
  1.0030   -0.43600
  1.0050   -0.43300
  1.0070   -0.43000
  1.0090   -0.42600
  1.0110   -0.42300
  1.0130   -0.42000
  1.0150   -0.41600
  1.0170   -0.41200
  1.0190   -0.40800
  1.0210   -0.40400
  1.0230   -0.39900
  1.0250   -0.39500
  1.0270   -0.39100
  1.0290   -0.38600
  1.0310   -0.38200
  1.0330   -0.37700
  1.0350   -0.37200
  1.0370   -0.36700
  1.0390   -0.36300
  1.0410   -0.35800
  1.0430   -0.35200
  1.0450   -0.34700
  1.0470   -0.34200
  1.0490   -0.33600
  1.0510   -0.33100
  1.0530   -0.32500
  1.0550   -0.32000
  1.0570   -0.31400
  1.0590   -0.30900
  1.0610   -0.30300
  1.0630   -0.29700
  1.0650   -0.29100
  1.0670   -0.28500
  1.0690   -0.28000
  1.0710   -0.27400
  1.0730   -0.26800
  1.0750   -0.26200
  1.0770   -0.25700
  1.0790   -0.25100
  1.0810   -0.24500
  1.0830   -0.23900
  1.0850   -0.23300
  1.0870   -0.22800
  1.0890   -0.22200
  1.0910   -0.21600
  1.0930   -0.21100
  1.0950   -0.20600
  1.0970   -0.20000
  1.0990   -0.19500
  1.1010   -0.19000
  1.1030   -0.18500
  1.1050   -0.18000
  1.1070   -0.17500
  1.1090   -0.17000
  1.1110   -0.16500
  1.1130   -0.16100
  1.1150   -0.15600
  1.1170   -0.15200
  1.1190   -0.14800
  1.1210   -0.14300
  1.1230   -0.13900
  1.1250   -0.13500
  1.1270   -0.13100
  1.1290   -0.12700
  1.1310   -0.12300
  1.1330   -0.12000
  1.1350   -0.11600
  1.1370   -0.11300
  1.1390   -0.10900
  1.1410   -0.10600
  1.1430   -0.10300
  1.1450   -0.10000
  1.1470   -0.09700
  1.1490   -0.09400
  1.1510   -0.09100
  1.1530   -0.08800
  1.1550   -0.08600
  1.1570   -0.08300
  1.1590   -0.08100
  1.1610   -0.07800
  1.1630   -0.07600
  1.1650   -0.07400
  1.1670   -0.07200
  1.1690   -0.07000
  1.1710   -0.06800
  1.1730   -0.06600
  1.1750   -0.06400
  1.1770   -0.06200
  1.1790   -0.06100
  1.1810   -0.05900
  1.1830   -0.05800
  1.1850   -0.05700
  1.1870   -0.05500
  1.1890   -0.05400
  1.1910   -0.05300
  1.1930   -0.05200
  1.1950   -0.05100
  1.1970   -0.05000
  1.1990   -0.04900
  1.2010   -0.04800
  1.2030   -0.04700
  1.2050   -0.04700
  1.2070   -0.04600
  1.2090   -0.04600
  1.2110   -0.04500
  1.2130   -0.04500
  1.2150   -0.04500
  1.2170   -0.04400
  1.2190   -0.04400
  1.2210   -0.04400
  1.2230   -0.04400
  1.2250   -0.04400
  1.2270   -0.04400
  1.2290   -0.04400
  1.2310   -0.04400
  1.2330   -0.04500
  1.2350   -0.04500
  1.2370   -0.04500
  1.2390   -0.04500
  1.2410   -0.04600
  1.2430   -0.04600
  1.2450   -0.04600
  1.2470   -0.04700
  1.2490   -0.04700
  1.2510   -0.04700
  1.2530   -0.04700
  1.2550   -0.04700
  1.2570   -0.04700
  1.2590   -0.04700
  1.2610   -0.04700
  1.2630   -0.04700
  1.2650   -0.04700
  1.2670   -0.04700
  1.2690   -0.04700
  1.2710   -0.04600
  1.2730   -0.04500
  1.2750   -0.04500
  1.2770   -0.04400
  1.2790   -0.04400
  1.2810   -0.04300
  1.2830   -0.04200
  1.2850   -0.04000
  1.2870   -0.03900
  1.2890   -0.03700
  1.2910   -0.03600
  1.2930   -0.03400
  1.2950   -0.03200
  1.2970   -0.03000
  1.2990   -0.02800
  1.3010   -0.02600
  1.3030   -0.02300
  1.3050   -0.02100
  1.3070   -0.01800
  1.3090   -0.01500
  1.3110   -0.01200
  1.3130   -0.00900
  1.3150   -0.00600
  1.3170   -0.00300
  1.3190    0.00100
  1.3210    0.00400
  1.3230    0.00800
  1.3250    0.01100
  1.3270    0.01500
  1.3290    0.01900
  1.3310    0.02200
  1.3330    0.02600
  1.3350    0.02900
  1.3370    0.03200
  1.3390    0.03600
  1.3410    0.04000
  1.3430    0.04300
  1.3450    0.04600
  1.3470    0.05000
  1.3490    0.05300
  1.3510    0.05600
  1.3530    0.05900
  1.3550    0.06200
  1.3570    0.06500
  1.3590    0.06800
  1.3610    0.07000
  1.3630    0.07300
  1.3650    0.07500
  1.3670    0.07700
  1.3690    0.07900
  1.3710    0.08100
  1.3730    0.08200
  1.3750    0.08400
  1.3770    0.08500
  1.3790    0.08600
  1.3810    0.08700
  1.3830    0.08700
  1.3850    0.08700
  1.3870    0.08700
  1.3890    0.08700
  1.3910    0.08600
  1.3930    0.08500
  1.3950    0.08300
  1.3970    0.08200
  1.3990    0.07900
