# z (nm)   (kJ/mol)
  0.1350    9.59200
  0.1370    9.16500
  0.1390    8.67600
  0.1410    8.22100
  0.1430    7.79700
  0.1450    7.34500
  0.1470    6.87200
  0.1490    6.40200
  0.1510    5.94600
  0.1530    5.48400
  0.1550    4.99900
  0.1570    4.50800
  0.1590    4.02100
  0.1610    3.52600
  0.1630    3.03000
  0.1650    2.53200
  0.1670    2.02500
  0.1690    1.51700
  0.1710    1.01200
  0.1730    0.51900
  0.1750    0.02800
  0.1770   -0.46700
  0.1790   -0.96100
  0.1810   -1.44500
  0.1830   -1.92100
  0.1850   -2.39800
  0.1870   -2.86900
  0.1890   -3.33000
  0.1910   -3.78300
  0.1930   -4.22700
  0.1950   -4.66700
  0.1970   -5.09600
  0.1990   -5.51500
  0.2010   -5.92700
  0.2030   -6.33200
  0.2050   -6.72800
  0.2070   -7.10900
  0.2090   -7.48100
  0.2110   -7.84100
  0.2130   -8.19100
  0.2150   -8.53000
  0.2170   -8.85600
  0.2190   -9.17100
  0.2210   -9.47400
  0.2230   -9.76400
  0.2250  -10.04200
  0.2270  -10.30700
  0.2290  -10.55900
  0.2310  -10.79700
  0.2330  -11.02200
  0.2350  -11.23500
  0.2370  -11.43500
  0.2390  -11.62200
  0.2410  -11.79500
  0.2430  -11.95600
  0.2450  -12.10400
  0.2470  -12.24000
  0.2490  -12.36300
  0.2510  -12.47400
  0.2530  -12.57300
  0.2550  -12.65900
  0.2570  -12.73500
  0.2590  -12.79900
  0.2610  -12.85200
  0.2630  -12.89700
  0.2650  -12.93100
  0.2670  -12.95500
  0.2690  -12.96900
  0.2710  -12.97600
  0.2730  -12.97400
  0.2750  -12.96500
  0.2770  -12.94900
  0.2790  -12.92500
  0.2810  -12.89400
  0.2830  -12.85800
  0.2850  -12.81600
  0.2870  -12.76900
  0.2890  -12.71700
  0.2910  -12.66000
  0.2930  -12.59900
  0.2950  -12.53400
  0.2970  -12.46500
  0.2990  -12.39500
  0.3010  -12.32100
  0.3030  -12.24400
  0.3050  -12.16500
  0.3070  -12.08400
  0.3090  -12.00100
  0.3110  -11.91600
  0.3130  -11.83000
  0.3150  -11.74300
  0.3170  -11.65500
  0.3190  -11.56600
  0.3210  -11.47500
  0.3230  -11.38300
  0.3250  -11.29000
  0.3270  -11.19600
  0.3290  -11.10100
  0.3310  -11.00500
  0.3330  -10.90800
  0.3350  -10.81100
  0.3370  -10.71300
  0.3390  -10.61200
  0.3410  -10.51100
  0.3430  -10.40800
  0.3450  -10.30500
  0.3470  -10.20100
  0.3490  -10.09500
  0.3510   -9.98900
  0.3530   -9.88000
  0.3550   -9.77100
  0.3570   -9.66100
  0.3590   -9.54900
  0.3610   -9.43500
  0.3630   -9.32000
  0.3650   -9.20300
  0.3670   -9.08500
  0.3690   -8.96500
  0.3710   -8.84300
  0.3730   -8.71900
  0.3750   -8.59500
  0.3770   -8.46900
  0.3790   -8.34100
  0.3810   -8.21200
  0.3830   -8.08100
  0.3850   -7.94900
  0.3870   -7.81600
  0.3890   -7.68100
  0.3910   -7.54500
  0.3930   -7.40700
  0.3950   -7.26900
  0.3970   -7.12900
  0.3990   -6.98800
  0.4010   -6.84700
  0.4030   -6.70600
  0.4050   -6.56400
  0.4070   -6.42100
  0.4090   -6.27800
  0.4110   -6.13600
  0.4130   -5.99300
  0.4150   -5.85100
  0.4170   -5.70900
  0.4190   -5.56700
  0.4210   -5.42600
  0.4230   -5.28600
  0.4250   -5.14700
  0.4270   -5.00900
  0.4290   -4.87200
  0.4310   -4.73800
  0.4330   -4.60500
  0.4350   -4.47300
  0.4370   -4.34400
  0.4390   -4.21700
  0.4410   -4.09200
  0.4430   -3.96900
  0.4450   -3.84900
  0.4470   -3.73200
  0.4490   -3.61700
  0.4510   -3.50600
  0.4530   -3.39800
  0.4550   -3.29300
  0.4570   -3.19100
  0.4590   -3.09100
  0.4610   -2.99500
  0.4630   -2.90400
  0.4650   -2.81600
  0.4670   -2.73100
  0.4690   -2.65000
  0.4710   -2.57300
  0.4730   -2.49900
  0.4750   -2.43000
  0.4770   -2.36300
  0.4790   -2.30100
  0.4810   -2.24200
  0.4830   -2.18600
  0.4850   -2.13500
  0.4870   -2.08600
  0.4890   -2.04100
  0.4910   -2.00000
  0.4930   -1.96100
  0.4950   -1.92600
  0.4970   -1.89300
  0.4990   -1.86400
  0.5010   -1.83800
  0.5030   -1.81400
  0.5050   -1.79300
  0.5070   -1.77500
  0.5090   -1.75800
  0.5110   -1.74400
  0.5130   -1.73100
  0.5150   -1.72100
  0.5170   -1.71300
  0.5190   -1.70600
  0.5210   -1.70100
  0.5230   -1.69700
  0.5250   -1.69500
  0.5270   -1.69400
  0.5290   -1.69400
  0.5310   -1.69500
  0.5330   -1.69700
  0.5350   -1.70000
  0.5370   -1.70300
  0.5390   -1.70600
  0.5410   -1.71000
  0.5430   -1.71400
  0.5450   -1.71900
  0.5470   -1.72400
  0.5490   -1.72800
  0.5510   -1.73300
  0.5530   -1.73800
  0.5550   -1.74200
  0.5570   -1.74600
  0.5590   -1.74900
  0.5610   -1.75300
  0.5630   -1.75600
  0.5650   -1.75800
  0.5670   -1.76000
  0.5690   -1.76200
  0.5710   -1.76300
  0.5730   -1.76300
  0.5750   -1.76300
  0.5770   -1.76300
  0.5790   -1.76200
  0.5810   -1.76000
  0.5830   -1.75700
  0.5850   -1.75400
  0.5870   -1.75000
  0.5890   -1.74600
  0.5910   -1.74100
  0.5930   -1.73500
  0.5950   -1.72900
  0.5970   -1.72200
  0.5990   -1.71500
  0.6010   -1.70700
  0.6030   -1.69800
  0.6050   -1.68900
  0.6070   -1.67900
  0.6090   -1.66800
  0.6110   -1.65800
  0.6130   -1.64600
  0.6150   -1.63500
  0.6170   -1.62200
  0.6190   -1.61000
  0.6210   -1.59700
  0.6230   -1.58300
  0.6250   -1.56900
  0.6270   -1.55500
  0.6290   -1.54000
  0.6310   -1.52500
  0.6330   -1.51000
  0.6350   -1.49400
  0.6370   -1.47900
  0.6390   -1.46200
  0.6410   -1.44600
  0.6430   -1.43000
  0.6450   -1.41300
  0.6470   -1.39500
  0.6490   -1.37800
  0.6510   -1.36100
  0.6530   -1.34300
  0.6550   -1.32600
  0.6570   -1.30800
  0.6590   -1.29000
  0.6610   -1.27200
  0.6630   -1.25400
  0.6650   -1.23500
  0.6670   -1.21700
  0.6690   -1.19900
  0.6710   -1.18100
  0.6730   -1.16300
  0.6750   -1.14500
  0.6770   -1.12600
  0.6790   -1.10800
  0.6810   -1.09000
  0.6830   -1.07200
  0.6850   -1.05400
  0.6870   -1.03700
  0.6890   -1.01900
  0.6910   -1.00200
  0.6930   -0.98400
  0.6950   -0.96700
  0.6970   -0.95000
  0.6990   -0.93300
  0.7010   -0.91700
  0.7030   -0.90100
  0.7050   -0.88500
  0.7070   -0.86900
  0.7090   -0.85400
  0.7110   -0.83900
  0.7130   -0.82400
  0.7150   -0.80900
  0.7170   -0.79500
  0.7190   -0.78100
  0.7210   -0.76700
  0.7230   -0.75400
  0.7250   -0.74000
  0.7270   -0.72800
  0.7290   -0.71500
  0.7310   -0.70300
  0.7330   -0.69200
  0.7350   -0.68000
  0.7370   -0.66900
  0.7390   -0.65900
  0.7410   -0.64800
  0.7430   -0.63800
  0.7450   -0.62800
  0.7470   -0.61900
  0.7490   -0.61000
  0.7510   -0.60100
  0.7530   -0.59200
  0.7550   -0.58400
  0.7570   -0.57600
  0.7590   -0.56800
  0.7610   -0.56100
  0.7630   -0.55300
  0.7650   -0.54600
  0.7670   -0.54000
  0.7690   -0.53300
  0.7710   -0.52700
  0.7730   -0.52100
  0.7750   -0.51500
  0.7770   -0.51000
  0.7790   -0.50400
  0.7810   -0.49900
  0.7830   -0.49400
  0.7850   -0.48900
  0.7870   -0.48400
  0.7890   -0.47900
  0.7910   -0.47500
  0.7930   -0.47100
  0.7950   -0.46600
  0.7970   -0.46200
  0.7990   -0.45800
  0.8010   -0.45500
  0.8030   -0.45100
  0.8050   -0.44800
  0.8070   -0.44500
  0.8090   -0.44200
  0.8110   -0.43900
  0.8130   -0.43600
  0.8150   -0.43300
  0.8170   -0.43000
  0.8190   -0.42800
  0.8210   -0.42500
  0.8230   -0.42300
  0.8250   -0.42100
  0.8270   -0.41900
  0.8290   -0.41600
  0.8310   -0.41500
  0.8330   -0.41300
  0.8350   -0.41100
  0.8370   -0.41000
  0.8390   -0.40800
  0.8410   -0.40700
  0.8430   -0.40600
  0.8450   -0.40400
  0.8470   -0.40300
  0.8490   -0.40200
  0.8510   -0.40200
  0.8530   -0.40100
  0.8550   -0.40100
  0.8570   -0.40000
  0.8590   -0.40000
  0.8610   -0.40000
  0.8630   -0.39900
  0.8650   -0.39900
  0.8670   -0.39900
  0.8690   -0.40000
  0.8710   -0.40000
  0.8730   -0.40000
  0.8750   -0.40000
  0.8770   -0.40100
  0.8790   -0.40100
  0.8810   -0.40100
  0.8830   -0.40200
  0.8850   -0.40300
  0.8870   -0.40300
  0.8890   -0.40300
  0.8910   -0.40400
  0.8930   -0.40400
  0.8950   -0.40400
  0.8970   -0.40500
  0.8990   -0.40500
  0.9010   -0.40600
  0.9030   -0.40600
  0.9050   -0.40600
  0.9070   -0.40700
  0.9090   -0.40700
  0.9110   -0.40700
  0.9130   -0.40800
  0.9150   -0.40800
  0.9170   -0.40800
  0.9190   -0.40800
  0.9210   -0.40800
  0.9230   -0.40800
  0.9250   -0.40800
  0.9270   -0.40700
  0.9290   -0.40700
  0.9310   -0.40700
  0.9330   -0.40600
  0.9350   -0.40600
  0.9370   -0.40600
  0.9390   -0.40500
  0.9410   -0.40500
  0.9430   -0.40400
  0.9450   -0.40200
  0.9470   -0.40100
  0.9490   -0.40000
  0.9510   -0.39900
  0.9530   -0.39800
  0.9550   -0.39600
  0.9570   -0.39500
  0.9590   -0.39300
  0.9610   -0.39100
  0.9630   -0.38900
  0.9650   -0.38700
  0.9670   -0.38500
  0.9690   -0.38300
  0.9710   -0.38000
  0.9730   -0.37800
  0.9750   -0.37600
  0.9770   -0.37300
  0.9790   -0.37000
  0.9810   -0.36600
  0.9830   -0.36300
  0.9850   -0.36000
  0.9870   -0.35600
  0.9890   -0.35300
  0.9910   -0.34900
  0.9930   -0.34500
  0.9950   -0.34100
  0.9970   -0.33700
  0.9990   -0.33300
  1.0010   -0.32900
  1.0030   -0.32400
  1.0050   -0.32000
  1.0070   -0.31500
  1.0090   -0.31000
  1.0110   -0.30600
  1.0130   -0.30100
  1.0150   -0.29600
  1.0170   -0.29100
  1.0190   -0.28700
  1.0210   -0.28200
  1.0230   -0.27700
  1.0250   -0.27200
  1.0270   -0.26700
  1.0290   -0.26200
  1.0310   -0.25800
  1.0330   -0.25300
  1.0350   -0.24800
  1.0370   -0.24300
  1.0390   -0.23900
  1.0410   -0.23400
  1.0430   -0.23000
  1.0450   -0.22600
  1.0470   -0.22100
  1.0490   -0.21700
  1.0510   -0.21300
  1.0530   -0.20900
  1.0550   -0.20500
  1.0570   -0.20200
  1.0590   -0.19800
  1.0610   -0.19500
  1.0630   -0.19200
  1.0650   -0.18900
  1.0670   -0.18600
  1.0690   -0.18300
  1.0710   -0.18000
  1.0730   -0.17800
  1.0750   -0.17500
  1.0770   -0.17300
  1.0790   -0.17100
  1.0810   -0.16900
  1.0830   -0.16700
  1.0850   -0.16600
  1.0870   -0.16400
  1.0890   -0.16300
  1.0910   -0.16100
  1.0930   -0.16000
  1.0950   -0.15800
  1.0970   -0.15700
  1.0990   -0.15600
  1.1010   -0.15500
  1.1030   -0.15400
  1.1050   -0.15300
  1.1070   -0.15200
  1.1090   -0.15200
  1.1110   -0.15100
  1.1130   -0.15000
  1.1150   -0.14900
  1.1170   -0.14800
  1.1190   -0.14600
  1.1210   -0.14500
  1.1230   -0.14400
  1.1250   -0.14300
  1.1270   -0.14200
  1.1290   -0.14000
  1.1310   -0.13900
  1.1330   -0.13800
  1.1350   -0.13600
  1.1370   -0.13400
  1.1390   -0.13300
  1.1410   -0.13100
  1.1430   -0.12900
  1.1450   -0.12700
  1.1470   -0.12500
  1.1490   -0.12300
  1.1510   -0.12100
  1.1530   -0.11900
  1.1550   -0.11600
  1.1570   -0.11400
  1.1590   -0.11200
  1.1610   -0.10900
  1.1630   -0.10700
  1.1650   -0.10400
  1.1670   -0.10100
  1.1690   -0.09800
  1.1710   -0.09600
  1.1730   -0.09300
  1.1750   -0.09000
  1.1770   -0.08800
  1.1790   -0.08600
  1.1810   -0.08300
  1.1830   -0.08000
  1.1850   -0.07800
  1.1870   -0.07500
  1.1890   -0.07300
  1.1910   -0.07100
  1.1930   -0.06900
  1.1950   -0.06600
  1.1970   -0.06400
  1.1990   -0.06200
  1.2010   -0.06000
  1.2030   -0.05800
  1.2050   -0.05600
  1.2070   -0.05400
  1.2090   -0.05300
  1.2110   -0.05100
  1.2130   -0.05000
  1.2150   -0.04800
  1.2170   -0.04700
  1.2190   -0.04600
  1.2210   -0.04500
  1.2230   -0.04400
  1.2250   -0.04300
  1.2270   -0.04200
  1.2290   -0.04100
  1.2310   -0.04000
  1.2330   -0.04000
  1.2350   -0.03900
  1.2370   -0.03900
  1.2390   -0.03800
  1.2410   -0.03700
  1.2430   -0.03700
  1.2450   -0.03700
  1.2470   -0.03600
  1.2490   -0.03600
  1.2510   -0.03500
  1.2530   -0.03500
  1.2550   -0.03500
  1.2570   -0.03400
  1.2590   -0.03400
  1.2610   -0.03400
  1.2630   -0.03300
  1.2650   -0.03300
  1.2670   -0.03200
  1.2690   -0.03200
  1.2710   -0.03100
  1.2730   -0.03000
  1.2750   -0.02900
  1.2770   -0.02800
  1.2790   -0.02700
  1.2810   -0.02700
  1.2830   -0.02600
  1.2850   -0.02500
  1.2870   -0.02400
  1.2890   -0.02200
  1.2910   -0.02100
  1.2930   -0.02000
  1.2950   -0.01800
  1.2970   -0.01700
  1.2990   -0.01500
  1.3010   -0.01300
  1.3030   -0.01200
  1.3050   -0.01000
  1.3070   -0.00800
  1.3090   -0.00600
  1.3110   -0.00400
  1.3130   -0.00200
  1.3150    0.00000
  1.3170    0.00200
  1.3190    0.00400
  1.3210    0.00600
  1.3230    0.00900
  1.3250    0.01100
  1.3270    0.01300
  1.3290    0.01500
  1.3310    0.01800
  1.3330    0.02000
  1.3350    0.02200
  1.3370    0.02500
  1.3390    0.02700
  1.3410    0.03000
  1.3430    0.03200
  1.3450    0.03500
  1.3470    0.03800
  1.3490    0.04000
  1.3510    0.04300
  1.3530    0.04500
  1.3550    0.04800
  1.3570    0.05000
  1.3590    0.05200
  1.3610    0.05400
  1.3630    0.05600
  1.3650    0.05900
  1.3670    0.06100
  1.3690    0.06300
  1.3710    0.06400
  1.3730    0.06600
  1.3750    0.06700
  1.3770    0.06900
  1.3790    0.07000
  1.3810    0.07100
  1.3830    0.07200
  1.3850    0.07300
  1.3870    0.07300
  1.3890    0.07300
  1.3910    0.07400
  1.3930    0.07300
  1.3950    0.07300
  1.3970    0.07200
  1.3990    0.07000
