# z (nm)   (kJ/mol)
  0.111000, -7.946000
  0.115000, -8.817000
  0.117000, -9.703000
  0.119000,-10.514000
  0.121000,-11.332000
  0.123000,-12.150000
  0.125000,-12.953000
  0.127000,-13.750000
  0.129000,-14.532000
  0.131000,-15.300000
  0.133000,-16.052000
  0.135000,-16.785000
  0.137000,-17.500000
  0.139000,-18.194000
  0.141000,-18.864000
  0.143000,-19.510000
  0.145000,-20.130000
  0.147000,-20.727000
  0.149000,-21.298000
  0.151000,-21.840000
  0.153000,-22.358000
  0.155000,-22.847000
  0.157000,-23.308000
  0.159000,-23.739000
  0.161000,-24.138000
  0.163000,-24.506000
  0.165000,-24.843000
  0.167000,-25.149000
  0.169000,-25.427000
  0.171000,-25.675000
  0.173000,-25.894000
  0.175000,-26.082000
  0.177000,-26.241000
  0.179000,-26.372000
  0.181000,-26.474000
  0.183000,-26.548000
  0.185000,-26.596000
  0.187000,-26.617000
  0.189000,-26.614000
  0.191000,-26.586000
  0.193000,-26.534000
  0.195000,-26.459000
  0.197000,-26.361000
  0.199000,-26.242000
  0.201000,-26.105000
  0.203000,-25.951000
  0.205000,-25.783000
  0.207000,-25.599000
  0.209000,-25.401000
  0.211000,-25.191000
  0.213000,-24.970000
  0.215000,-24.738000
  0.217000,-24.495000
  0.219000,-24.245000
  0.221000,-23.991000
  0.223000,-23.732000
  0.225000,-23.467000
  0.227000,-23.198000
  0.229000,-22.927000
  0.231000,-22.655000
  0.233000,-22.381000
  0.235000,-22.105000
  0.237000,-21.831000
  0.239000,-21.558000
  0.241000,-21.285000
  0.243000,-21.015000
  0.245000,-20.747000
  0.247000,-20.482000
  0.249000,-20.219000
  0.251000,-19.960000
  0.253000,-19.703000
  0.255000,-19.451000
  0.257000,-19.202000
  0.259000,-18.956000
  0.261000,-18.713000
  0.263000,-18.475000
  0.265000,-18.241000
  0.267000,-18.010000
  0.269000,-17.783000
  0.271000,-17.559000
  0.273000,-17.338000
  0.275000,-17.121000
  0.277000,-16.907000
  0.279000,-16.696000
  0.281000,-16.488000
  0.283000,-16.282000
  0.285000,-16.079000
  0.287000,-15.879000
  0.289000,-15.682000
  0.291000,-15.486000
  0.293000,-15.293000
  0.295000,-15.103000
  0.297000,-14.915000
  0.299000,-14.729000
  0.301000,-14.545000
  0.303000,-14.363000
  0.305000,-14.183000
  0.307000,-14.006000
  0.309000,-13.831000
  0.311000,-13.657000
  0.313000,-13.485000
  0.315000,-13.315000
  0.317000,-13.147000
  0.319000,-12.981000
  0.321000,-12.817000
  0.323000,-12.654000
  0.325000,-12.493000
  0.327000,-12.335000
  0.329000,-12.177000
  0.331000,-12.022000
  0.333000,-11.869000
  0.335000,-11.718000
  0.337000,-11.569000
  0.339000,-11.422000
  0.341000,-11.277000
  0.343000,-11.134000
  0.345000,-10.992000
  0.347000,-10.853000
  0.349000,-10.715000
  0.351000,-10.578000
  0.353000,-10.443000
  0.355000,-10.310000
  0.357000,-10.177000
  0.359000,-10.047000
  0.361000, -9.917000
  0.363000, -9.789000
  0.365000, -9.661000
  0.367000, -9.534000
  0.369000, -9.409000
  0.371000, -9.284000
  0.373000, -9.159000
  0.375000, -9.036000
  0.377000, -8.912000
  0.379000, -8.789000
  0.381000, -8.666000
  0.383000, -8.543000
  0.385000, -8.421000
  0.387000, -8.298000
  0.389000, -8.176000
  0.391000, -8.053000
  0.393000, -7.930000
  0.395000, -7.807000
  0.397000, -7.684000
  0.399000, -7.561000
  0.401000, -7.437000
  0.403000, -7.313000
  0.405000, -7.189000
  0.407000, -7.065000
  0.409000, -6.940000
  0.411000, -6.814000
  0.413000, -6.688000
  0.415000, -6.563000
  0.417000, -6.437000
  0.419000, -6.311000
  0.421000, -6.185000
  0.423000, -6.059000
  0.425000, -5.933000
  0.427000, -5.806000
  0.429000, -5.680000
  0.431000, -5.554000
  0.433000, -5.429000
  0.435000, -5.305000
  0.437000, -5.179000
  0.439000, -5.054000
  0.441000, -4.929000
  0.443000, -4.806000
  0.445000, -4.685000
  0.447000, -4.564000
  0.449000, -4.444000
  0.451000, -4.325000
  0.453000, -4.208000
  0.455000, -4.092000
  0.457000, -3.979000
  0.459000, -3.867000
  0.461000, -3.757000
  0.463000, -3.648000
  0.465000, -3.541000
  0.467000, -3.436000
  0.469000, -3.334000
  0.471000, -3.235000
  0.473000, -3.138000
  0.475000, -3.043000
  0.477000, -2.951000
  0.479000, -2.862000
  0.481000, -2.776000
  0.483000, -2.694000
  0.485000, -2.613000
  0.487000, -2.536000
  0.489000, -2.462000
  0.491000, -2.390000
  0.493000, -2.322000
  0.495000, -2.258000
  0.497000, -2.197000
  0.499000, -2.140000
  0.501000, -2.086000
  0.503000, -2.035000
  0.505000, -1.987000
  0.507000, -1.943000
  0.509000, -1.902000
  0.511000, -1.863000
  0.513000, -1.828000
  0.515000, -1.797000
  0.517000, -1.768000
  0.519000, -1.742000
  0.521000, -1.719000
  0.523000, -1.699000
  0.525000, -1.681000
  0.527000, -1.666000
  0.529000, -1.653000
  0.531000, -1.643000
  0.533000, -1.635000
  0.535000, -1.629000
  0.537000, -1.626000
  0.539000, -1.624000
  0.541000, -1.624000
  0.543000, -1.626000
  0.545000, -1.630000
  0.547000, -1.634000
  0.549000, -1.641000
  0.551000, -1.648000
  0.553000, -1.656000
  0.555000, -1.665000
  0.557000, -1.675000
  0.559000, -1.686000
  0.561000, -1.698000
  0.563000, -1.711000
  0.565000, -1.724000
  0.567000, -1.737000
  0.569000, -1.750000
  0.571000, -1.763000
  0.573000, -1.776000
  0.575000, -1.789000
  0.577000, -1.802000
  0.579000, -1.815000
  0.581000, -1.828000
  0.583000, -1.840000
  0.585000, -1.851000
  0.587000, -1.863000
  0.589000, -1.873000
  0.591000, -1.883000
  0.593000, -1.893000
  0.595000, -1.902000
  0.597000, -1.911000
  0.599000, -1.918000
  0.601000, -1.925000
  0.603000, -1.932000
  0.605000, -1.937000
  0.607000, -1.941000
  0.609000, -1.945000
  0.611000, -1.948000
  0.613000, -1.950000
  0.615000, -1.951000
  0.617000, -1.951000
  0.619000, -1.951000
  0.621000, -1.949000
  0.623000, -1.947000
  0.625000, -1.943000
  0.627000, -1.939000
  0.629000, -1.934000
  0.631000, -1.929000
  0.633000, -1.922000
  0.635000, -1.915000
  0.637000, -1.906000
  0.639000, -1.898000
  0.641000, -1.888000
  0.643000, -1.878000
  0.645000, -1.867000
  0.647000, -1.855000
  0.649000, -1.842000
  0.651000, -1.829000
  0.653000, -1.815000
  0.655000, -1.801000
  0.657000, -1.786000
  0.659000, -1.770000
  0.661000, -1.754000
  0.663000, -1.737000
  0.665000, -1.720000
  0.667000, -1.702000
  0.669000, -1.683000
  0.671000, -1.664000
  0.673000, -1.645000
  0.675000, -1.625000
  0.677000, -1.606000
  0.679000, -1.586000
  0.681000, -1.565000
  0.683000, -1.544000
  0.685000, -1.522000
  0.687000, -1.500000
  0.689000, -1.478000
  0.691000, -1.455000
  0.693000, -1.433000
  0.695000, -1.409000
  0.697000, -1.386000
  0.699000, -1.363000
  0.701000, -1.339000
  0.703000, -1.315000
  0.705000, -1.291000
  0.707000, -1.266000
  0.709000, -1.242000
  0.711000, -1.218000
  0.713000, -1.193000
  0.715000, -1.168000
  0.717000, -1.144000
  0.719000, -1.119000
  0.721000, -1.094000
  0.723000, -1.069000
  0.725000, -1.043000
  0.727000, -1.018000
  0.729000, -0.993000
  0.731000, -0.969000
  0.733000, -0.944000
  0.735000, -0.919000
  0.737000, -0.894000
  0.739000, -0.869000
  0.741000, -0.844000
  0.743000, -0.820000
  0.745000, -0.795000
  0.747000, -0.771000
  0.749000, -0.747000
  0.751000, -0.723000
  0.753000, -0.700000
  0.755000, -0.676000
  0.757000, -0.653000
  0.759000, -0.630000
  0.761000, -0.608000
  0.763000, -0.586000
  0.765000, -0.564000
  0.767000, -0.541000
  0.769000, -0.520000
  0.771000, -0.499000
  0.773000, -0.478000
  0.775000, -0.458000
  0.777000, -0.438000
  0.779000, -0.418000
  0.781000, -0.399000
  0.783000, -0.381000
  0.785000, -0.363000
  0.787000, -0.345000
  0.789000, -0.328000
  0.791000, -0.311000
  0.793000, -0.295000
  0.795000, -0.280000
  0.797000, -0.265000
  0.799000, -0.250000
  0.801000, -0.237000
  0.803000, -0.223000
  0.805000, -0.211000
  0.807000, -0.199000
  0.809000, -0.187000
  0.811000, -0.177000
  0.813000, -0.167000
  0.815000, -0.157000
  0.817000, -0.148000
  0.819000, -0.140000
  0.821000, -0.132000
  0.823000, -0.125000
  0.825000, -0.119000
  0.827000, -0.113000
  0.829000, -0.108000
  0.831000, -0.104000
  0.833000, -0.100000
  0.835000, -0.096000
  0.837000, -0.093000
  0.839000, -0.091000
  0.841000, -0.089000
  0.843000, -0.088000
  0.845000, -0.087000
  0.847000, -0.086000
  0.849000, -0.086000
  0.851000, -0.086000
  0.853000, -0.087000
  0.855000, -0.088000
  0.857000, -0.090000
  0.859000, -0.092000
  0.861000, -0.094000
  0.863000, -0.097000
  0.865000, -0.100000
  0.867000, -0.103000
  0.869000, -0.107000
  0.871000, -0.111000
  0.873000, -0.115000
  0.875000, -0.119000
  0.877000, -0.123000
  0.879000, -0.127000
  0.881000, -0.131000
  0.883000, -0.136000
  0.885000, -0.141000
  0.887000, -0.145000
  0.889000, -0.150000
  0.891000, -0.154000
  0.893000, -0.159000
  0.895000, -0.164000
  0.897000, -0.169000
  0.899000, -0.173000
  0.901000, -0.178000
  0.903000, -0.183000
  0.905000, -0.187000
  0.907000, -0.191000
  0.909000, -0.196000
  0.911000, -0.200000
  0.913000, -0.204000
  0.915000, -0.209000
  0.917000, -0.213000
  0.919000, -0.217000
  0.921000, -0.221000
  0.923000, -0.224000
  0.925000, -0.227000
  0.927000, -0.231000
  0.929000, -0.234000
  0.931000, -0.236000
  0.933000, -0.239000
  0.935000, -0.242000
  0.937000, -0.244000
  0.939000, -0.246000
  0.941000, -0.248000
  0.943000, -0.250000
  0.945000, -0.252000
  0.947000, -0.253000
  0.949000, -0.254000
  0.951000, -0.255000
  0.953000, -0.256000
  0.955000, -0.256000
  0.957000, -0.257000
  0.959000, -0.256000
  0.961000, -0.256000
  0.963000, -0.256000
  0.965000, -0.255000
  0.967000, -0.254000
  0.969000, -0.253000
  0.971000, -0.252000
  0.973000, -0.251000
  0.975000, -0.249000
  0.977000, -0.247000
  0.979000, -0.245000
  0.981000, -0.242000
  0.983000, -0.240000
  0.985000, -0.237000
  0.987000, -0.233000
  0.989000, -0.230000
  0.991000, -0.226000
  0.993000, -0.222000
  0.995000, -0.218000
  0.997000, -0.214000
  0.999000, -0.210000
  1.001000, -0.206000
  1.003000, -0.201000
  1.005000, -0.196000
  1.007000, -0.191000
  1.009000, -0.186000
  1.011000, -0.181000
  1.013000, -0.175000
  1.015000, -0.170000
  1.017000, -0.164000
  1.019000, -0.159000
  1.021000, -0.153000
  1.023000, -0.147000
  1.025000, -0.141000
  1.027000, -0.135000
  1.029000, -0.129000
  1.031000, -0.123000
  1.033000, -0.117000
  1.035000, -0.111000
  1.037000, -0.105000
  1.039000, -0.099000
  1.041000, -0.093000
  1.043000, -0.087000
  1.045000, -0.081000
  1.047000, -0.076000
  1.049000, -0.070000
  1.051000, -0.064000
  1.053000, -0.058000
  1.055000, -0.053000
  1.057000, -0.047000
  1.059000, -0.042000
  1.061000, -0.037000
  1.063000, -0.032000
  1.065000, -0.027000
  1.067000, -0.022000
  1.069000, -0.017000
  1.071000, -0.013000
  1.073000, -0.008000
  1.075000, -0.004000
  1.077000,  0.000000
  1.079000,  0.004000
  1.081000,  0.008000
  1.083000,  0.012000
  1.085000,  0.016000
  1.087000,  0.019000
  1.089000,  0.023000
  1.091000,  0.026000
  1.093000,  0.029000
  1.095000,  0.032000
  1.097000,  0.035000
  1.099000,  0.038000
  1.101000,  0.040000
  1.103000,  0.043000
  1.105000,  0.046000
  1.107000,  0.048000
  1.109000,  0.050000
  1.111000,  0.052000
  1.113000,  0.054000
  1.115000,  0.056000
  1.117000,  0.058000
  1.119000,  0.060000
  1.121000,  0.062000
  1.123000,  0.063000
  1.125000,  0.065000
  1.127000,  0.067000
  1.129000,  0.068000
  1.131000,  0.069000
  1.133000,  0.070000
  1.135000,  0.072000
  1.137000,  0.073000
  1.139000,  0.074000
  1.141000,  0.075000
  1.143000,  0.076000
  1.145000,  0.077000
  1.147000,  0.078000
  1.149000,  0.079000
  1.151000,  0.079000
  1.153000,  0.080000
  1.155000,  0.080000
  1.157000,  0.081000
  1.159000,  0.081000
  1.161000,  0.081000
  1.163000,  0.082000
  1.165000,  0.082000
  1.167000,  0.082000
  1.169000,  0.082000
  1.171000,  0.082000
  1.173000,  0.081000
  1.175000,  0.081000
  1.177000,  0.081000
  1.179000,  0.080000
  1.181000,  0.080000
  1.183000,  0.079000
  1.185000,  0.078000
  1.187000,  0.077000
  1.189000,  0.076000
  1.191000,  0.075000
  1.193000,  0.074000
  1.195000,  0.072000
  1.197000,  0.071000
  1.199000,  0.069000
  1.201000,  0.068000
  1.203000,  0.066000
  1.205000,  0.064000
  1.207000,  0.062000
  1.209000,  0.060000
  1.211000,  0.058000
  1.213000,  0.056000
  1.215000,  0.054000
  1.217000,  0.052000
  1.219000,  0.050000
  1.221000,  0.048000
  1.223000,  0.046000
  1.225000,  0.043000
  1.227000,  0.041000
  1.229000,  0.039000
  1.231000,  0.037000
  1.233000,  0.034000
  1.235000,  0.032000
  1.237000,  0.030000
  1.239000,  0.028000
  1.241000,  0.025000
  1.243000,  0.023000
  1.245000,  0.021000
  1.247000,  0.019000
  1.249000,  0.017000
  1.251000,  0.016000
  1.253000,  0.014000
  1.255000,  0.012000
  1.257000,  0.010000
  1.259000,  0.009000
  1.261000,  0.007000
  1.263000,  0.006000
  1.265000,  0.004000
  1.267000,  0.003000
  1.269000,  0.001000
  1.271000,  0.000000
  1.273000, -0.001000
  1.275000, -0.002000
  1.277000, -0.003000
  1.279000, -0.004000
  1.281000, -0.005000
  1.283000, -0.006000
  1.285000, -0.007000
  1.287000, -0.007000
  1.289000, -0.008000
  1.291000, -0.009000
  1.293000, -0.009000
  1.295000, -0.010000
  1.297000, -0.010000
  1.299000, -0.011000
  1.301000, -0.012000
  1.303000, -0.012000
  1.305000, -0.013000
  1.307000, -0.013000
  1.309000, -0.014000
  1.311000, -0.014000
  1.313000, -0.015000
  1.315000, -0.015000
  1.317000, -0.016000
  1.319000, -0.016000
  1.321000, -0.016000
  1.323000, -0.017000
  1.325000, -0.017000
  1.327000, -0.017000
  1.329000, -0.018000
  1.331000, -0.018000
  1.333000, -0.019000
  1.335000, -0.019000
  1.337000, -0.020000
  1.339000, -0.020000
  1.341000, -0.021000
  1.343000, -0.021000
  1.345000, -0.021000
  1.347000, -0.022000
  1.349000, -0.022000
  1.351000, -0.022000
  1.353000, -0.023000
  1.355000, -0.023000
  1.357000, -0.024000
  1.359000, -0.024000
  1.361000, -0.024000
  1.363000, -0.025000
  1.365000, -0.025000
  1.367000, -0.025000
  1.369000, -0.026000
  1.371000, -0.026000
  1.373000, -0.026000
  1.375000, -0.027000
  1.377000, -0.027000
  1.379000, -0.027000
  1.381000, -0.028000
  1.383000, -0.028000
  1.385000, -0.029000
  1.387000, -0.030000
  1.389000, -0.031000
  1.391000, -0.032000
  1.393000, -0.033000
  1.395000, -0.034000
  1.397000, -0.036000
  1.399000, -0.037000
