# z (nm)   (kJ/mol)
  0.135000,-23.152000
  0.137000,-24.272000
  0.139000,-25.366000
  0.141000,-26.471000
  0.143000,-27.581000
  0.145000,-28.656000
  0.147000,-29.675000
  0.149000,-30.653000
  0.151000,-31.597000
  0.153000,-32.505000
  0.155000,-33.379000
  0.157000,-34.219000
  0.159000,-35.017000
  0.161000,-35.768000
  0.163000,-36.477000
  0.165000,-37.141000
  0.167000,-37.757000
  0.169000,-38.324000
  0.171000,-38.844000
  0.173000,-39.315000
  0.175000,-39.733000
  0.177000,-40.099000
  0.179000,-40.417000
  0.181000,-40.686000
  0.183000,-40.903000
  0.185000,-41.068000
  0.187000,-41.186000
  0.189000,-41.255000
  0.191000,-41.278000
  0.193000,-41.255000
  0.195000,-41.186000
  0.197000,-41.072000
  0.199000,-40.917000
  0.201000,-40.720000
  0.203000,-40.484000
  0.205000,-40.211000
  0.207000,-39.905000
  0.209000,-39.564000
  0.211000,-39.192000
  0.213000,-38.791000
  0.215000,-38.365000
  0.217000,-37.916000
  0.219000,-37.447000
  0.221000,-36.957000
  0.223000,-36.452000
  0.225000,-35.932000
  0.227000,-35.400000
  0.229000,-34.861000
  0.231000,-34.317000
  0.233000,-33.770000
  0.235000,-33.219000
  0.237000,-32.665000
  0.239000,-32.115000
  0.241000,-31.568000
  0.243000,-31.027000
  0.245000,-30.494000
  0.247000,-29.968000
  0.249000,-29.452000
  0.251000,-28.946000
  0.253000,-28.452000
  0.255000,-27.971000
  0.257000,-27.504000
  0.259000,-27.051000
  0.261000,-26.612000
  0.263000,-26.189000
  0.265000,-25.781000
  0.267000,-25.388000
  0.269000,-25.011000
  0.271000,-24.649000
  0.273000,-24.302000
  0.275000,-23.971000
  0.277000,-23.654000
  0.279000,-23.352000
  0.281000,-23.064000
  0.283000,-22.789000
  0.285000,-22.527000
  0.287000,-22.278000
  0.289000,-22.042000
  0.291000,-21.818000
  0.293000,-21.603000
  0.295000,-21.400000
  0.297000,-21.205000
  0.299000,-21.020000
  0.301000,-20.844000
  0.303000,-20.675000
  0.305000,-20.514000
  0.307000,-20.358000
  0.309000,-20.209000
  0.311000,-20.065000
  0.313000,-19.926000
  0.315000,-19.791000
  0.317000,-19.660000
  0.319000,-19.532000
  0.321000,-19.407000
  0.323000,-19.284000
  0.325000,-19.164000
  0.327000,-19.045000
  0.329000,-18.927000
  0.331000,-18.810000
  0.333000,-18.694000
  0.335000,-18.578000
  0.337000,-18.462000
  0.339000,-18.345000
  0.341000,-18.229000
  0.343000,-18.111000
  0.345000,-17.994000
  0.347000,-17.875000
  0.349000,-17.757000
  0.351000,-17.637000
  0.353000,-17.517000
  0.355000,-17.397000
  0.357000,-17.276000
  0.359000,-17.154000
  0.361000,-17.031000
  0.363000,-16.907000
  0.365000,-16.783000
  0.367000,-16.657000
  0.369000,-16.531000
  0.371000,-16.404000
  0.373000,-16.276000
  0.375000,-16.147000
  0.377000,-16.017000
  0.379000,-15.887000
  0.381000,-15.756000
  0.383000,-15.624000
  0.385000,-15.491000
  0.387000,-15.356000
  0.389000,-15.221000
  0.391000,-15.085000
  0.393000,-14.948000
  0.395000,-14.810000
  0.397000,-14.671000
  0.399000,-14.532000
  0.401000,-14.391000
  0.403000,-14.250000
  0.405000,-14.109000
  0.407000,-13.967000
  0.409000,-13.824000
  0.411000,-13.681000
  0.413000,-13.537000
  0.415000,-13.392000
  0.417000,-13.247000
  0.419000,-13.102000
  0.421000,-12.956000
  0.423000,-12.810000
  0.425000,-12.663000
  0.427000,-12.515000
  0.429000,-12.367000
  0.431000,-12.219000
  0.433000,-12.071000
  0.435000,-11.922000
  0.437000,-11.772000
  0.439000,-11.623000
  0.441000,-11.472000
  0.443000,-11.321000
  0.445000,-11.170000
  0.447000,-11.019000
  0.449000,-10.867000
  0.451000,-10.715000
  0.453000,-10.562000
  0.455000,-10.410000
  0.457000,-10.257000
  0.459000,-10.103000
  0.461000, -9.949000
  0.463000, -9.794000
  0.465000, -9.639000
  0.467000, -9.485000
  0.469000, -9.330000
  0.471000, -9.176000
  0.473000, -9.021000
  0.475000, -8.866000
  0.477000, -8.711000
  0.479000, -8.557000
  0.481000, -8.402000
  0.483000, -8.247000
  0.485000, -8.093000
  0.487000, -7.939000
  0.489000, -7.786000
  0.491000, -7.634000
  0.493000, -7.479000
  0.495000, -7.325000
  0.497000, -7.172000
  0.499000, -7.020000
  0.501000, -6.868000
  0.503000, -6.716000
  0.505000, -6.567000
  0.507000, -6.419000
  0.509000, -6.273000
  0.511000, -6.127000
  0.513000, -5.983000
  0.515000, -5.840000
  0.517000, -5.698000
  0.519000, -5.559000
  0.521000, -5.420000
  0.523000, -5.282000
  0.525000, -5.145000
  0.527000, -5.010000
  0.529000, -4.879000
  0.531000, -4.751000
  0.533000, -4.625000
  0.535000, -4.500000
  0.537000, -4.377000
  0.539000, -4.257000
  0.541000, -4.139000
  0.543000, -4.022000
  0.545000, -3.909000
  0.547000, -3.800000
  0.549000, -3.692000
  0.551000, -3.588000
  0.553000, -3.486000
  0.555000, -3.387000
  0.557000, -3.290000
  0.559000, -3.195000
  0.561000, -3.103000
  0.563000, -3.016000
  0.565000, -2.931000
  0.567000, -2.849000
  0.569000, -2.771000
  0.571000, -2.695000
  0.573000, -2.622000
  0.575000, -2.553000
  0.577000, -2.485000
  0.579000, -2.421000
  0.581000, -2.359000
  0.583000, -2.301000
  0.585000, -2.246000
  0.587000, -2.193000
  0.589000, -2.143000
  0.591000, -2.096000
  0.593000, -2.051000
  0.595000, -2.008000
  0.597000, -1.968000
  0.599000, -1.931000
  0.601000, -1.896000
  0.603000, -1.863000
  0.605000, -1.832000
  0.607000, -1.805000
  0.609000, -1.779000
  0.611000, -1.755000
  0.613000, -1.733000
  0.615000, -1.714000
  0.617000, -1.695000
  0.619000, -1.679000
  0.621000, -1.664000
  0.623000, -1.651000
  0.625000, -1.640000
  0.627000, -1.629000
  0.629000, -1.620000
  0.631000, -1.613000
  0.633000, -1.607000
  0.635000, -1.602000
  0.637000, -1.598000
  0.639000, -1.595000
  0.641000, -1.593000
  0.643000, -1.592000
  0.645000, -1.592000
  0.647000, -1.593000
  0.649000, -1.594000
  0.651000, -1.596000
  0.653000, -1.599000
  0.655000, -1.601000
  0.657000, -1.605000
  0.659000, -1.609000
  0.661000, -1.612000
  0.663000, -1.616000
  0.665000, -1.620000
  0.667000, -1.624000
  0.669000, -1.629000
  0.671000, -1.633000
  0.673000, -1.637000
  0.675000, -1.641000
  0.677000, -1.645000
  0.679000, -1.649000
  0.681000, -1.653000
  0.683000, -1.656000
  0.685000, -1.659000
  0.687000, -1.662000
  0.689000, -1.665000
  0.691000, -1.666000
  0.693000, -1.668000
  0.695000, -1.669000
  0.697000, -1.670000
  0.699000, -1.670000
  0.701000, -1.670000
  0.703000, -1.670000
  0.705000, -1.669000
  0.707000, -1.667000
  0.709000, -1.665000
  0.711000, -1.663000
  0.713000, -1.659000
  0.715000, -1.656000
  0.717000, -1.652000
  0.719000, -1.647000
  0.721000, -1.641000
  0.723000, -1.636000
  0.725000, -1.629000
  0.727000, -1.622000
  0.729000, -1.615000
  0.731000, -1.607000
  0.733000, -1.599000
  0.735000, -1.590000
  0.737000, -1.580000
  0.739000, -1.570000
  0.741000, -1.560000
  0.743000, -1.549000
  0.745000, -1.538000
  0.747000, -1.526000
  0.749000, -1.513000
  0.751000, -1.501000
  0.753000, -1.487000
  0.755000, -1.474000
  0.757000, -1.460000
  0.759000, -1.445000
  0.761000, -1.430000
  0.763000, -1.415000
  0.765000, -1.400000
  0.767000, -1.384000
  0.769000, -1.368000
  0.771000, -1.351000
  0.773000, -1.334000
  0.775000, -1.318000
  0.777000, -1.301000
  0.779000, -1.283000
  0.781000, -1.265000
  0.783000, -1.247000
  0.785000, -1.228000
  0.787000, -1.210000
  0.789000, -1.191000
  0.791000, -1.172000
  0.793000, -1.153000
  0.795000, -1.134000
  0.797000, -1.115000
  0.799000, -1.095000
  0.801000, -1.076000
  0.803000, -1.056000
  0.805000, -1.036000
  0.807000, -1.017000
  0.809000, -0.997000
  0.811000, -0.977000
  0.813000, -0.957000
  0.815000, -0.938000
  0.817000, -0.918000
  0.819000, -0.898000
  0.821000, -0.878000
  0.823000, -0.859000
  0.825000, -0.840000
  0.827000, -0.820000
  0.829000, -0.801000
  0.831000, -0.782000
  0.833000, -0.764000
  0.835000, -0.745000
  0.837000, -0.726000
  0.839000, -0.708000
  0.841000, -0.690000
  0.843000, -0.672000
  0.845000, -0.654000
  0.847000, -0.637000
  0.849000, -0.621000
  0.851000, -0.605000
  0.853000, -0.588000
  0.855000, -0.572000
  0.857000, -0.556000
  0.859000, -0.541000
  0.861000, -0.527000
  0.863000, -0.512000
  0.865000, -0.498000
  0.867000, -0.485000
  0.869000, -0.471000
  0.871000, -0.458000
  0.873000, -0.446000
  0.875000, -0.434000
  0.877000, -0.422000
  0.879000, -0.411000
  0.881000, -0.400000
  0.883000, -0.389000
  0.885000, -0.379000
  0.887000, -0.369000
  0.889000, -0.360000
  0.891000, -0.351000
  0.893000, -0.342000
  0.895000, -0.334000
  0.897000, -0.326000
  0.899000, -0.319000
  0.901000, -0.312000
  0.903000, -0.305000
  0.905000, -0.299000
  0.907000, -0.293000
  0.909000, -0.287000
  0.911000, -0.281000
  0.913000, -0.276000
  0.915000, -0.272000
  0.917000, -0.267000
  0.919000, -0.264000
  0.921000, -0.260000
  0.923000, -0.257000
  0.925000, -0.254000
  0.927000, -0.251000
  0.929000, -0.249000
  0.931000, -0.247000
  0.933000, -0.245000
  0.935000, -0.243000
  0.937000, -0.242000
  0.939000, -0.241000
  0.941000, -0.241000
  0.943000, -0.240000
  0.945000, -0.240000
  0.947000, -0.240000
  0.949000, -0.240000
  0.951000, -0.240000
  0.953000, -0.241000
  0.955000, -0.242000
  0.957000, -0.243000
  0.959000, -0.244000
  0.961000, -0.245000
  0.963000, -0.247000
  0.965000, -0.248000
  0.967000, -0.250000
  0.969000, -0.252000
  0.971000, -0.254000
  0.973000, -0.256000
  0.975000, -0.258000
  0.977000, -0.260000
  0.979000, -0.262000
  0.981000, -0.264000
  0.983000, -0.266000
  0.985000, -0.268000
  0.987000, -0.270000
  0.989000, -0.272000
  0.991000, -0.274000
  0.993000, -0.276000
  0.995000, -0.278000
  0.997000, -0.280000
  0.999000, -0.282000
  1.001000, -0.284000
  1.003000, -0.285000
  1.005000, -0.287000
  1.007000, -0.288000
  1.009000, -0.290000
  1.011000, -0.291000
  1.013000, -0.292000
  1.015000, -0.293000
  1.017000, -0.294000
  1.019000, -0.294000
  1.021000, -0.295000
  1.023000, -0.295000
  1.025000, -0.296000
  1.027000, -0.296000
  1.029000, -0.295000
  1.031000, -0.295000
  1.033000, -0.295000
  1.035000, -0.294000
  1.037000, -0.293000
  1.039000, -0.292000
  1.041000, -0.291000
  1.043000, -0.290000
  1.045000, -0.289000
  1.047000, -0.287000
  1.049000, -0.285000
  1.051000, -0.283000
  1.053000, -0.281000
  1.055000, -0.279000
  1.057000, -0.277000
  1.059000, -0.274000
  1.061000, -0.271000
  1.063000, -0.268000
  1.065000, -0.265000
  1.067000, -0.262000
  1.069000, -0.259000
  1.071000, -0.255000
  1.073000, -0.251000
  1.075000, -0.247000
  1.077000, -0.243000
  1.079000, -0.239000
  1.081000, -0.235000
  1.083000, -0.230000
  1.085000, -0.225000
  1.087000, -0.220000
  1.089000, -0.215000
  1.091000, -0.210000
  1.093000, -0.205000
  1.095000, -0.200000
  1.097000, -0.194000
  1.099000, -0.189000
  1.101000, -0.183000
  1.103000, -0.177000
  1.105000, -0.171000
  1.107000, -0.165000
  1.109000, -0.159000
  1.111000, -0.153000
  1.113000, -0.147000
  1.115000, -0.141000
  1.117000, -0.135000
  1.119000, -0.129000
  1.121000, -0.123000
  1.123000, -0.117000
  1.125000, -0.111000
  1.127000, -0.104000
  1.129000, -0.098000
  1.131000, -0.092000
  1.133000, -0.086000
  1.135000, -0.080000
  1.137000, -0.074000
  1.139000, -0.068000
  1.141000, -0.062000
  1.143000, -0.056000
  1.145000, -0.050000
  1.147000, -0.044000
  1.149000, -0.039000
  1.151000, -0.033000
  1.153000, -0.028000
  1.155000, -0.023000
  1.157000, -0.018000
  1.159000, -0.013000
  1.161000, -0.009000
  1.163000, -0.004000
  1.165000,  0.000000
  1.167000,  0.004000
  1.169000,  0.008000
  1.171000,  0.012000
  1.173000,  0.015000
  1.175000,  0.018000
  1.177000,  0.021000
  1.179000,  0.024000
  1.181000,  0.027000
  1.183000,  0.029000
  1.185000,  0.031000
  1.187000,  0.033000
  1.189000,  0.035000
  1.191000,  0.036000
  1.193000,  0.038000
  1.195000,  0.039000
  1.197000,  0.040000
  1.199000,  0.041000
  1.201000,  0.042000
  1.203000,  0.043000
  1.205000,  0.043000
  1.207000,  0.043000
  1.209000,  0.043000
  1.211000,  0.043000
  1.213000,  0.043000
  1.215000,  0.043000
  1.217000,  0.042000
  1.219000,  0.042000
  1.221000,  0.041000
  1.223000,  0.040000
  1.225000,  0.039000
  1.227000,  0.038000
  1.229000,  0.037000
  1.231000,  0.036000
  1.233000,  0.034000
  1.235000,  0.033000
  1.237000,  0.032000
  1.239000,  0.030000
  1.241000,  0.029000
  1.243000,  0.027000
  1.245000,  0.025000
  1.247000,  0.023000
  1.249000,  0.022000
  1.251000,  0.020000
  1.253000,  0.018000
  1.255000,  0.016000
  1.257000,  0.014000
  1.259000,  0.012000
  1.261000,  0.010000
  1.263000,  0.008000
  1.265000,  0.007000
  1.267000,  0.005000
  1.269000,  0.003000
  1.271000,  0.001000
  1.273000,  0.000000
  1.275000, -0.002000
  1.277000, -0.004000
  1.279000, -0.005000
  1.281000, -0.007000
  1.283000, -0.008000
  1.285000, -0.009000
  1.287000, -0.011000
  1.289000, -0.012000
  1.291000, -0.013000
  1.293000, -0.014000
  1.295000, -0.015000
  1.297000, -0.016000
  1.299000, -0.017000
  1.301000, -0.018000
  1.303000, -0.019000
  1.305000, -0.019000
  1.307000, -0.020000
  1.309000, -0.020000
  1.311000, -0.021000
  1.313000, -0.021000
  1.315000, -0.021000
  1.317000, -0.021000
  1.319000, -0.021000
  1.321000, -0.022000
  1.323000, -0.022000
  1.325000, -0.022000
  1.327000, -0.021000
  1.329000, -0.021000
  1.331000, -0.021000
  1.333000, -0.020000
  1.335000, -0.020000
  1.337000, -0.020000
  1.339000, -0.019000
  1.341000, -0.019000
  1.343000, -0.018000
  1.345000, -0.018000
  1.347000, -0.017000
  1.349000, -0.017000
  1.351000, -0.016000
  1.353000, -0.016000
  1.355000, -0.015000
  1.357000, -0.015000
  1.359000, -0.015000
  1.361000, -0.014000
  1.363000, -0.014000
  1.365000, -0.014000
  1.367000, -0.013000
  1.369000, -0.013000
  1.371000, -0.014000
  1.373000, -0.014000
  1.375000, -0.014000
  1.377000, -0.015000
  1.379000, -0.015000
  1.381000, -0.016000
  1.383000, -0.016000
  1.385000, -0.017000
  1.387000, -0.018000
  1.389000, -0.020000
  1.391000, -0.021000
  1.393000, -0.023000
  1.395000, -0.025000
  1.397000, -0.028000
  1.399000, -0.030000
