# z (nm)   (kJ/mol)
  0.1160  266.98105
  0.1180  263.44311
  0.1200  259.39125
  0.1220  255.98170
  0.1240  252.73778
  0.1260  249.59301
  0.1280  246.47217
  0.1300  243.32139
  0.1320  240.15640
  0.1340  236.92788
  0.1360  233.64241
  0.1380  230.28195
  0.1400  226.83640
  0.1420  223.30884
  0.1440  219.68756
  0.1460  215.97143
  0.1480  212.16032
  0.1500  208.25086
  0.1520  204.24497
  0.1540  200.14903
  0.1560  195.97926
  0.1580  191.74664
  0.1600  187.46284
  0.1620  183.15524
  0.1640  178.84456
  0.1660  174.56060
  0.1680  170.32897
  0.1700  166.16800
  0.1720  162.10022
  0.1740  158.12575
  0.1760  154.25070
  0.1780  150.46303
  0.1800  146.75009
  0.1820  143.10174
  0.1840  139.50867
  0.1860  135.97258
  0.1880  132.49044
  0.1900  129.07028
  0.1920  125.73227
  0.1940  122.48065
  0.1960  119.31675
  0.1980  116.23659
  0.2000  113.23794
  0.2020  110.30179
  0.2040  107.41693
  0.2060  104.55538
  0.2080  101.70171
  0.2100   98.84350
  0.2120   95.97389
  0.2140   93.09811
  0.2160   90.22621
  0.2180   87.37438
  0.2200   84.55656
  0.2220   81.79594
  0.2240   79.09774
  0.2260   76.46034
  0.2280   73.88256
  0.2300   71.35142
  0.2320   68.85939
  0.2340   66.38821
  0.2360   63.94134
  0.2380   61.50430
  0.2400   59.09323
  0.2420   56.71889
  0.2440   54.39508
  0.2460   52.13318
  0.2480   49.94679
  0.2500   47.83395
  0.2520   45.78924
  0.2540   43.79759
  0.2560   41.84743
  0.2580   39.93749
  0.2600   38.05767
  0.2620   36.21453
  0.2640   34.40759
  0.2660   32.64263
  0.2680   30.92437
  0.2700   29.24679
  0.2720   27.62281
  0.2740   26.03225
  0.2760   24.48507
  0.2780   22.97715
  0.2800   21.50713
  0.2820   20.08827
  0.2840   18.72644
  0.2860   17.42619
  0.2880   16.18409
  0.2900   14.99782
  0.2920   13.86090
  0.2940   12.76234
  0.2960   11.68723
  0.2980   10.63355
  0.3000    9.59483
  0.3020    8.56807
  0.3040    7.56253
  0.3060    6.57198
  0.3080    5.60680
  0.3100    4.66964
  0.3120    3.77652
  0.3140    2.94865
  0.3160    2.18358
  0.3180    1.48663
  0.3200    0.86240
  0.3220    0.29170
  0.3240   -0.23500
  0.3260   -0.74273
  0.3280   -1.24859
  0.3300   -1.76269
  0.3320   -2.27905
  0.3340   -2.79518
  0.3360   -3.27992
  0.3380   -3.74293
  0.3400   -4.15653
  0.3420   -4.51970
  0.3440   -4.82882
  0.3460   -5.09772
  0.3480   -5.32895
  0.3500   -5.52688
  0.3520   -5.70332
  0.3540   -5.86407
  0.3560   -6.02326
  0.3580   -6.18108
  0.3600   -6.34393
  0.3620   -6.49660
  0.3640   -6.64199
  0.3660   -6.77576
  0.3680   -6.88856
  0.3700   -6.97704
  0.3720   -7.04132
  0.3740   -7.09163
  0.3760   -7.12589
  0.3780   -7.15052
  0.3800   -7.16937
  0.3820   -7.18804
  0.3840   -7.20815
  0.3860   -7.22618
  0.3880   -7.24558
  0.3900   -7.26382
  0.3920   -7.28339
  0.3940   -7.29183
  0.3960   -7.30128
  0.3980   -7.29926
  0.4000   -7.29205
  0.4020   -7.28174
  0.4040   -7.25737
  0.4060   -7.22833
  0.4080   -7.19649
  0.4100   -7.17412
  0.4120   -7.14323
  0.4140   -7.10937
  0.4160   -7.07435
  0.4180   -7.03307
  0.4200   -6.99486
  0.4220   -6.95362
  0.4240   -6.91252
  0.4260   -6.86661
  0.4280   -6.80369
  0.4300   -6.73738
  0.4320   -6.65765
  0.4340   -6.56219
  0.4360   -6.45858
  0.4380   -6.33814
  0.4400   -6.20733
  0.4420   -6.07010
  0.4440   -5.94031
  0.4460   -5.82511
  0.4480   -5.74114
  0.4500   -5.67332
  0.4520   -5.61841
  0.4540   -5.57955
  0.4560   -5.52392
  0.4580   -5.43527
  0.4600   -5.30692
  0.4620   -5.14644
  0.4640   -4.94929
  0.4660   -4.75524
  0.4680   -4.57764
  0.4700   -4.43374
  0.4720   -4.32483
  0.4740   -4.24713
  0.4760   -4.18580
  0.4780   -4.13274
  0.4800   -4.07146
  0.4820   -3.99702
  0.4840   -3.90268
  0.4860   -3.78907
  0.4880   -3.66109
  0.4900   -3.52512
  0.4920   -3.37795
  0.4940   -3.23441
  0.4960   -3.10075
  0.4980   -2.97898
  0.5000   -2.87229
  0.5020   -2.78879
  0.5040   -2.72331
  0.5060   -2.65932
  0.5080   -2.59564
  0.5100   -2.52986
  0.5120   -2.44185
  0.5140   -2.33812
  0.5160   -2.22126
  0.5180   -2.09488
  0.5200   -1.96033
  0.5220   -1.82999
  0.5240   -1.71377
  0.5260   -1.61253
  0.5280   -1.53725
  0.5300   -1.48445
  0.5320   -1.45161
  0.5340   -1.43090
  0.5360   -1.41490
  0.5380   -1.40352
  0.5400   -1.38415
  0.5420   -1.35023
  0.5440   -1.30150
  0.5460   -1.24503
  0.5480   -1.18287
  0.5500   -1.12014
  0.5520   -1.06180
  0.5540   -1.01091
  0.5560   -0.97682
  0.5580   -0.95359
  0.5600   -0.94291
  0.5620   -0.93847
  0.5640   -0.93400
  0.5660   -0.92704
  0.5680   -0.91033
  0.5700   -0.88331
  0.5720   -0.83966
  0.5740   -0.78636
  0.5760   -0.72717
  0.5780   -0.65932
  0.5800   -0.59570
  0.5820   -0.53080
  0.5840   -0.46694
  0.5860   -0.40684
  0.5880   -0.34956
  0.5900   -0.29108
  0.5920   -0.24124
  0.5940   -0.18752
  0.5960   -0.13159
  0.5980   -0.07525
  0.6000   -0.01434
  0.6020    0.04900
  0.6040    0.11625
  0.6060    0.18927
  0.6080    0.26689
  0.6100    0.34282
  0.6120    0.42707
  0.6140    0.50413
  0.6160    0.58258
  0.6180    0.64966
  0.6200    0.70604
  0.6220    0.74859
  0.6240    0.77862
  0.6260    0.78635
  0.6280    0.77502
  0.6300    0.74299
  0.6320    0.70093
  0.6340    0.65772
  0.6360    0.61078
  0.6380    0.55813
  0.6400    0.50819
  0.6420    0.45930
  0.6440    0.41292
  0.6460    0.36626
  0.6480    0.31122
  0.6500    0.25413
  0.6520    0.18938
  0.6540    0.11567
  0.6560    0.03973
  0.6580   -0.03646
  0.6600   -0.10848
  0.6620   -0.17525
  0.6640   -0.22792
  0.6660   -0.26157
  0.6680   -0.28274
  0.6700   -0.29043
  0.6720   -0.29655
  0.6740   -0.30303
  0.6760   -0.31619
  0.6780   -0.33867
  0.6800   -0.37150
  0.6820   -0.41557
  0.6840   -0.46628
  0.6860   -0.51712
  0.6880   -0.56652
  0.6900   -0.60547
  0.6920   -0.63808
  0.6940   -0.66196
  0.6960   -0.68026
  0.6980   -0.68312
  0.7000   -0.69256
  0.7020   -0.69252
  0.7040   -0.69445
  0.7060   -0.69450
  0.7080   -0.69452
  0.7100   -0.69284
  0.7120   -0.69193
  0.7140   -0.68815
  0.7160   -0.68702
  0.7180   -0.68715
  0.7200   -0.68201
  0.7220   -0.66895
  0.7240   -0.66236
  0.7260   -0.65418
  0.7280   -0.64446
  0.7300   -0.62876
  0.7320   -0.62088
  0.7340   -0.61202
  0.7360   -0.60281
  0.7380   -0.59667
  0.7400   -0.58265
  0.7420   -0.56413
  0.7440   -0.54247
  0.7460   -0.51408
  0.7480   -0.47347
  0.7500   -0.44312
  0.7520   -0.41004
  0.7540   -0.37426
  0.7560   -0.34311
  0.7580   -0.31555
  0.7600   -0.28507
  0.7620   -0.27168
  0.7640   -0.26795
  0.7660   -0.27011
  0.7680   -0.28000
  0.7700   -0.29322
  0.7720   -0.30908
  0.7740   -0.32661
  0.7760   -0.34308
  0.7780   -0.35099
  0.7800   -0.35162
  0.7820   -0.35008
  0.7840   -0.34010
  0.7860   -0.31447
  0.7880   -0.27975
  0.7900   -0.24119
  0.7920   -0.20065
  0.7940   -0.15612
  0.7960   -0.11195
  0.7980   -0.08025
  0.8000   -0.05066
  0.8020   -0.03125
  0.8040   -0.02342
  0.8060   -0.02203
  0.8080   -0.02872
  0.8100   -0.04803
  0.8120   -0.06847
  0.8140   -0.08292
  0.8160   -0.08544
  0.8180   -0.08330
  0.8200   -0.07674
  0.8220   -0.06466
  0.8240   -0.04463
  0.8260   -0.02265
  0.8280    0.00557
  0.8300    0.04118
  0.8320    0.07409
  0.8340    0.10512
  0.8360    0.13208
  0.8380    0.15104
  0.8400    0.16017
  0.8420    0.16208
  0.8440    0.15695
  0.8460    0.14213
  0.8480    0.11949
  0.8500    0.10303
  0.8520    0.08180
  0.8540    0.07076
  0.8560    0.06288
  0.8580    0.05907
  0.8600    0.05992
  0.8620    0.07145
  0.8640    0.07541
  0.8660    0.08246
  0.8680    0.09343
  0.8700    0.10520
  0.8720    0.11773
  0.8740    0.13414
  0.8760    0.14494
  0.8780    0.15365
  0.8800    0.16743
  0.8820    0.17178
  0.8840    0.17263
  0.8860    0.16688
  0.8880    0.15392
  0.8900    0.14557
  0.8920    0.13479
  0.8940    0.13018
  0.8960    0.11950
  0.8980    0.12286
  0.9000    0.12492
  0.9020    0.13444
  0.9040    0.13224
  0.9060    0.13018
  0.9080    0.12173
  0.9100    0.10005
  0.9120    0.07645
  0.9140    0.05742
  0.9160    0.03283
  0.9180    0.01184
  0.9200   -0.00774
  0.9220   -0.02265
  0.9240   -0.03478
  0.9260   -0.04018
  0.9280   -0.03151
  0.9300   -0.02249
  0.9320   -0.00876
  0.9340    0.01001
  0.9360    0.02906
  0.9380    0.04686
  0.9400    0.05970
  0.9420    0.07377
  0.9440    0.07622
  0.9460    0.07189
  0.9480    0.05791
  0.9500    0.04359
  0.9520    0.02286
  0.9540   -0.00006
  0.9560   -0.01865
  0.9580   -0.03524
  0.9600   -0.04305
  0.9620   -0.05327
  0.9640   -0.05688
  0.9660   -0.05894
  0.9680   -0.05525
  0.9700   -0.04905
  0.9720   -0.04104
  0.9740   -0.02467
  0.9760   -0.01231
  0.9780   -0.00595
  0.9800   -0.00138
  0.9820   -0.00267
  0.9840   -0.00637
  0.9860   -0.01375
  0.9880   -0.01987
  0.9900   -0.04479
  0.9920   -0.06828
  0.9940   -0.09183
  0.9960   -0.11111
  0.9980   -0.13651
  1.0000   -0.17005
