# z (nm)   (kJ/mol)
  0.4610   12.80730
  0.4630   11.99710
  0.4650   11.16890
  0.4670   10.27640
  0.4690    9.36190
  0.4710    8.45600
  0.4730    7.54120
  0.4750    6.61200
  0.4770    5.67340
  0.4790    4.72870
  0.4810    3.78650
  0.4830    2.84640
  0.4850    1.90390
  0.4870    0.96450
  0.4890    0.03280
  0.4910   -0.89020
  0.4930   -1.80240
  0.4950   -2.69890
  0.4970   -3.57890
  0.4990   -4.44070
  0.5010   -5.28010
  0.5030   -6.09630
  0.5050   -6.88850
  0.5070   -7.65240
  0.5090   -8.38810
  0.5110   -9.09240
  0.5130   -9.76320
  0.5150  -10.40190
  0.5170  -11.00430
  0.5190  -11.57040
  0.5210  -12.10180
  0.5230  -12.59590
  0.5250  -13.05050
  0.5270  -13.46560
  0.5290  -13.84270
  0.5310  -14.18270
  0.5330  -14.48460
  0.5350  -14.74710
  0.5370  -14.97240
  0.5390  -15.16170
  0.5410  -15.31420
  0.5430  -15.42940
  0.5450  -15.50870
  0.5470  -15.55300
  0.5490  -15.55850
  0.5510  -15.52820
  0.5530  -15.46600
  0.5550  -15.36810
  0.5570  -15.23690
  0.5590  -15.07630
  0.5610  -14.88450
  0.5630  -14.66200
  0.5650  -14.41240
  0.5670  -14.13740
  0.5690  -13.83820
  0.5710  -13.51590
  0.5730  -13.17170
  0.5750  -12.81090
  0.5770  -12.43410
  0.5790  -12.04550
  0.5810  -11.64750
  0.5830  -11.24190
  0.5850  -10.83270
  0.5870  -10.41890
  0.5890  -10.00500
  0.5910   -9.59250
  0.5930   -9.18380
  0.5950   -8.78310
  0.5970   -8.39110
  0.5990   -8.01070
  0.6010   -7.63600
  0.6030   -7.27240
  0.6050   -6.92600
  0.6070   -6.59310
  0.6090   -6.27630
  0.6110   -5.97490
  0.6130   -5.68820
  0.6150   -5.41850
  0.6170   -5.16300
  0.6190   -4.92190
  0.6210   -4.70100
  0.6230   -4.49880
  0.6250   -4.31180
  0.6270   -4.13950
  0.6290   -3.98510
  0.6310   -3.84760
  0.6330   -3.72500
  0.6350   -3.61830
  0.6370   -3.52490
  0.6390   -3.44280
  0.6410   -3.37510
  0.6430   -3.32230
  0.6450   -3.28000
  0.6470   -3.24940
  0.6490   -3.23140
  0.6510   -3.22200
  0.6530   -3.22350
  0.6550   -3.23380
  0.6570   -3.24710
  0.6590   -3.26640
  0.6610   -3.29190
  0.6630   -3.32030
  0.6650   -3.35170
  0.6670   -3.38540
  0.6690   -3.42010
  0.6710   -3.45530
  0.6730   -3.49170
  0.6750   -3.52680
  0.6770   -3.55940
  0.6790   -3.59110
  0.6810   -3.62070
  0.6830   -3.64790
  0.6850   -3.67270
  0.6870   -3.69390
  0.6890   -3.71130
  0.6910   -3.72490
  0.6930   -3.73450
  0.6950   -3.73980
  0.6970   -3.74050
  0.6990   -3.73660
  0.7010   -3.72800
  0.7030   -3.71480
  0.7050   -3.69590
  0.7070   -3.67200
  0.7090   -3.64370
  0.7110   -3.61110
  0.7130   -3.57430
  0.7150   -3.53360
  0.7170   -3.48860
  0.7190   -3.43990
  0.7210   -3.38790
  0.7230   -3.33370
  0.7250   -3.27750
  0.7270   -3.21740
  0.7290   -3.15540
  0.7310   -3.09230
  0.7330   -3.02760
  0.7350   -2.96180
  0.7370   -2.89450
  0.7390   -2.82670
  0.7410   -2.75900
  0.7430   -2.69100
  0.7450   -2.62300
  0.7470   -2.55460
  0.7490   -2.48640
  0.7510   -2.41990
  0.7530   -2.35390
  0.7550   -2.28840
  0.7570   -2.22410
  0.7590   -2.16070
  0.7610   -2.09900
  0.7630   -2.03910
  0.7650   -1.98060
  0.7670   -1.92360
  0.7690   -1.86890
  0.7710   -1.81620
  0.7730   -1.76490
  0.7750   -1.71530
  0.7770   -1.66730
  0.7790   -1.62110
  0.7810   -1.57710
  0.7830   -1.53450
  0.7850   -1.49370
  0.7870   -1.45450
  0.7890   -1.41650
  0.7910   -1.38000
  0.7930   -1.34520
  0.7950   -1.31190
  0.7970   -1.28020
  0.7990   -1.25000
  0.8010   -1.22070
  0.8030   -1.19270
  0.8050   -1.16570
  0.8070   -1.13990
  0.8090   -1.11500
  0.8110   -1.09100
  0.8130   -1.06780
  0.8150   -1.04540
  0.8170   -1.02380
  0.8190   -1.00310
  0.8210   -0.98330
  0.8230   -0.96420
  0.8250   -0.94570
  0.8270   -0.92800
  0.8290   -0.91110
  0.8310   -0.89470
  0.8330   -0.87900
  0.8350   -0.86390
  0.8370   -0.84960
  0.8390   -0.83620
  0.8410   -0.82340
  0.8430   -0.81140
  0.8450   -0.80000
  0.8470   -0.78930
  0.8490   -0.77940
  0.8510   -0.77050
  0.8530   -0.76260
  0.8550   -0.75510
  0.8570   -0.74830
  0.8590   -0.74240
  0.8610   -0.73730
  0.8630   -0.73300
  0.8650   -0.72940
  0.8670   -0.72650
  0.8690   -0.72460
  0.8710   -0.72330
  0.8730   -0.72270
  0.8750   -0.72290
  0.8770   -0.72360
  0.8790   -0.72490
  0.8810   -0.72680
  0.8830   -0.72920
  0.8850   -0.73210
  0.8870   -0.73550
  0.8890   -0.73940
  0.8910   -0.74360
  0.8930   -0.74800
  0.8950   -0.75270
  0.8970   -0.75750
  0.8990   -0.76240
  0.9010   -0.76740
  0.9030   -0.77250
  0.9050   -0.77760
  0.9070   -0.78240
  0.9090   -0.78700
  0.9110   -0.79160
  0.9130   -0.79600
  0.9150   -0.80000
  0.9170   -0.80360
  0.9190   -0.80680
  0.9210   -0.80960
  0.9230   -0.81190
  0.9250   -0.81360
  0.9270   -0.81480
  0.9290   -0.81530
  0.9310   -0.81530
  0.9330   -0.81460
  0.9350   -0.81330
  0.9370   -0.81120
  0.9390   -0.80840
  0.9410   -0.80490
  0.9430   -0.80050
  0.9450   -0.79530
  0.9470   -0.78930
  0.9490   -0.78270
  0.9510   -0.77540
  0.9530   -0.76750
  0.9550   -0.75880
  0.9570   -0.74930
  0.9590   -0.73920
  0.9610   -0.72850
  0.9630   -0.71710
  0.9650   -0.70500
  0.9670   -0.69240
  0.9690   -0.67940
  0.9710   -0.66590
  0.9730   -0.65190
  0.9750   -0.63760
  0.9770   -0.62300
  0.9790   -0.60790
  0.9810   -0.59270
  0.9830   -0.57720
  0.9850   -0.56140
  0.9870   -0.54560
  0.9890   -0.52960
  0.9910   -0.51360
  0.9930   -0.49750
  0.9950   -0.48150
  0.9970   -0.46570
  0.9990   -0.45010
  1.0010   -0.43470
  1.0030   -0.41950
  1.0050   -0.40470
  1.0070   -0.39010
  1.0090   -0.37590
  1.0110   -0.36220
  1.0130   -0.34910
  1.0150   -0.33630
  1.0170   -0.32400
  1.0190   -0.31240
  1.0210   -0.30130
  1.0230   -0.29070
  1.0250   -0.28070
  1.0270   -0.27130
  1.0290   -0.26250
  1.0310   -0.25440
  1.0330   -0.24700
  1.0350   -0.24030
  1.0370   -0.23420
  1.0390   -0.22880
  1.0410   -0.22390
  1.0430   -0.21970
  1.0450   -0.21640
  1.0470   -0.21350
  1.0490   -0.21130
  1.0510   -0.20990
  1.0530   -0.20900
  1.0550   -0.20850
  1.0570   -0.20860
  1.0590   -0.20930
  1.0610   -0.21060
  1.0630   -0.21220
  1.0650   -0.21430
  1.0670   -0.21690
  1.0690   -0.21990
  1.0710   -0.22320
  1.0730   -0.22690
  1.0750   -0.23100
  1.0770   -0.23530
  1.0790   -0.23980
  1.0810   -0.24460
  1.0830   -0.24950
  1.0850   -0.25480
  1.0870   -0.26020
  1.0890   -0.26560
  1.0910   -0.27100
  1.0930   -0.27650
  1.0950   -0.28210
  1.0970   -0.28770
  1.0990   -0.29310
  1.1010   -0.29840
  1.1030   -0.30370
  1.1050   -0.30880
  1.1070   -0.31390
  1.1090   -0.31870
  1.1110   -0.32340
  1.1130   -0.32780
  1.1150   -0.33200
  1.1170   -0.33590
  1.1190   -0.33970
  1.1210   -0.34330
  1.1230   -0.34650
  1.1250   -0.34940
  1.1270   -0.35200
  1.1290   -0.35430
  1.1310   -0.35620
  1.1330   -0.35780
  1.1350   -0.35900
  1.1370   -0.35990
  1.1390   -0.36040
  1.1410   -0.36050
  1.1430   -0.36020
  1.1450   -0.35950
  1.1470   -0.35840
  1.1490   -0.35700
  1.1510   -0.35510
  1.1530   -0.35280
  1.1550   -0.35020
  1.1570   -0.34720
  1.1590   -0.34380
  1.1610   -0.34010
  1.1630   -0.33600
  1.1650   -0.33160
  1.1670   -0.32680
  1.1690   -0.32170
  1.1710   -0.31630
  1.1730   -0.31070
  1.1750   -0.30460
  1.1770   -0.29820
  1.1790   -0.29160
  1.1810   -0.28470
  1.1830   -0.27760
  1.1850   -0.27010
  1.1870   -0.26240
  1.1890   -0.25450
  1.1910   -0.24630
  1.1930   -0.23800
  1.1950   -0.22960
  1.1970   -0.22100
  1.1990   -0.21240
  1.2010   -0.20360
  1.2030   -0.19470
  1.2050   -0.18590
  1.2070   -0.17700
  1.2090   -0.16800
  1.2110   -0.15910
  1.2130   -0.15020
  1.2150   -0.14120
  1.2170   -0.13240
  1.2190   -0.12340
  1.2210   -0.11460
  1.2230   -0.10600
  1.2250   -0.09750
  1.2270   -0.08910
  1.2290   -0.08080
  1.2310   -0.07260
  1.2330   -0.06470
  1.2350   -0.05700
  1.2370   -0.04950
  1.2390   -0.04220
  1.2410   -0.03510
  1.2430   -0.02820
  1.2450   -0.02170
  1.2470   -0.01540
  1.2490   -0.00930
  1.2510   -0.00350
  1.2530    0.00210
  1.2550    0.00740
  1.2570    0.01240
  1.2590    0.01710
  1.2610    0.02150
  1.2630    0.02570
  1.2650    0.02950
  1.2670    0.03300
  1.2690    0.03610
  1.2710    0.03910
  1.2730    0.04180
  1.2750    0.04430
  1.2770    0.04640
  1.2790    0.04820
  1.2810    0.04980
  1.2830    0.05120
  1.2850    0.05220
  1.2870    0.05310
  1.2890    0.05370
  1.2910    0.05410
  1.2930    0.05420
  1.2950    0.05410
  1.2970    0.05370
  1.2990    0.05320
  1.3010    0.05240
  1.3030    0.05150
  1.3050    0.05040
  1.3070    0.04920
  1.3090    0.04780
  1.3110    0.04630
  1.3130    0.04470
  1.3150    0.04290
  1.3170    0.04110
  1.3190    0.03930
  1.3210    0.03740
  1.3230    0.03550
  1.3250    0.03350
  1.3270    0.03150
  1.3290    0.02960
  1.3310    0.02760
  1.3330    0.02570
  1.3350    0.02380
  1.3370    0.02210
  1.3390    0.02040
  1.3410    0.01900
  1.3430    0.01760
  1.3450    0.01650
  1.3470    0.01560
  1.3490    0.01470
  1.3510    0.01410
  1.3530    0.01370
  1.3550    0.01360
  1.3570    0.01380
  1.3590    0.01430
  1.3610    0.01490
  1.3630    0.01600
  1.3650    0.01740
  1.3670    0.01910
  1.3690    0.02100
  1.3710    0.02320
  1.3730    0.02570
  1.3750    0.02850
  1.3770    0.03170
  1.3790    0.03530
  1.3810    0.03920
  1.3830    0.04330
  1.3850    0.04780
  1.3870    0.05240
  1.3890    0.05690
  1.3910    0.06150
  1.3930    0.06620
  1.3950    0.07110
  1.3970    0.07620
  1.3990    0.08110
