# z (nm)   (kJ/mol)
  0.5210   15.97470
  0.5230   15.54780
  0.5250   15.10100
  0.5270   14.66850
  0.5290   14.21710
  0.5310   13.73530
  0.5330   13.24780
  0.5350   12.75970
  0.5370   12.26170
  0.5390   11.75690
  0.5410   11.24440
  0.5430   10.72160
  0.5450   10.18870
  0.5470    9.64680
  0.5490    9.09530
  0.5510    8.54330
  0.5530    7.99360
  0.5550    7.44140
  0.5570    6.88360
  0.5590    6.33080
  0.5610    5.78240
  0.5630    5.23580
  0.5650    4.69870
  0.5670    4.17540
  0.5690    3.66300
  0.5710    3.15910
  0.5730    2.66860
  0.5750    2.19190
  0.5770    1.72940
  0.5790    1.27560
  0.5810    0.83550
  0.5830    0.41140
  0.5850   -0.00160
  0.5870   -0.39750
  0.5890   -0.78220
  0.5910   -1.15580
  0.5930   -1.51660
  0.5950   -1.86430
  0.5970   -2.19590
  0.5990   -2.51560
  0.6010   -2.82180
  0.6030   -3.11340
  0.6050   -3.39250
  0.6070   -3.65650
  0.6090   -3.90620
  0.6110   -4.14400
  0.6130   -4.36880
  0.6150   -4.57960
  0.6170   -4.77720
  0.6190   -4.96150
  0.6210   -5.13170
  0.6230   -5.28830
  0.6250   -5.43170
  0.6270   -5.56300
  0.6290   -5.68260
  0.6310   -5.79090
  0.6330   -5.88740
  0.6350   -5.97270
  0.6370   -6.04780
  0.6390   -6.11150
  0.6410   -6.16510
  0.6430   -6.20920
  0.6450   -6.24420
  0.6470   -6.27100
  0.6490   -6.28780
  0.6510   -6.29650
  0.6530   -6.29870
  0.6550   -6.29410
  0.6570   -6.28400
  0.6590   -6.26790
  0.6610   -6.24490
  0.6630   -6.21590
  0.6650   -6.18280
  0.6670   -6.14580
  0.6690   -6.10420
  0.6710   -6.05980
  0.6730   -6.01160
  0.6750   -5.95920
  0.6770   -5.90350
  0.6790   -5.84500
  0.6810   -5.78380
  0.6830   -5.71900
  0.6850   -5.65210
  0.6870   -5.58360
  0.6890   -5.51270
  0.6910   -5.43940
  0.6930   -5.36400
  0.6950   -5.28670
  0.6970   -5.20790
  0.6990   -5.12720
  0.7010   -5.04490
  0.7030   -4.96140
  0.7050   -4.87650
  0.7070   -4.78920
  0.7090   -4.70020
  0.7110   -4.60980
  0.7130   -4.51740
  0.7150   -4.42400
  0.7170   -4.32930
  0.7190   -4.23340
  0.7210   -4.13660
  0.7230   -4.03850
  0.7250   -3.93960
  0.7270   -3.84000
  0.7290   -3.73950
  0.7310   -3.63840
  0.7330   -3.53700
  0.7350   -3.43530
  0.7370   -3.33360
  0.7390   -3.23260
  0.7410   -3.13180
  0.7430   -3.03130
  0.7450   -2.93190
  0.7470   -2.83370
  0.7490   -2.73710
  0.7510   -2.64130
  0.7530   -2.54650
  0.7550   -2.45300
  0.7570   -2.36120
  0.7590   -2.27140
  0.7610   -2.18360
  0.7630   -2.09890
  0.7650   -2.01710
  0.7670   -1.93780
  0.7690   -1.86100
  0.7710   -1.78640
  0.7730   -1.71520
  0.7750   -1.64720
  0.7770   -1.58190
  0.7790   -1.51950
  0.7810   -1.46020
  0.7830   -1.40430
  0.7850   -1.35160
  0.7870   -1.30230
  0.7890   -1.25620
  0.7910   -1.21340
  0.7930   -1.17330
  0.7950   -1.13600
  0.7970   -1.10210
  0.7990   -1.07100
  0.8010   -1.04260
  0.8030   -1.01670
  0.8050   -0.99340
  0.8070   -0.97240
  0.8090   -0.95380
  0.8110   -0.93750
  0.8130   -0.92310
  0.8150   -0.91050
  0.8170   -0.89980
  0.8190   -0.89090
  0.8210   -0.88390
  0.8230   -0.87780
  0.8250   -0.87300
  0.8270   -0.86930
  0.8290   -0.86610
  0.8310   -0.86410
  0.8330   -0.86250
  0.8350   -0.86130
  0.8370   -0.86050
  0.8390   -0.85980
  0.8410   -0.85960
  0.8430   -0.85960
  0.8450   -0.85940
  0.8470   -0.85930
  0.8490   -0.85880
  0.8510   -0.85790
  0.8530   -0.85690
  0.8550   -0.85540
  0.8570   -0.85350
  0.8590   -0.85100
  0.8610   -0.84780
  0.8630   -0.84430
  0.8650   -0.84020
  0.8670   -0.83540
  0.8690   -0.83000
  0.8710   -0.82410
  0.8730   -0.81720
  0.8750   -0.80990
  0.8770   -0.80210
  0.8790   -0.79330
  0.8810   -0.78370
  0.8830   -0.77380
  0.8850   -0.76340
  0.8870   -0.75230
  0.8890   -0.74060
  0.8910   -0.72850
  0.8930   -0.71600
  0.8950   -0.70290
  0.8970   -0.68900
  0.8990   -0.67510
  0.9010   -0.66060
  0.9030   -0.64570
  0.9050   -0.63070
  0.9070   -0.61550
  0.9090   -0.59970
  0.9110   -0.58360
  0.9130   -0.56740
  0.9150   -0.55090
  0.9170   -0.53430
  0.9190   -0.51770
  0.9210   -0.50100
  0.9230   -0.48420
  0.9250   -0.46730
  0.9270   -0.45050
  0.9290   -0.43370
  0.9310   -0.41690
  0.9330   -0.40020
  0.9350   -0.38380
  0.9370   -0.36740
  0.9390   -0.35100
  0.9410   -0.33480
  0.9430   -0.31880
  0.9450   -0.30320
  0.9470   -0.28780
  0.9490   -0.27260
  0.9510   -0.25790
  0.9530   -0.24360
  0.9550   -0.22950
  0.9570   -0.21590
  0.9590   -0.20290
  0.9610   -0.19030
  0.9630   -0.17800
  0.9650   -0.16640
  0.9670   -0.15530
  0.9690   -0.14460
  0.9710   -0.13440
  0.9730   -0.12490
  0.9750   -0.11590
  0.9770   -0.10760
  0.9790   -0.10000
  0.9810   -0.09310
  0.9830   -0.08690
  0.9850   -0.08130
  0.9870   -0.07640
  0.9890   -0.07200
  0.9910   -0.06820
  0.9930   -0.06510
  0.9950   -0.06280
  0.9970   -0.06100
  0.9990   -0.06000
  1.0010   -0.05970
  1.0030   -0.05990
  1.0050   -0.06070
  1.0070   -0.06200
  1.0090   -0.06390
  1.0110   -0.06640
  1.0130   -0.06940
  1.0150   -0.07290
  1.0170   -0.07690
  1.0190   -0.08140
  1.0210   -0.08650
  1.0230   -0.09210
  1.0250   -0.09800
  1.0270   -0.10430
  1.0290   -0.11090
  1.0310   -0.11780
  1.0330   -0.12520
  1.0350   -0.13290
  1.0370   -0.14100
  1.0390   -0.14920
  1.0410   -0.15760
  1.0430   -0.16620
  1.0450   -0.17480
  1.0470   -0.18360
  1.0490   -0.19250
  1.0510   -0.20160
  1.0530   -0.21050
  1.0550   -0.21950
  1.0570   -0.22830
  1.0590   -0.23710
  1.0610   -0.24590
  1.0630   -0.25460
  1.0650   -0.26330
  1.0670   -0.27180
  1.0690   -0.28000
  1.0710   -0.28790
  1.0730   -0.29570
  1.0750   -0.30320
  1.0770   -0.31040
  1.0790   -0.31740
  1.0810   -0.32400
  1.0830   -0.33050
  1.0850   -0.33650
  1.0870   -0.34230
  1.0890   -0.34780
  1.0910   -0.35280
  1.0930   -0.35750
  1.0950   -0.36170
  1.0970   -0.36550
  1.0990   -0.36890
  1.1010   -0.37200
  1.1030   -0.37460
  1.1050   -0.37670
  1.1070   -0.37850
  1.1090   -0.37970
  1.1110   -0.38050
  1.1130   -0.38100
  1.1150   -0.38130
  1.1170   -0.38100
  1.1190   -0.38040
  1.1210   -0.37930
  1.1230   -0.37790
  1.1250   -0.37610
  1.1270   -0.37380
  1.1290   -0.37120
  1.1310   -0.36830
  1.1330   -0.36500
  1.1350   -0.36130
  1.1370   -0.35730
  1.1390   -0.35300
  1.1410   -0.34830
  1.1430   -0.34320
  1.1450   -0.33780
  1.1470   -0.33230
  1.1490   -0.32660
  1.1510   -0.32080
  1.1530   -0.31480
  1.1550   -0.30860
  1.1570   -0.30200
  1.1590   -0.29520
  1.1610   -0.28840
  1.1630   -0.28150
  1.1650   -0.27450
  1.1670   -0.26740
  1.1690   -0.26020
  1.1710   -0.25290
  1.1730   -0.24570
  1.1750   -0.23840
  1.1770   -0.23110
  1.1790   -0.22350
  1.1810   -0.21600
  1.1830   -0.20840
  1.1850   -0.20100
  1.1870   -0.19350
  1.1890   -0.18610
  1.1910   -0.17890
  1.1930   -0.17180
  1.1950   -0.16480
  1.1970   -0.15790
  1.1990   -0.15100
  1.2010   -0.14420
  1.2030   -0.13760
  1.2050   -0.13110
  1.2070   -0.12470
  1.2090   -0.11850
  1.2110   -0.11240
  1.2130   -0.10660
  1.2150   -0.10110
  1.2170   -0.09570
  1.2190   -0.09030
  1.2210   -0.08520
  1.2230   -0.08030
  1.2250   -0.07550
  1.2270   -0.07100
  1.2290   -0.06680
  1.2310   -0.06260
  1.2330   -0.05870
  1.2350   -0.05490
  1.2370   -0.05130
  1.2390   -0.04800
  1.2410   -0.04490
  1.2430   -0.04200
  1.2450   -0.03920
  1.2470   -0.03660
  1.2490   -0.03400
  1.2510   -0.03160
  1.2530   -0.02940
  1.2550   -0.02740
  1.2570   -0.02540
  1.2590   -0.02360
  1.2610   -0.02180
  1.2630   -0.02030
  1.2650   -0.01890
  1.2670   -0.01750
  1.2690   -0.01620
  1.2710   -0.01510
  1.2730   -0.01400
  1.2750   -0.01300
  1.2770   -0.01210
  1.2790   -0.01120
  1.2810   -0.01030
  1.2830   -0.00950
  1.2850   -0.00890
  1.2870   -0.00830
  1.2890   -0.00780
  1.2910   -0.00730
  1.2930   -0.00690
  1.2950   -0.00630
  1.2970   -0.00570
  1.2990   -0.00520
  1.3010   -0.00470
  1.3030   -0.00420
  1.3050   -0.00370
  1.3070   -0.00320
  1.3090   -0.00260
  1.3110   -0.00190
  1.3130   -0.00120
  1.3150   -0.00050
  1.3170    0.00020
  1.3190    0.00110
  1.3210    0.00210
  1.3230    0.00320
  1.3250    0.00450
  1.3270    0.00580
  1.3290    0.00730
  1.3310    0.00900
  1.3330    0.01080
  1.3350    0.01280
  1.3370    0.01490
  1.3390    0.01710
  1.3410    0.01950
  1.3430    0.02210
  1.3450    0.02490
  1.3470    0.02790
  1.3490    0.03110
  1.3510    0.03450
  1.3530    0.03810
  1.3550    0.04190
  1.3570    0.04580
  1.3590    0.04990
  1.3610    0.05430
  1.3630    0.05890
  1.3650    0.06370
  1.3670    0.06870
  1.3690    0.07370
  1.3710    0.07900
  1.3730    0.08470
  1.3750    0.09050
  1.3770    0.09640
  1.3790    0.10260
  1.3810    0.10860
  1.3830    0.11480
  1.3850    0.12110
  1.3870    0.12750
  1.3890    0.13410
  1.3910    0.14050
  1.3930    0.14680
  1.3950    0.15300
  1.3970    0.15870
  1.3990    0.16410
