# z (nm)   (kJ/mol)
  0.4290   11.91380
  0.4310   11.46980
  0.4330   11.01140
  0.4350   10.54050
  0.4370   10.09170
  0.4390    9.63230
  0.4410    9.14910
  0.4430    8.65650
  0.4450    8.18100
  0.4470    7.72560
  0.4490    7.26850
  0.4510    6.80130
  0.4530    6.34000
  0.4550    5.88560
  0.4570    5.43250
  0.4590    4.98660
  0.4610    4.55520
  0.4630    4.13240
  0.4650    3.71140
  0.4670    3.30390
  0.4690    2.91530
  0.4710    2.53770
  0.4730    2.17190
  0.4750    1.81140
  0.4770    1.45900
  0.4790    1.11910
  0.4810    0.79020
  0.4830    0.47210
  0.4850    0.16290
  0.4870   -0.13550
  0.4890   -0.42000
  0.4910   -0.69210
  0.4930   -0.95610
  0.4950   -1.21020
  0.4970   -1.45300
  0.4990   -1.68740
  0.5010   -1.91100
  0.5030   -2.12330
  0.5050   -2.32850
  0.5070   -2.52580
  0.5090   -2.71420
  0.5110   -2.89450
  0.5130   -3.06640
  0.5150   -3.22920
  0.5170   -3.38350
  0.5190   -3.53000
  0.5210   -3.66860
  0.5230   -3.79960
  0.5250   -3.92420
  0.5270   -4.04180
  0.5290   -4.15140
  0.5310   -4.25450
  0.5330   -4.35080
  0.5350   -4.44220
  0.5370   -4.52920
  0.5390   -4.60910
  0.5410   -4.68310
  0.5430   -4.75230
  0.5450   -4.81760
  0.5470   -4.87890
  0.5490   -4.93610
  0.5510   -4.98920
  0.5530   -5.03800
  0.5550   -5.08530
  0.5570   -5.13070
  0.5590   -5.17150
  0.5610   -5.20890
  0.5630   -5.24330
  0.5650   -5.27500
  0.5670   -5.30520
  0.5690   -5.33350
  0.5710   -5.36040
  0.5730   -5.38530
  0.5750   -5.40750
  0.5770   -5.42820
  0.5790   -5.44690
  0.5810   -5.46330
  0.5830   -5.47820
  0.5850   -5.49130
  0.5870   -5.50250
  0.5890   -5.51130
  0.5910   -5.51760
  0.5930   -5.52210
  0.5950   -5.52470
  0.5970   -5.52510
  0.5990   -5.52340
  0.6010   -5.51920
  0.6030   -5.51310
  0.6050   -5.50570
  0.6070   -5.49640
  0.6090   -5.48430
  0.6110   -5.46990
  0.6130   -5.45340
  0.6150   -5.43460
  0.6170   -5.41460
  0.6190   -5.39240
  0.6210   -5.36820
  0.6230   -5.34250
  0.6250   -5.31500
  0.6270   -5.28590
  0.6290   -5.25530
  0.6310   -5.22340
  0.6330   -5.19000
  0.6350   -5.15510
  0.6370   -5.11950
  0.6390   -5.08320
  0.6410   -5.04600
  0.6430   -5.00810
  0.6450   -4.96950
  0.6470   -4.93060
  0.6490   -4.89170
  0.6510   -4.85270
  0.6530   -4.81360
  0.6550   -4.77410
  0.6570   -4.73480
  0.6590   -4.69590
  0.6610   -4.65710
  0.6630   -4.61850
  0.6650   -4.58050
  0.6670   -4.54320
  0.6690   -4.50640
  0.6710   -4.47000
  0.6730   -4.43500
  0.6750   -4.40090
  0.6770   -4.36680
  0.6790   -4.33390
  0.6810   -4.30200
  0.6830   -4.27070
  0.6850   -4.24000
  0.6870   -4.21020
  0.6890   -4.18110
  0.6910   -4.15240
  0.6930   -4.12490
  0.6950   -4.09780
  0.6970   -4.07100
  0.6990   -4.04490
  0.7010   -4.01960
  0.7030   -3.99470
  0.7050   -3.97030
  0.7070   -3.94630
  0.7090   -3.92230
  0.7110   -3.89850
  0.7130   -3.87520
  0.7150   -3.85240
  0.7170   -3.83000
  0.7190   -3.80790
  0.7210   -3.78610
  0.7230   -3.76470
  0.7250   -3.74360
  0.7270   -3.72280
  0.7290   -3.70200
  0.7310   -3.68150
  0.7330   -3.66140
  0.7350   -3.64140
  0.7370   -3.62210
  0.7390   -3.60300
  0.7410   -3.58400
  0.7430   -3.56540
  0.7450   -3.54710
  0.7470   -3.52900
  0.7490   -3.51110
  0.7510   -3.49360
  0.7530   -3.47640
  0.7550   -3.45960
  0.7570   -3.44320
  0.7590   -3.42720
  0.7610   -3.41150
  0.7630   -3.39610
  0.7650   -3.38110
  0.7670   -3.36670
  0.7690   -3.35260
  0.7710   -3.33870
  0.7730   -3.32540
  0.7750   -3.31220
  0.7770   -3.29930
  0.7790   -3.28690
  0.7810   -3.27480
  0.7830   -3.26300
  0.7850   -3.25150
  0.7870   -3.24030
  0.7890   -3.22940
  0.7910   -3.21850
  0.7930   -3.20770
  0.7950   -3.19710
  0.7970   -3.18660
  0.7990   -3.17620
  0.8010   -3.16560
  0.8030   -3.15490
  0.8050   -3.14430
  0.8070   -3.13340
  0.8090   -3.12220
  0.8110   -3.11080
  0.8130   -3.09910
  0.8150   -3.08720
  0.8170   -3.07510
  0.8190   -3.06230
  0.8210   -3.04900
  0.8230   -3.03520
  0.8250   -3.02100
  0.8270   -3.00620
  0.8290   -2.99070
  0.8310   -2.97470
  0.8330   -2.95810
  0.8350   -2.94070
  0.8370   -2.92270
  0.8390   -2.90410
  0.8410   -2.88480
  0.8430   -2.86490
  0.8450   -2.84440
  0.8470   -2.82300
  0.8490   -2.80090
  0.8510   -2.77830
  0.8530   -2.75530
  0.8550   -2.73160
  0.8570   -2.70710
  0.8590   -2.68210
  0.8610   -2.65660
  0.8630   -2.63060
  0.8650   -2.60430
  0.8670   -2.57740
  0.8690   -2.55020
  0.8710   -2.52260
  0.8730   -2.49460
  0.8750   -2.46630
  0.8770   -2.43790
  0.8790   -2.40940
  0.8810   -2.38070
  0.8830   -2.35220
  0.8850   -2.32370
  0.8870   -2.29510
  0.8890   -2.26630
  0.8910   -2.23770
  0.8930   -2.20940
  0.8950   -2.18140
  0.8970   -2.15380
  0.8990   -2.12620
  0.9010   -2.09890
  0.9030   -2.07200
  0.9050   -2.04550
  0.9070   -2.01930
  0.9090   -1.99380
  0.9110   -1.96890
  0.9130   -1.94430
  0.9150   -1.91990
  0.9170   -1.89610
  0.9190   -1.87290
  0.9210   -1.85050
  0.9230   -1.82850
  0.9250   -1.80710
  0.9270   -1.78640
  0.9290   -1.76600
  0.9310   -1.74620
  0.9330   -1.72720
  0.9350   -1.70870
  0.9370   -1.69070
  0.9390   -1.67340
  0.9410   -1.65670
  0.9430   -1.64050
  0.9450   -1.62480
  0.9470   -1.60960
  0.9490   -1.59490
  0.9510   -1.58060
  0.9530   -1.56680
  0.9550   -1.55340
  0.9570   -1.54030
  0.9590   -1.52770
  0.9610   -1.51570
  0.9630   -1.50400
  0.9650   -1.49250
  0.9670   -1.48130
  0.9690   -1.47060
  0.9710   -1.46010
  0.9730   -1.44970
  0.9750   -1.43970
  0.9770   -1.42990
  0.9790   -1.42010
  0.9810   -1.41070
  0.9830   -1.40150
  0.9850   -1.39250
  0.9870   -1.38360
  0.9890   -1.37470
  0.9910   -1.36590
  0.9930   -1.35680
  0.9950   -1.34780
  0.9970   -1.33870
  0.9990   -1.32950
  1.0010   -1.32050
  1.0030   -1.31160
  1.0050   -1.30240
  1.0070   -1.29330
  1.0090   -1.28420
  1.0110   -1.27490
  1.0130   -1.26560
  1.0150   -1.25610
  1.0170   -1.24660
  1.0190   -1.23690
  1.0210   -1.22720
  1.0230   -1.21760
  1.0250   -1.20770
  1.0270   -1.19760
  1.0290   -1.18740
  1.0310   -1.17700
  1.0330   -1.16660
  1.0350   -1.15620
  1.0370   -1.14550
  1.0390   -1.13470
  1.0410   -1.12380
  1.0430   -1.11280
  1.0450   -1.10190
  1.0470   -1.09070
  1.0490   -1.07930
  1.0510   -1.06790
  1.0530   -1.05670
  1.0550   -1.04540
  1.0570   -1.03380
  1.0590   -1.02220
  1.0610   -1.01090
  1.0630   -0.99960
  1.0650   -0.98820
  1.0670   -0.97690
  1.0690   -0.96560
  1.0710   -0.95420
  1.0730   -0.94300
  1.0750   -0.93180
  1.0770   -0.92060
  1.0790   -0.90970
  1.0810   -0.89880
  1.0830   -0.88800
  1.0850   -0.87720
  1.0870   -0.86640
  1.0890   -0.85570
  1.0910   -0.84510
  1.0930   -0.83460
  1.0950   -0.82420
  1.0970   -0.81400
  1.0990   -0.80400
  1.1010   -0.79410
  1.1030   -0.78430
  1.1050   -0.77450
  1.1070   -0.76490
  1.1090   -0.75510
  1.1110   -0.74540
  1.1130   -0.73580
  1.1150   -0.72640
  1.1170   -0.71700
  1.1190   -0.70790
  1.1210   -0.69880
  1.1230   -0.68970
  1.1250   -0.68060
  1.1270   -0.67170
  1.1290   -0.66280
  1.1310   -0.65400
  1.1330   -0.64520
  1.1350   -0.63650
  1.1370   -0.62770
  1.1390   -0.61890
  1.1410   -0.61010
  1.1430   -0.60150
  1.1450   -0.59280
  1.1470   -0.58400
  1.1490   -0.57530
  1.1510   -0.56660
  1.1530   -0.55790
  1.1550   -0.54920
  1.1570   -0.54060
  1.1590   -0.53190
  1.1610   -0.52310
  1.1630   -0.51430
  1.1650   -0.50570
  1.1670   -0.49720
  1.1690   -0.48860
  1.1710   -0.48000
  1.1730   -0.47150
  1.1750   -0.46310
  1.1770   -0.45460
  1.1790   -0.44600
  1.1810   -0.43760
  1.1830   -0.42920
  1.1850   -0.42080
  1.1870   -0.41230
  1.1890   -0.40390
  1.1910   -0.39550
  1.1930   -0.38730
  1.1950   -0.37900
  1.1970   -0.37070
  1.1990   -0.36250
  1.2010   -0.35440
  1.2030   -0.34630
  1.2050   -0.33830
  1.2070   -0.33030
  1.2090   -0.32230
  1.2110   -0.31430
  1.2130   -0.30640
  1.2150   -0.29860
  1.2170   -0.29080
  1.2190   -0.28300
  1.2210   -0.27530
  1.2230   -0.26760
  1.2250   -0.25990
  1.2270   -0.25240
  1.2290   -0.24490
  1.2310   -0.23740
  1.2330   -0.22980
  1.2350   -0.22210
  1.2370   -0.21450
  1.2390   -0.20690
  1.2410   -0.19930
  1.2430   -0.19170
  1.2450   -0.18410
  1.2470   -0.17650
  1.2490   -0.16900
  1.2510   -0.16140
  1.2530   -0.15380
  1.2550   -0.14610
  1.2570   -0.13830
  1.2590   -0.13070
  1.2610   -0.12300
  1.2630   -0.11520
  1.2650   -0.10740
  1.2670   -0.09970
  1.2690   -0.09200
  1.2710   -0.08430
  1.2730   -0.07660
  1.2750   -0.06890
  1.2770   -0.06130
  1.2790   -0.05380
  1.2810   -0.04610
  1.2830   -0.03840
  1.2850   -0.03080
  1.2870   -0.02340
  1.2890   -0.01610
  1.2910   -0.00900
  1.2930   -0.00200
  1.2950    0.00490
  1.2970    0.01180
  1.2990    0.01870
  1.3010    0.02540
  1.3030    0.03210
  1.3050    0.03870
  1.3070    0.04510
  1.3090    0.05140
  1.3110    0.05760
  1.3130    0.06370
  1.3150    0.06970
  1.3170    0.07560
  1.3190    0.08130
  1.3210    0.08700
  1.3230    0.09270
  1.3250    0.09830
  1.3270    0.10390
  1.3290    0.10940
  1.3310    0.11500
  1.3330    0.12080
  1.3350    0.12640
  1.3370    0.13190
  1.3390    0.13740
  1.3410    0.14280
  1.3430    0.14820
  1.3450    0.15390
  1.3470    0.15950
  1.3490    0.16490
  1.3510    0.17050
  1.3530    0.17630
  1.3550    0.18210
  1.3570    0.18820
  1.3590    0.19420
  1.3610    0.20020
  1.3630    0.20650
  1.3650    0.21280
  1.3670    0.21910
  1.3690    0.22550
  1.3710    0.23210
  1.3730    0.23870
  1.3750    0.24550
  1.3770    0.25240
  1.3790    0.25940
  1.3810    0.26640
  1.3830    0.27340
  1.3850    0.28040
  1.3870    0.28740
  1.3890    0.29410
  1.3910    0.30060
  1.3930    0.30680
  1.3950    0.31290
  1.3970    0.31910
  1.3990    0.32480
