# z (nm)   (kJ/mol)
  0.4270   15.25260
  0.4290   14.71880
  0.4310   14.23770
  0.4330   13.74010
  0.4350   13.18880
  0.4370   12.66990
  0.4390   12.10340
  0.4410   11.51930
  0.4430   10.95480
  0.4450   10.40750
  0.4470    9.87610
  0.4490    9.35070
  0.4510    8.83670
  0.4530    8.33450
  0.4550    7.84370
  0.4570    7.36950
  0.4590    6.90920
  0.4610    6.46160
  0.4630    6.03150
  0.4650    5.62090
  0.4670    5.22140
  0.4690    4.83540
  0.4710    4.47050
  0.4730    4.12230
  0.4750    3.78870
  0.4770    3.47100
  0.4790    3.16700
  0.4810    2.87760
  0.4830    2.60500
  0.4850    2.34730
  0.4870    2.10190
  0.4890    1.86990
  0.4910    1.65280
  0.4930    1.44850
  0.4950    1.25770
  0.4970    1.07940
  0.4990    0.91340
  0.5010    0.75980
  0.5030    0.61760
  0.5050    0.48690
  0.5070    0.36750
  0.5090    0.25830
  0.5110    0.15930
  0.5130    0.06980
  0.5150   -0.01050
  0.5170   -0.08200
  0.5190   -0.14500
  0.5210   -0.20070
  0.5230   -0.24970
  0.5250   -0.29130
  0.5270   -0.32640
  0.5290   -0.35510
  0.5310   -0.37740
  0.5330   -0.39520
  0.5350   -0.41070
  0.5370   -0.42160
  0.5390   -0.42870
  0.5410   -0.43350
  0.5430   -0.43510
  0.5450   -0.43440
  0.5470   -0.43240
  0.5490   -0.43140
  0.5510   -0.43020
  0.5530   -0.42800
  0.5550   -0.42740
  0.5570   -0.42730
  0.5590   -0.42760
  0.5610   -0.43020
  0.5630   -0.43310
  0.5650   -0.43760
  0.5670   -0.44420
  0.5690   -0.45160
  0.5710   -0.46140
  0.5730   -0.47370
  0.5750   -0.48800
  0.5770   -0.50420
  0.5790   -0.52210
  0.5810   -0.54110
  0.5830   -0.56200
  0.5850   -0.58490
  0.5870   -0.60900
  0.5890   -0.63460
  0.5910   -0.66210
  0.5930   -0.69030
  0.5950   -0.71890
  0.5970   -0.74870
  0.5990   -0.77950
  0.6010   -0.81110
  0.6030   -0.84360
  0.6050   -0.87660
  0.6070   -0.90980
  0.6090   -0.94350
  0.6110   -0.97720
  0.6130   -1.01120
  0.6150   -1.04490
  0.6170   -1.07850
  0.6190   -1.11110
  0.6210   -1.14260
  0.6230   -1.17450
  0.6250   -1.20590
  0.6270   -1.23740
  0.6290   -1.26950
  0.6310   -1.30100
  0.6330   -1.33120
  0.6350   -1.36090
  0.6370   -1.38980
  0.6390   -1.41720
  0.6410   -1.44400
  0.6430   -1.47050
  0.6450   -1.49600
  0.6470   -1.52040
  0.6490   -1.54410
  0.6510   -1.56680
  0.6530   -1.58800
  0.6550   -1.60890
  0.6570   -1.62970
  0.6590   -1.64930
  0.6610   -1.66780
  0.6630   -1.68540
  0.6650   -1.70220
  0.6670   -1.71760
  0.6690   -1.73220
  0.6710   -1.74590
  0.6730   -1.75870
  0.6750   -1.77040
  0.6770   -1.78090
  0.6790   -1.79020
  0.6810   -1.79850
  0.6830   -1.80580
  0.6850   -1.81200
  0.6870   -1.81710
  0.6890   -1.82080
  0.6910   -1.82320
  0.6930   -1.82460
  0.6950   -1.82500
  0.6970   -1.82430
  0.6990   -1.82250
  0.7010   -1.81970
  0.7030   -1.81590
  0.7050   -1.81060
  0.7070   -1.80450
  0.7090   -1.79730
  0.7110   -1.78920
  0.7130   -1.78020
  0.7150   -1.77020
  0.7170   -1.75960
  0.7190   -1.74840
  0.7210   -1.73630
  0.7230   -1.72340
  0.7250   -1.70950
  0.7270   -1.69510
  0.7290   -1.68020
  0.7310   -1.66460
  0.7330   -1.64820
  0.7350   -1.63120
  0.7370   -1.61420
  0.7390   -1.59670
  0.7410   -1.57900
  0.7430   -1.56100
  0.7450   -1.54300
  0.7470   -1.52460
  0.7490   -1.50570
  0.7510   -1.48680
  0.7530   -1.46790
  0.7550   -1.44910
  0.7570   -1.43040
  0.7590   -1.41160
  0.7610   -1.39270
  0.7630   -1.37400
  0.7650   -1.35580
  0.7670   -1.33760
  0.7690   -1.31920
  0.7710   -1.30100
  0.7730   -1.28310
  0.7750   -1.26540
  0.7770   -1.24790
  0.7790   -1.23040
  0.7810   -1.21320
  0.7830   -1.19640
  0.7850   -1.17980
  0.7870   -1.16360
  0.7890   -1.14770
  0.7910   -1.13220
  0.7930   -1.11700
  0.7950   -1.10210
  0.7970   -1.08740
  0.7990   -1.07280
  0.8010   -1.05850
  0.8030   -1.04430
  0.8050   -1.03060
  0.8070   -1.01720
  0.8090   -1.00420
  0.8110   -0.99150
  0.8130   -0.97890
  0.8150   -0.96670
  0.8170   -0.95470
  0.8190   -0.94280
  0.8210   -0.93140
  0.8230   -0.92050
  0.8250   -0.90990
  0.8270   -0.89950
  0.8290   -0.88940
  0.8310   -0.87940
  0.8330   -0.86980
  0.8350   -0.86050
  0.8370   -0.85140
  0.8390   -0.84270
  0.8410   -0.83410
  0.8430   -0.82580
  0.8450   -0.81750
  0.8470   -0.80960
  0.8490   -0.80190
  0.8510   -0.79440
  0.8530   -0.78700
  0.8550   -0.78000
  0.8570   -0.77310
  0.8590   -0.76640
  0.8610   -0.75950
  0.8630   -0.75280
  0.8650   -0.74650
  0.8670   -0.74010
  0.8690   -0.73380
  0.8710   -0.72770
  0.8730   -0.72160
  0.8750   -0.71560
  0.8770   -0.70970
  0.8790   -0.70360
  0.8810   -0.69750
  0.8830   -0.69160
  0.8850   -0.68560
  0.8870   -0.67940
  0.8890   -0.67310
  0.8910   -0.66680
  0.8930   -0.66040
  0.8950   -0.65400
  0.8970   -0.64740
  0.8990   -0.64090
  0.9010   -0.63420
  0.9030   -0.62730
  0.9050   -0.62030
  0.9070   -0.61320
  0.9090   -0.60600
  0.9110   -0.59870
  0.9130   -0.59120
  0.9150   -0.58350
  0.9170   -0.57570
  0.9190   -0.56790
  0.9210   -0.55980
  0.9230   -0.55160
  0.9250   -0.54330
  0.9270   -0.53480
  0.9290   -0.52620
  0.9310   -0.51740
  0.9330   -0.50850
  0.9350   -0.49930
  0.9370   -0.48990
  0.9390   -0.48060
  0.9410   -0.47160
  0.9430   -0.46230
  0.9450   -0.45270
  0.9470   -0.44320
  0.9490   -0.43350
  0.9510   -0.42380
  0.9530   -0.41420
  0.9550   -0.40470
  0.9570   -0.39520
  0.9590   -0.38600
  0.9610   -0.37650
  0.9630   -0.36710
  0.9650   -0.35760
  0.9670   -0.34830
  0.9690   -0.33920
  0.9710   -0.33010
  0.9730   -0.32140
  0.9750   -0.31270
  0.9770   -0.30390
  0.9790   -0.29510
  0.9810   -0.28650
  0.9830   -0.27810
  0.9850   -0.26990
  0.9870   -0.26180
  0.9890   -0.25380
  0.9910   -0.24600
  0.9930   -0.23840
  0.9950   -0.23100
  0.9970   -0.22360
  0.9990   -0.21640
  1.0010   -0.20950
  1.0030   -0.20270
  1.0050   -0.19590
  1.0070   -0.18930
  1.0090   -0.18300
  1.0110   -0.17690
  1.0130   -0.17100
  1.0150   -0.16510
  1.0170   -0.15930
  1.0190   -0.15380
  1.0210   -0.14860
  1.0230   -0.14350
  1.0250   -0.13870
  1.0270   -0.13390
  1.0290   -0.12940
  1.0310   -0.12500
  1.0330   -0.12080
  1.0350   -0.11660
  1.0370   -0.11260
  1.0390   -0.10870
  1.0410   -0.10490
  1.0430   -0.10140
  1.0450   -0.09800
  1.0470   -0.09470
  1.0490   -0.09150
  1.0510   -0.08840
  1.0530   -0.08540
  1.0550   -0.08270
  1.0570   -0.08010
  1.0590   -0.07770
  1.0610   -0.07540
  1.0630   -0.07330
  1.0650   -0.07130
  1.0670   -0.06930
  1.0690   -0.06750
  1.0710   -0.06580
  1.0730   -0.06410
  1.0750   -0.06250
  1.0770   -0.06110
  1.0790   -0.05980
  1.0810   -0.05870
  1.0830   -0.05760
  1.0850   -0.05680
  1.0870   -0.05600
  1.0890   -0.05530
  1.0910   -0.05470
  1.0930   -0.05420
  1.0950   -0.05390
  1.0970   -0.05370
  1.0990   -0.05340
  1.1010   -0.05320
  1.1030   -0.05340
  1.1050   -0.05350
  1.1070   -0.05380
  1.1090   -0.05420
  1.1110   -0.05470
  1.1130   -0.05520
  1.1150   -0.05580
  1.1170   -0.05660
  1.1190   -0.05740
  1.1210   -0.05830
  1.1230   -0.05940
  1.1250   -0.06060
  1.1270   -0.06190
  1.1290   -0.06310
  1.1310   -0.06440
  1.1330   -0.06580
  1.1350   -0.06710
  1.1370   -0.06850
  1.1390   -0.07010
  1.1410   -0.07170
  1.1430   -0.07330
  1.1450   -0.07490
  1.1470   -0.07660
  1.1490   -0.07840
  1.1510   -0.08010
  1.1530   -0.08180
  1.1550   -0.08350
  1.1570   -0.08520
  1.1590   -0.08690
  1.1610   -0.08860
  1.1630   -0.09030
  1.1650   -0.09200
  1.1670   -0.09360
  1.1690   -0.09510
  1.1710   -0.09650
  1.1730   -0.09800
  1.1750   -0.09940
  1.1770   -0.10070
  1.1790   -0.10190
  1.1810   -0.10320
  1.1830   -0.10440
  1.1850   -0.10540
  1.1870   -0.10620
  1.1890   -0.10690
  1.1910   -0.10760
  1.1930   -0.10820
  1.1950   -0.10860
  1.1970   -0.10890
  1.1990   -0.10910
  1.2010   -0.10920
  1.2030   -0.10920
  1.2050   -0.10890
  1.2070   -0.10850
  1.2090   -0.10790
  1.2110   -0.10730
  1.2130   -0.10650
  1.2150   -0.10550
  1.2170   -0.10450
  1.2190   -0.10320
  1.2210   -0.10180
  1.2230   -0.10020
  1.2250   -0.09850
  1.2270   -0.09680
  1.2290   -0.09480
  1.2310   -0.09280
  1.2330   -0.09070
  1.2350   -0.08840
  1.2370   -0.08600
  1.2390   -0.08340
  1.2410   -0.08080
  1.2430   -0.07830
  1.2450   -0.07560
  1.2470   -0.07290
  1.2490   -0.07010
  1.2510   -0.06720
  1.2530   -0.06420
  1.2550   -0.06120
  1.2570   -0.05820
  1.2590   -0.05510
  1.2610   -0.05200
  1.2630   -0.04880
  1.2650   -0.04560
  1.2670   -0.04250
  1.2690   -0.03940
  1.2710   -0.03620
  1.2730   -0.03310
  1.2750   -0.03010
  1.2770   -0.02730
  1.2790   -0.02450
  1.2810   -0.02180
  1.2830   -0.01900
  1.2850   -0.01620
  1.2870   -0.01360
  1.2890   -0.01110
  1.2910   -0.00860
  1.2930   -0.00620
  1.2950   -0.00380
  1.2970   -0.00160
  1.2990    0.00060
  1.3010    0.00260
  1.3030    0.00460
  1.3050    0.00660
  1.3070    0.00860
  1.3090    0.01040
  1.3110    0.01230
  1.3130    0.01410
  1.3150    0.01580
  1.3170    0.01760
  1.3190    0.01940
  1.3210    0.02110
  1.3230    0.02290
  1.3250    0.02470
  1.3270    0.02660
  1.3290    0.02840
  1.3310    0.03040
  1.3330    0.03240
  1.3350    0.03460
  1.3370    0.03680
  1.3390    0.03900
  1.3410    0.04120
  1.3430    0.04360
  1.3450    0.04620
  1.3470    0.04910
  1.3490    0.05210
  1.3510    0.05530
  1.3530    0.05850
  1.3550    0.06190
  1.3570    0.06550
  1.3590    0.06910
  1.3610    0.07290
  1.3630    0.07690
  1.3650    0.08110
  1.3670    0.08550
  1.3690    0.08990
  1.3710    0.09460
  1.3730    0.09950
  1.3750    0.10450
  1.3770    0.10950
  1.3790    0.11460
  1.3810    0.11970
  1.3830    0.12500
  1.3850    0.13020
  1.3870    0.13560
  1.3890    0.14090
  1.3910    0.14590
  1.3930    0.15060
  1.3950    0.15490
  1.3970    0.15910
  1.3990    0.16300
