# z (nm)   (kJ/mol)
  0.261000,  3.646500
  0.267000,  2.944200
  0.271000,  1.323300
  0.273000,  0.482700
  0.275000, -0.371600
  0.277000, -1.221500
  0.279000, -2.044400
  0.281000, -2.888000
  0.283000, -3.771900
  0.285000, -4.657100
  0.287000, -5.525400
  0.289000, -6.394800
  0.291000, -7.262800
  0.293000, -8.113600
  0.295000, -8.962800
  0.297000, -9.814600
  0.299000,-10.658700
  0.301000,-11.490500
  0.303000,-12.308500
  0.305000,-13.112600
  0.307000,-13.899400
  0.309000,-14.670100
  0.311000,-15.422700
  0.313000,-16.158400
  0.315000,-16.878600
  0.317000,-17.575800
  0.319000,-18.248300
  0.321000,-18.898600
  0.323000,-19.525500
  0.325000,-20.128300
  0.327000,-20.703500
  0.329000,-21.251000
  0.331000,-21.770400
  0.333000,-22.261900
  0.335000,-22.721500
  0.337000,-23.149100
  0.339000,-23.549200
  0.341000,-23.918800
  0.343000,-24.256500
  0.345000,-24.561700
  0.347000,-24.834400
  0.349000,-25.074800
  0.351000,-25.282700
  0.353000,-25.458700
  0.355000,-25.601800
  0.357000,-25.712400
  0.359000,-25.791800
  0.361000,-25.839500
  0.363000,-25.855700
  0.365000,-25.841200
  0.367000,-25.797300
  0.369000,-25.725400
  0.371000,-25.624300
  0.373000,-25.495700
  0.375000,-25.343000
  0.377000,-25.164500
  0.379000,-24.960700
  0.381000,-24.736300
  0.383000,-24.490700
  0.385000,-24.224200
  0.387000,-23.939000
  0.389000,-23.635100
  0.391000,-23.315500
  0.393000,-22.981800
  0.395000,-22.634600
  0.397000,-22.275800
  0.399000,-21.906500
  0.401000,-21.529700
  0.403000,-21.146800
  0.405000,-20.756900
  0.407000,-20.362400
  0.409000,-19.963600
  0.411000,-19.563200
  0.413000,-19.162700
  0.415000,-18.762400
  0.417000,-18.364100
  0.419000,-17.967000
  0.421000,-17.573600
  0.423000,-17.185200
  0.425000,-16.801600
  0.427000,-16.424000
  0.429000,-16.053100
  0.431000,-15.690000
  0.433000,-15.334700
  0.435000,-14.987600
  0.437000,-14.648900
  0.439000,-14.319600
  0.441000,-13.999900
  0.443000,-13.689900
  0.445000,-13.390000
  0.447000,-13.100400
  0.449000,-12.821000
  0.451000,-12.551800
  0.453000,-12.293600
  0.455000,-12.045500
  0.457000,-11.807200
  0.459000,-11.579100
  0.461000,-11.360800
  0.463000,-11.152900
  0.465000,-10.955200
  0.467000,-10.766500
  0.469000,-10.587100
  0.471000,-10.417000
  0.473000,-10.255500
  0.475000,-10.102000
  0.477000, -9.956700
  0.479000, -9.819000
  0.481000, -9.689200
  0.483000, -9.567100
  0.485000, -9.451400
  0.487000, -9.341300
  0.489000, -9.236900
  0.491000, -9.139300
  0.493000, -9.046900
  0.495000, -8.959300
  0.497000, -8.876100
  0.499000, -8.796300
  0.501000, -8.720500
  0.503000, -8.647900
  0.505000, -8.578600
  0.507000, -8.511700
  0.509000, -8.447200
  0.511000, -8.384800
  0.513000, -8.324000
  0.515000, -8.265000
  0.517000, -8.207100
  0.519000, -8.149700
  0.521000, -8.093200
  0.523000, -8.037100
  0.525000, -7.980900
  0.527000, -7.924500
  0.529000, -7.867800
  0.531000, -7.810700
  0.533000, -7.753100
  0.535000, -7.694600
  0.537000, -7.635000
  0.539000, -7.574000
  0.541000, -7.511700
  0.543000, -7.448200
  0.545000, -7.383000
  0.547000, -7.316100
  0.549000, -7.247500
  0.551000, -7.176800
  0.553000, -7.104600
  0.555000, -7.030900
  0.557000, -6.955300
  0.559000, -6.878300
  0.561000, -6.799900
  0.563000, -6.719600
  0.565000, -6.638100
  0.567000, -6.555400
  0.569000, -6.470800
  0.571000, -6.384500
  0.573000, -6.297000
  0.575000, -6.208400
  0.577000, -6.118800
  0.579000, -6.028600
  0.581000, -5.938100
  0.583000, -5.847400
  0.585000, -5.756100
  0.587000, -5.664200
  0.589000, -5.572600
  0.591000, -5.481000
  0.593000, -5.389700
  0.595000, -5.299100
  0.597000, -5.208900
  0.599000, -5.119400
  0.601000, -5.030500
  0.603000, -4.942200
  0.605000, -4.855200
  0.607000, -4.769500
  0.609000, -4.684900
  0.611000, -4.602200
  0.613000, -4.521300
  0.615000, -4.442300
  0.617000, -4.365000
  0.619000, -4.289500
  0.621000, -4.215900
  0.623000, -4.144800
  0.625000, -4.075900
  0.627000, -4.009000
  0.629000, -3.944200
  0.631000, -3.882000
  0.633000, -3.822000
  0.635000, -3.763900
  0.637000, -3.707900
  0.639000, -3.654000
  0.641000, -3.602300
  0.643000, -3.552700
  0.645000, -3.505300
  0.647000, -3.460300
  0.649000, -3.417600
  0.651000, -3.376500
  0.653000, -3.336800
  0.655000, -3.298700
  0.657000, -3.262100
  0.659000, -3.227200
  0.661000, -3.194200
  0.663000, -3.162300
  0.665000, -3.131000
  0.667000, -3.100800
  0.669000, -3.072000
  0.671000, -3.044700
  0.673000, -3.018400
  0.675000, -2.993300
  0.677000, -2.968400
  0.679000, -2.943300
  0.681000, -2.918900
  0.683000, -2.895100
  0.685000, -2.871600
  0.687000, -2.848400
  0.689000, -2.825400
  0.691000, -2.802400
  0.693000, -2.779600
  0.695000, -2.757000
  0.697000, -2.734200
  0.699000, -2.711300
  0.701000, -2.688100
  0.703000, -2.664500
  0.705000, -2.640800
  0.707000, -2.616800
  0.709000, -2.592400
  0.711000, -2.568000
  0.713000, -2.543200
  0.715000, -2.518200
  0.717000, -2.493100
  0.719000, -2.467600
  0.721000, -2.441900
  0.723000, -2.415900
  0.725000, -2.389400
  0.727000, -2.362900
  0.729000, -2.336600
  0.731000, -2.310400
  0.733000, -2.283900
  0.735000, -2.257100
  0.737000, -2.230200
  0.739000, -2.203400
  0.741000, -2.176800
  0.743000, -2.150300
  0.745000, -2.123800
  0.747000, -2.097200
  0.749000, -2.071000
  0.751000, -2.045300
  0.753000, -2.019900
  0.755000, -1.994700
  0.757000, -1.969700
  0.759000, -1.944600
  0.761000, -1.919600
  0.763000, -1.894800
  0.765000, -1.870600
  0.767000, -1.847100
  0.769000, -1.823700
  0.771000, -1.800500
  0.773000, -1.777600
  0.775000, -1.755100
  0.777000, -1.733000
  0.779000, -1.711100
  0.781000, -1.689400
  0.783000, -1.667800
  0.785000, -1.646600
  0.787000, -1.625600
  0.789000, -1.604500
  0.791000, -1.583500
  0.793000, -1.563000
  0.795000, -1.542600
  0.797000, -1.522200
  0.799000, -1.502000
  0.801000, -1.481800
  0.803000, -1.461600
  0.805000, -1.441400
  0.807000, -1.421200
  0.809000, -1.401100
  0.811000, -1.380900
  0.813000, -1.360700
  0.815000, -1.340400
  0.817000, -1.320000
  0.819000, -1.299500
  0.821000, -1.278800
  0.823000, -1.258000
  0.825000, -1.237000
  0.827000, -1.215800
  0.829000, -1.194400
  0.831000, -1.172900
  0.833000, -1.151500
  0.835000, -1.129800
  0.837000, -1.108100
  0.839000, -1.086200
  0.841000, -1.064200
  0.843000, -1.042200
  0.845000, -1.020100
  0.847000, -0.998000
  0.849000, -0.975700
  0.851000, -0.953600
  0.853000, -0.931500
  0.855000, -0.909500
  0.857000, -0.887700
  0.859000, -0.865800
  0.861000, -0.843900
  0.863000, -0.822100
  0.865000, -0.800500
  0.867000, -0.779200
  0.869000, -0.758000
  0.871000, -0.737100
  0.873000, -0.716500
  0.875000, -0.696000
  0.877000, -0.676100
  0.879000, -0.656300
  0.881000, -0.636900
  0.883000, -0.617900
  0.885000, -0.599100
  0.887000, -0.580900
  0.889000, -0.563400
  0.891000, -0.546600
  0.893000, -0.530300
  0.895000, -0.514400
  0.897000, -0.499100
  0.899000, -0.484300
  0.901000, -0.470000
  0.903000, -0.456300
  0.905000, -0.443200
  0.907000, -0.430800
  0.909000, -0.418900
  0.911000, -0.407700
  0.913000, -0.397000
  0.915000, -0.386900
  0.917000, -0.377400
  0.919000, -0.368500
  0.921000, -0.360300
  0.923000, -0.352700
  0.925000, -0.345600
  0.927000, -0.339100
  0.929000, -0.333000
  0.931000, -0.327500
  0.933000, -0.322400
  0.935000, -0.317800
  0.937000, -0.313500
  0.939000, -0.309800
  0.941000, -0.306600
  0.943000, -0.303900
  0.945000, -0.301600
  0.947000, -0.299600
  0.949000, -0.297700
  0.951000, -0.296000
  0.953000, -0.294800
  0.955000, -0.293900
  0.957000, -0.293100
  0.959000, -0.292500
  0.961000, -0.292100
  0.963000, -0.292000
  0.965000, -0.292100
  0.967000, -0.292200
  0.969000, -0.292500
  0.971000, -0.292800
  0.973000, -0.293200
  0.975000, -0.293600
  0.977000, -0.294000
  0.979000, -0.294400
  0.981000, -0.294600
  0.983000, -0.294900
  0.985000, -0.295200
  0.987000, -0.295500
  0.989000, -0.295700
  0.991000, -0.295900
  0.993000, -0.295900
  0.995000, -0.295900
  0.997000, -0.295900
  0.999000, -0.295900
  1.001000, -0.295900
  1.003000, -0.295600
  1.005000, -0.295100
  1.007000, -0.294600
  1.009000, -0.294100
  1.011000, -0.293300
  1.013000, -0.292500
  1.015000, -0.291800
  1.017000, -0.291000
  1.019000, -0.290100
  1.021000, -0.289200
  1.023000, -0.288200
  1.025000, -0.287100
  1.027000, -0.285900
  1.029000, -0.284600
  1.031000, -0.283500
  1.033000, -0.282400
  1.035000, -0.281100
  1.037000, -0.279900
  1.039000, -0.278700
  1.041000, -0.277500
  1.043000, -0.276300
  1.045000, -0.275100
  1.047000, -0.274000
  1.049000, -0.272900
  1.051000, -0.271700
  1.053000, -0.270600
  1.055000, -0.269400
  1.057000, -0.268300
  1.059000, -0.267200
  1.061000, -0.266100
  1.063000, -0.265000
  1.065000, -0.263900
  1.067000, -0.262700
  1.069000, -0.261500
  1.071000, -0.260400
  1.073000, -0.259300
  1.075000, -0.258100
  1.077000, -0.256800
  1.079000, -0.255600
  1.081000, -0.254300
  1.083000, -0.253000
  1.085000, -0.251500
  1.087000, -0.249900
  1.089000, -0.248400
  1.091000, -0.246900
  1.093000, -0.245300
  1.095000, -0.243700
  1.097000, -0.241900
  1.099000, -0.240000
  1.101000, -0.238100
  1.103000, -0.236100
  1.105000, -0.233900
  1.107000, -0.231600
  1.109000, -0.229300
  1.111000, -0.226900
  1.113000, -0.224200
  1.115000, -0.221400
  1.117000, -0.218500
  1.119000, -0.215600
  1.121000, -0.212600
  1.123000, -0.209500
  1.125000, -0.206300
  1.127000, -0.203000
  1.129000, -0.199500
  1.131000, -0.196000
  1.133000, -0.192300
  1.135000, -0.188400
  1.137000, -0.184600
  1.139000, -0.180700
  1.141000, -0.176700
  1.143000, -0.172800
  1.145000, -0.168700
  1.147000, -0.164600
  1.149000, -0.160400
  1.151000, -0.156200
  1.153000, -0.151900
  1.155000, -0.147700
  1.157000, -0.143500
  1.159000, -0.139500
  1.161000, -0.135300
  1.163000, -0.131000
  1.165000, -0.126900
  1.167000, -0.122800
  1.169000, -0.118600
  1.171000, -0.114500
  1.173000, -0.110500
  1.175000, -0.106700
  1.177000, -0.102900
  1.179000, -0.099100
  1.181000, -0.095500
  1.183000, -0.092100
  1.185000, -0.088800
  1.187000, -0.085500
  1.189000, -0.082400
  1.191000, -0.079400
  1.193000, -0.076400
  1.195000, -0.073600
  1.197000, -0.070800
  1.199000, -0.068200
  1.201000, -0.065700
  1.203000, -0.063300
  1.205000, -0.061000
  1.207000, -0.058900
  1.209000, -0.057000
  1.211000, -0.055200
  1.213000, -0.053700
  1.215000, -0.052100
  1.217000, -0.050600
  1.219000, -0.049100
  1.221000, -0.047600
  1.223000, -0.046300
  1.225000, -0.045200
  1.227000, -0.044200
  1.229000, -0.043100
  1.231000, -0.042100
  1.233000, -0.041100
  1.235000, -0.040200
  1.237000, -0.039300
  1.239000, -0.038500
  1.241000, -0.037700
  1.243000, -0.036900
  1.245000, -0.036100
  1.247000, -0.035400
  1.249000, -0.034700
  1.251000, -0.033800
  1.253000, -0.032900
  1.255000, -0.032000
  1.257000, -0.031100
  1.259000, -0.030400
  1.261000, -0.029500
  1.263000, -0.028700
  1.265000, -0.028000
  1.267000, -0.027100
  1.269000, -0.026200
  1.271000, -0.025300
  1.273000, -0.024300
  1.275000, -0.023200
  1.277000, -0.022000
  1.279000, -0.021000
  1.281000, -0.020000
  1.283000, -0.018900
  1.285000, -0.017700
  1.287000, -0.016500
  1.289000, -0.015400
  1.291000, -0.014100
  1.293000, -0.012800
  1.295000, -0.011500
  1.297000, -0.010200
  1.299000, -0.009000
  1.301000, -0.007700
  1.303000, -0.006300
  1.305000, -0.005000
  1.307000, -0.003700
  1.309000, -0.002300
  1.311000, -0.001000
  1.313000,  0.000400
  1.315000,  0.001800
  1.317000,  0.003300
  1.319000,  0.004700
  1.321000,  0.006100
  1.323000,  0.007500
  1.325000,  0.009000
  1.327000,  0.010600
  1.329000,  0.012300
  1.331000,  0.013900
  1.333000,  0.015500
  1.335000,  0.017200
  1.337000,  0.019000
  1.339000,  0.020800
  1.341000,  0.022800
  1.343000,  0.024800
  1.345000,  0.026800
  1.347000,  0.028700
  1.349000,  0.030900
  1.351000,  0.033100
  1.353000,  0.035300
  1.355000,  0.037800
  1.357000,  0.040200
  1.359000,  0.042700
  1.361000,  0.045200
  1.363000,  0.047700
  1.365000,  0.050200
  1.367000,  0.052700
  1.369000,  0.055200
  1.371000,  0.057900
  1.373000,  0.060700
  1.375000,  0.063400
  1.377000,  0.066000
  1.379000,  0.068600
  1.381000,  0.071200
  1.383000,  0.073800
  1.385000,  0.076100
  1.387000,  0.078300
  1.389000,  0.080500
  1.391000,  0.082500
  1.393000,  0.084200
  1.395000,  0.085900
  1.397000,  0.087200
  1.399000,  0.087900
