# z (nm)   (kJ/mol)
  0.2710   13.46890
  0.2730   12.99910
  0.2750   12.52740
  0.2770   12.06170
  0.2790   11.62140
  0.2810   11.17140
  0.2830   10.71800
  0.2850   10.26850
  0.2870    9.80860
  0.2890    9.34310
  0.2910    8.87940
  0.2930    8.41380
  0.2950    7.95070
  0.2970    7.48700
  0.2990    7.02650
  0.3010    6.56520
  0.3030    6.10340
  0.3050    5.64900
  0.3070    5.19850
  0.3090    4.75650
  0.3110    4.32530
  0.3130    3.89880
  0.3150    3.47120
  0.3170    3.04700
  0.3190    2.63200
  0.3210    2.22770
  0.3230    1.83520
  0.3250    1.45420
  0.3270    1.08040
  0.3290    0.71360
  0.3310    0.35750
  0.3330    0.00960
  0.3350   -0.32830
  0.3370   -0.65440
  0.3390   -0.97270
  0.3410   -1.27960
  0.3430   -1.57460
  0.3450   -1.85910
  0.3470   -2.13420
  0.3490   -2.40170
  0.3510   -2.65870
  0.3530   -2.90580
  0.3550   -3.14340
  0.3570   -3.37080
  0.3590   -3.58970
  0.3610   -3.79920
  0.3630   -3.99880
  0.3650   -4.18970
  0.3670   -4.37230
  0.3690   -4.54660
  0.3710   -4.71230
  0.3730   -4.87010
  0.3750   -5.02030
  0.3770   -5.16230
  0.3790   -5.29740
  0.3810   -5.42620
  0.3830   -5.54860
  0.3850   -5.66400
  0.3870   -5.77230
  0.3890   -5.87470
  0.3910   -5.97120
  0.3930   -6.06270
  0.3950   -6.15000
  0.3970   -6.23250
  0.3990   -6.31060
  0.4010   -6.38410
  0.4030   -6.45320
  0.4050   -6.51890
  0.4070   -6.58020
  0.4090   -6.63730
  0.4110   -6.69180
  0.4130   -6.74530
  0.4150   -6.79460
  0.4170   -6.83970
  0.4190   -6.88250
  0.4210   -6.92220
  0.4230   -6.95890
  0.4250   -6.99260
  0.4270   -7.02320
  0.4290   -7.05060
  0.4310   -7.07420
  0.4330   -7.09390
  0.4350   -7.10960
  0.4370   -7.12140
  0.4390   -7.12910
  0.4410   -7.13170
  0.4430   -7.13020
  0.4450   -7.12400
  0.4470   -7.11210
  0.4490   -7.09550
  0.4510   -7.07320
  0.4530   -7.04460
  0.4550   -7.01050
  0.4570   -6.97060
  0.4590   -6.92420
  0.4610   -6.87130
  0.4630   -6.81170
  0.4650   -6.74560
  0.4670   -6.67310
  0.4690   -6.59350
  0.4710   -6.50740
  0.4730   -6.41480
  0.4750   -6.31580
  0.4770   -6.21050
  0.4790   -6.09900
  0.4810   -5.98140
  0.4830   -5.85780
  0.4850   -5.72880
  0.4870   -5.59460
  0.4890   -5.45530
  0.4910   -5.31140
  0.4930   -5.16330
  0.4950   -5.01100
  0.4970   -4.85560
  0.4990   -4.69760
  0.5010   -4.53690
  0.5030   -4.37420
  0.5050   -4.21010
  0.5070   -4.04400
  0.5090   -3.87760
  0.5110   -3.71300
  0.5130   -3.54810
  0.5150   -3.38300
  0.5170   -3.22080
  0.5190   -3.06140
  0.5210   -2.90220
  0.5230   -2.74560
  0.5250   -2.59400
  0.5270   -2.44730
  0.5290   -2.30520
  0.5310   -2.16770
  0.5330   -2.03530
  0.5350   -1.90910
  0.5370   -1.78860
  0.5390   -1.67390
  0.5410   -1.56670
  0.5430   -1.46710
  0.5450   -1.37400
  0.5470   -1.28790
  0.5490   -1.20950
  0.5510   -1.13860
  0.5530   -1.07560
  0.5550   -1.02020
  0.5570   -0.97210
  0.5590   -0.93120
  0.5610   -0.89750
  0.5630   -0.87120
  0.5650   -0.85240
  0.5670   -0.84080
  0.5690   -0.83550
  0.5710   -0.83610
  0.5730   -0.84270
  0.5750   -0.85550
  0.5770   -0.87310
  0.5790   -0.89550
  0.5810   -0.92340
  0.5830   -0.95610
  0.5850   -0.99300
  0.5870   -1.03360
  0.5890   -1.07710
  0.5910   -1.12310
  0.5930   -1.17180
  0.5950   -1.22280
  0.5970   -1.27430
  0.5990   -1.32710
  0.6010   -1.38200
  0.6030   -1.43770
  0.6050   -1.49280
  0.6070   -1.54800
  0.6090   -1.60310
  0.6110   -1.65660
  0.6130   -1.70900
  0.6150   -1.76000
  0.6170   -1.80920
  0.6190   -1.85690
  0.6210   -1.90250
  0.6230   -1.94540
  0.6250   -1.98570
  0.6270   -2.02330
  0.6290   -2.05810
  0.6310   -2.09010
  0.6330   -2.11920
  0.6350   -2.14510
  0.6370   -2.16790
  0.6390   -2.18720
  0.6410   -2.20300
  0.6430   -2.21570
  0.6450   -2.22530
  0.6470   -2.23160
  0.6490   -2.23470
  0.6510   -2.23450
  0.6530   -2.23110
  0.6550   -2.22500
  0.6570   -2.21630
  0.6590   -2.20470
  0.6610   -2.19050
  0.6630   -2.17370
  0.6650   -2.15440
  0.6670   -2.13270
  0.6690   -2.10920
  0.6710   -2.08390
  0.6730   -2.05640
  0.6750   -2.02690
  0.6770   -1.99590
  0.6790   -1.96400
  0.6810   -1.93080
  0.6830   -1.89620
  0.6850   -1.86060
  0.6870   -1.82450
  0.6890   -1.78820
  0.6910   -1.75170
  0.6930   -1.71510
  0.6950   -1.67810
  0.6970   -1.64080
  0.6990   -1.60350
  0.7010   -1.56660
  0.7030   -1.53020
  0.7050   -1.49430
  0.7070   -1.45900
  0.7090   -1.42420
  0.7110   -1.39000
  0.7130   -1.35650
  0.7150   -1.32380
  0.7170   -1.29200
  0.7190   -1.26110
  0.7210   -1.23080
  0.7230   -1.20150
  0.7250   -1.17320
  0.7270   -1.14580
  0.7290   -1.11940
  0.7310   -1.09410
  0.7330   -1.06960
  0.7350   -1.04610
  0.7370   -1.02360
  0.7390   -1.00190
  0.7410   -0.98100
  0.7430   -0.96100
  0.7450   -0.94170
  0.7470   -0.92310
  0.7490   -0.90530
  0.7510   -0.88800
  0.7530   -0.87160
  0.7550   -0.85580
  0.7570   -0.84050
  0.7590   -0.82550
  0.7610   -0.81090
  0.7630   -0.79680
  0.7650   -0.78310
  0.7670   -0.76980
  0.7690   -0.75710
  0.7710   -0.74480
  0.7730   -0.73270
  0.7750   -0.72080
  0.7770   -0.70930
  0.7790   -0.69800
  0.7810   -0.68700
  0.7830   -0.67620
  0.7850   -0.66560
  0.7870   -0.65510
  0.7890   -0.64480
  0.7910   -0.63460
  0.7930   -0.62460
  0.7950   -0.61480
  0.7970   -0.60500
  0.7990   -0.59550
  0.8010   -0.58630
  0.8030   -0.57730
  0.8050   -0.56840
  0.8070   -0.55970
  0.8090   -0.55110
  0.8110   -0.54290
  0.8130   -0.53480
  0.8150   -0.52680
  0.8170   -0.51890
  0.8190   -0.51120
  0.8210   -0.50380
  0.8230   -0.49670
  0.8250   -0.48970
  0.8270   -0.48300
  0.8290   -0.47670
  0.8310   -0.47040
  0.8330   -0.46420
  0.8350   -0.45830
  0.8370   -0.45270
  0.8390   -0.44720
  0.8410   -0.44180
  0.8430   -0.43660
  0.8450   -0.43170
  0.8470   -0.42680
  0.8490   -0.42190
  0.8510   -0.41730
  0.8530   -0.41300
  0.8550   -0.40870
  0.8570   -0.40450
  0.8590   -0.40040
  0.8610   -0.39640
  0.8630   -0.39240
  0.8650   -0.38840
  0.8670   -0.38450
  0.8690   -0.38060
  0.8710   -0.37670
  0.8730   -0.37280
  0.8750   -0.36890
  0.8770   -0.36500
  0.8790   -0.36110
  0.8810   -0.35730
  0.8830   -0.35340
  0.8850   -0.34930
  0.8870   -0.34530
  0.8890   -0.34130
  0.8910   -0.33710
  0.8930   -0.33290
  0.8950   -0.32880
  0.8970   -0.32470
  0.8990   -0.32070
  0.9010   -0.31650
  0.9030   -0.31220
  0.9050   -0.30800
  0.9070   -0.30400
  0.9090   -0.29980
  0.9110   -0.29560
  0.9130   -0.29140
  0.9150   -0.28730
  0.9170   -0.28340
  0.9190   -0.27930
  0.9210   -0.27530
  0.9230   -0.27160
  0.9250   -0.26800
  0.9270   -0.26430
  0.9290   -0.26060
  0.9310   -0.25710
  0.9330   -0.25370
  0.9350   -0.25040
  0.9370   -0.24720
  0.9390   -0.24420
  0.9410   -0.24140
  0.9430   -0.23880
  0.9450   -0.23650
  0.9470   -0.23440
  0.9490   -0.23230
  0.9510   -0.23040
  0.9530   -0.22870
  0.9550   -0.22730
  0.9570   -0.22600
  0.9590   -0.22500
  0.9610   -0.22410
  0.9630   -0.22340
  0.9650   -0.22280
  0.9670   -0.22250
  0.9690   -0.22240
  0.9710   -0.22240
  0.9730   -0.22230
  0.9750   -0.22240
  0.9770   -0.22290
  0.9790   -0.22350
  0.9810   -0.22420
  0.9830   -0.22500
  0.9850   -0.22570
  0.9870   -0.22670
  0.9890   -0.22780
  0.9910   -0.22890
  0.9930   -0.23010
  0.9950   -0.23160
  0.9970   -0.23310
  0.9990   -0.23460
  1.0010   -0.23620
  1.0030   -0.23780
  1.0050   -0.23930
  1.0070   -0.24090
  1.0090   -0.24250
  1.0110   -0.24400
  1.0130   -0.24540
  1.0150   -0.24680
  1.0170   -0.24810
  1.0190   -0.24940
  1.0210   -0.25060
  1.0230   -0.25180
  1.0250   -0.25270
  1.0270   -0.25360
  1.0290   -0.25430
  1.0310   -0.25500
  1.0330   -0.25570
  1.0350   -0.25620
  1.0370   -0.25650
  1.0390   -0.25690
  1.0410   -0.25700
  1.0430   -0.25680
  1.0450   -0.25650
  1.0470   -0.25610
  1.0490   -0.25550
  1.0510   -0.25470
  1.0530   -0.25370
  1.0550   -0.25240
  1.0570   -0.25090
  1.0590   -0.24920
  1.0610   -0.24750
  1.0630   -0.24550
  1.0650   -0.24330
  1.0670   -0.24100
  1.0690   -0.23850
  1.0710   -0.23580
  1.0730   -0.23280
  1.0750   -0.22960
  1.0770   -0.22630
  1.0790   -0.22270
  1.0810   -0.21900
  1.0830   -0.21510
  1.0850   -0.21100
  1.0870   -0.20660
  1.0890   -0.20200
  1.0910   -0.19730
  1.0930   -0.19260
  1.0950   -0.18760
  1.0970   -0.18240
  1.0990   -0.17720
  1.1010   -0.17180
  1.1030   -0.16620
  1.1050   -0.16080
  1.1070   -0.15520
  1.1090   -0.14910
  1.1110   -0.14300
  1.1130   -0.13690
  1.1150   -0.13060
  1.1170   -0.12430
  1.1190   -0.11780
  1.1210   -0.11140
  1.1230   -0.10490
  1.1250   -0.09850
  1.1270   -0.09200
  1.1290   -0.08540
  1.1310   -0.07880
  1.1330   -0.07210
  1.1350   -0.06560
  1.1370   -0.05910
  1.1390   -0.05260
  1.1410   -0.04620
  1.1430   -0.03990
  1.1450   -0.03360
  1.1470   -0.02760
  1.1490   -0.02150
  1.1510   -0.01550
  1.1530   -0.00970
  1.1550   -0.00410
  1.1570    0.00150
  1.1590    0.00690
  1.1610    0.01210
  1.1630    0.01700
  1.1650    0.02180
  1.1670    0.02650
  1.1690    0.03090
  1.1710    0.03500
  1.1730    0.03900
  1.1750    0.04280
  1.1770    0.04630
  1.1790    0.04960
  1.1810    0.05250
  1.1830    0.05530
  1.1850    0.05780
  1.1870    0.06000
  1.1890    0.06200
  1.1910    0.06370
  1.1930    0.06520
  1.1950    0.06630
  1.1970    0.06730
  1.1990    0.06820
  1.2010    0.06850
  1.2030    0.06870
  1.2050    0.06870
  1.2070    0.06840
  1.2090    0.06800
  1.2110    0.06730
  1.2130    0.06640
  1.2150    0.06540
  1.2170    0.06420
  1.2190    0.06270
  1.2210    0.06120
  1.2230    0.05960
  1.2250    0.05780
  1.2270    0.05590
  1.2290    0.05390
  1.2310    0.05170
  1.2330    0.04930
  1.2350    0.04690
  1.2370    0.04450
  1.2390    0.04200
  1.2410    0.03940
  1.2430    0.03690
  1.2450    0.03430
  1.2470    0.03170
  1.2490    0.02920
  1.2510    0.02660
  1.2530    0.02400
  1.2550    0.02150
  1.2570    0.01900
  1.2590    0.01640
  1.2610    0.01400
  1.2630    0.01160
  1.2650    0.00920
  1.2670    0.00670
  1.2690    0.00440
  1.2710    0.00220
  1.2730    0.00000
  1.2750   -0.00210
  1.2770   -0.00420
  1.2790   -0.00640
  1.2810   -0.00850
  1.2830   -0.01060
  1.2850   -0.01250
  1.2870   -0.01440
  1.2890   -0.01620
  1.2910   -0.01790
  1.2930   -0.01970
  1.2950   -0.02130
  1.2970   -0.02290
  1.2990   -0.02460
  1.3010   -0.02610
  1.3030   -0.02760
  1.3050   -0.02910
  1.3070   -0.03050
  1.3090   -0.03210
  1.3110   -0.03360
  1.3130   -0.03480
  1.3150   -0.03590
  1.3170   -0.03710
  1.3190   -0.03830
  1.3210   -0.03950
  1.3230   -0.04050
  1.3250   -0.04140
  1.3270   -0.04230
  1.3290   -0.04310
  1.3310   -0.04370
  1.3330   -0.04420
  1.3350   -0.04450
  1.3370   -0.04490
  1.3390   -0.04520
  1.3410   -0.04530
  1.3430   -0.04520
  1.3450   -0.04490
  1.3470   -0.04440
  1.3490   -0.04380
  1.3510   -0.04310
  1.3530   -0.04220
  1.3550   -0.04110
  1.3570   -0.03960
  1.3590   -0.03810
  1.3610   -0.03640
  1.3630   -0.03430
  1.3650   -0.03200
  1.3670   -0.02950
  1.3690   -0.02690
  1.3710   -0.02430
  1.3730   -0.02150
  1.3750   -0.01830
  1.3770   -0.01490
  1.3790   -0.01160
  1.3810   -0.00830
  1.3830   -0.00480
  1.3850   -0.00120
  1.3870    0.00240
  1.3890    0.00590
  1.3910    0.00950
  1.3930    0.01280
  1.3950    0.01580
  1.3970    0.01860
  1.3990    0.02130
