# z (nm)   (kJ/mol)
  0.271000, 13.468900
  0.273000, 12.999100
  0.275000, 12.527400
  0.277000, 12.061700
  0.279000, 11.621400
  0.281000, 11.171400
  0.283000, 10.718000
  0.285000, 10.268500
  0.287000,  9.808600
  0.289000,  9.343100
  0.291000,  8.879400
  0.293000,  8.413800
  0.295000,  7.950700
  0.297000,  7.487000
  0.299000,  7.026500
  0.301000,  6.565200
  0.303000,  6.103400
  0.305000,  5.649000
  0.307000,  5.198500
  0.309000,  4.756500
  0.311000,  4.325300
  0.313000,  3.898800
  0.315000,  3.471200
  0.317000,  3.047000
  0.319000,  2.632000
  0.321000,  2.227700
  0.323000,  1.835200
  0.325000,  1.454200
  0.327000,  1.080400
  0.329000,  0.713600
  0.331000,  0.357500
  0.333000,  0.009600
  0.335000, -0.328300
  0.337000, -0.654400
  0.339000, -0.972700
  0.341000, -1.279600
  0.343000, -1.574600
  0.345000, -1.859100
  0.347000, -2.134200
  0.349000, -2.401700
  0.351000, -2.658700
  0.353000, -2.905800
  0.355000, -3.143400
  0.357000, -3.370800
  0.359000, -3.589700
  0.361000, -3.799200
  0.363000, -3.998800
  0.365000, -4.189700
  0.367000, -4.372300
  0.369000, -4.546600
  0.371000, -4.712300
  0.373000, -4.870100
  0.375000, -5.020300
  0.377000, -5.162300
  0.379000, -5.297400
  0.381000, -5.426200
  0.383000, -5.548600
  0.385000, -5.664000
  0.387000, -5.772300
  0.389000, -5.874700
  0.391000, -5.971200
  0.393000, -6.062700
  0.395000, -6.150000
  0.397000, -6.232500
  0.399000, -6.310600
  0.401000, -6.384100
  0.403000, -6.453200
  0.405000, -6.518900
  0.407000, -6.580200
  0.409000, -6.637300
  0.411000, -6.691800
  0.413000, -6.745300
  0.415000, -6.794600
  0.417000, -6.839700
  0.419000, -6.882500
  0.421000, -6.922200
  0.423000, -6.958900
  0.425000, -6.992600
  0.427000, -7.023200
  0.429000, -7.050600
  0.431000, -7.074200
  0.433000, -7.093900
  0.435000, -7.109600
  0.437000, -7.121400
  0.439000, -7.129100
  0.441000, -7.131700
  0.443000, -7.130200
  0.445000, -7.124000
  0.447000, -7.112100
  0.449000, -7.095500
  0.451000, -7.073200
  0.453000, -7.044600
  0.455000, -7.010500
  0.457000, -6.970600
  0.459000, -6.924200
  0.461000, -6.871300
  0.463000, -6.811700
  0.465000, -6.745600
  0.467000, -6.673100
  0.469000, -6.593500
  0.471000, -6.507400
  0.473000, -6.414800
  0.475000, -6.315800
  0.477000, -6.210500
  0.479000, -6.099000
  0.481000, -5.981400
  0.483000, -5.857800
  0.485000, -5.728800
  0.487000, -5.594600
  0.489000, -5.455300
  0.491000, -5.311400
  0.493000, -5.163300
  0.495000, -5.011000
  0.497000, -4.855600
  0.499000, -4.697600
  0.501000, -4.536900
  0.503000, -4.374200
  0.505000, -4.210100
  0.507000, -4.044000
  0.509000, -3.877600
  0.511000, -3.713000
  0.513000, -3.548100
  0.515000, -3.383000
  0.517000, -3.220800
  0.519000, -3.061400
  0.521000, -2.902200
  0.523000, -2.745600
  0.525000, -2.594000
  0.527000, -2.447300
  0.529000, -2.305200
  0.531000, -2.167700
  0.533000, -2.035300
  0.535000, -1.909100
  0.537000, -1.788600
  0.539000, -1.673900
  0.541000, -1.566700
  0.543000, -1.467100
  0.545000, -1.374000
  0.547000, -1.287900
  0.549000, -1.209500
  0.551000, -1.138600
  0.553000, -1.075600
  0.555000, -1.020200
  0.557000, -0.972100
  0.559000, -0.931200
  0.561000, -0.897500
  0.563000, -0.871200
  0.565000, -0.852400
  0.567000, -0.840800
  0.569000, -0.835500
  0.571000, -0.836100
  0.573000, -0.842700
  0.575000, -0.855500
  0.577000, -0.873100
  0.579000, -0.895500
  0.581000, -0.923400
  0.583000, -0.956100
  0.585000, -0.993000
  0.587000, -1.033600
  0.589000, -1.077100
  0.591000, -1.123100
  0.593000, -1.171800
  0.595000, -1.222800
  0.597000, -1.274300
  0.599000, -1.327100
  0.601000, -1.382000
  0.603000, -1.437700
  0.605000, -1.492800
  0.607000, -1.548000
  0.609000, -1.603100
  0.611000, -1.656600
  0.613000, -1.709000
  0.615000, -1.760000
  0.617000, -1.809200
  0.619000, -1.856900
  0.621000, -1.902500
  0.623000, -1.945400
  0.625000, -1.985700
  0.627000, -2.023300
  0.629000, -2.058100
  0.631000, -2.090100
  0.633000, -2.119200
  0.635000, -2.145100
  0.637000, -2.167900
  0.639000, -2.187200
  0.641000, -2.203000
  0.643000, -2.215700
  0.645000, -2.225300
  0.647000, -2.231600
  0.649000, -2.234700
  0.651000, -2.234500
  0.653000, -2.231100
  0.655000, -2.225000
  0.657000, -2.216300
  0.659000, -2.204700
  0.661000, -2.190500
  0.663000, -2.173700
  0.665000, -2.154400
  0.667000, -2.132700
  0.669000, -2.109200
  0.671000, -2.083900
  0.673000, -2.056400
  0.675000, -2.026900
  0.677000, -1.995900
  0.679000, -1.964000
  0.681000, -1.930800
  0.683000, -1.896200
  0.685000, -1.860600
  0.687000, -1.824500
  0.689000, -1.788200
  0.691000, -1.751700
  0.693000, -1.715100
  0.695000, -1.678100
  0.697000, -1.640800
  0.699000, -1.603500
  0.701000, -1.566600
  0.703000, -1.530200
  0.705000, -1.494300
  0.707000, -1.459000
  0.709000, -1.424200
  0.711000, -1.390000
  0.713000, -1.356500
  0.715000, -1.323800
  0.717000, -1.292000
  0.719000, -1.261100
  0.721000, -1.230800
  0.723000, -1.201500
  0.725000, -1.173200
  0.727000, -1.145800
  0.729000, -1.119400
  0.731000, -1.094100
  0.733000, -1.069600
  0.735000, -1.046100
  0.737000, -1.023600
  0.739000, -1.001900
  0.741000, -0.981000
  0.743000, -0.961000
  0.745000, -0.941700
  0.747000, -0.923100
  0.749000, -0.905300
  0.751000, -0.888000
  0.753000, -0.871600
  0.755000, -0.855800
  0.757000, -0.840500
  0.759000, -0.825500
  0.761000, -0.810900
  0.763000, -0.796800
  0.765000, -0.783100
  0.767000, -0.769800
  0.769000, -0.757100
  0.771000, -0.744800
  0.773000, -0.732700
  0.775000, -0.720800
  0.777000, -0.709300
  0.779000, -0.698000
  0.781000, -0.687000
  0.783000, -0.676200
  0.785000, -0.665600
  0.787000, -0.655100
  0.789000, -0.644800
  0.791000, -0.634600
  0.793000, -0.624600
  0.795000, -0.614800
  0.797000, -0.605000
  0.799000, -0.595500
  0.801000, -0.586300
  0.803000, -0.577300
  0.805000, -0.568400
  0.807000, -0.559700
  0.809000, -0.551100
  0.811000, -0.542900
  0.813000, -0.534800
  0.815000, -0.526800
  0.817000, -0.518900
  0.819000, -0.511200
  0.821000, -0.503800
  0.823000, -0.496700
  0.825000, -0.489700
  0.827000, -0.483000
  0.829000, -0.476700
  0.831000, -0.470400
  0.833000, -0.464200
  0.835000, -0.458300
  0.837000, -0.452700
  0.839000, -0.447200
  0.841000, -0.441800
  0.843000, -0.436600
  0.845000, -0.431700
  0.847000, -0.426800
  0.849000, -0.421900
  0.851000, -0.417300
  0.853000, -0.413000
  0.855000, -0.408700
  0.857000, -0.404500
  0.859000, -0.400400
  0.861000, -0.396400
  0.863000, -0.392400
  0.865000, -0.388400
  0.867000, -0.384500
  0.869000, -0.380600
  0.871000, -0.376700
  0.873000, -0.372800
  0.875000, -0.368900
  0.877000, -0.365000
  0.879000, -0.361100
  0.881000, -0.357300
  0.883000, -0.353400
  0.885000, -0.349300
  0.887000, -0.345300
  0.889000, -0.341300
  0.891000, -0.337100
  0.893000, -0.332900
  0.895000, -0.328800
  0.897000, -0.324700
  0.899000, -0.320700
  0.901000, -0.316500
  0.903000, -0.312200
  0.905000, -0.308000
  0.907000, -0.304000
  0.909000, -0.299800
  0.911000, -0.295600
  0.913000, -0.291400
  0.915000, -0.287300
  0.917000, -0.283400
  0.919000, -0.279300
  0.921000, -0.275300
  0.923000, -0.271600
  0.925000, -0.268000
  0.927000, -0.264300
  0.929000, -0.260600
  0.931000, -0.257100
  0.933000, -0.253700
  0.935000, -0.250400
  0.937000, -0.247200
  0.939000, -0.244200
  0.941000, -0.241400
  0.943000, -0.238800
  0.945000, -0.236500
  0.947000, -0.234400
  0.949000, -0.232300
  0.951000, -0.230400
  0.953000, -0.228700
  0.955000, -0.227300
  0.957000, -0.226000
  0.959000, -0.225000
  0.961000, -0.224100
  0.963000, -0.223400
  0.965000, -0.222800
  0.967000, -0.222500
  0.969000, -0.222400
  0.971000, -0.222400
  0.973000, -0.222300
  0.975000, -0.222400
  0.977000, -0.222900
  0.979000, -0.223500
  0.981000, -0.224200
  0.983000, -0.225000
  0.985000, -0.225700
  0.987000, -0.226700
  0.989000, -0.227800
  0.991000, -0.228900
  0.993000, -0.230100
  0.995000, -0.231600
  0.997000, -0.233100
  0.999000, -0.234600
  1.001000, -0.236200
  1.003000, -0.237800
  1.005000, -0.239300
  1.007000, -0.240900
  1.009000, -0.242500
  1.011000, -0.244000
  1.013000, -0.245400
  1.015000, -0.246800
  1.017000, -0.248100
  1.019000, -0.249400
  1.021000, -0.250600
  1.023000, -0.251800
  1.025000, -0.252700
  1.027000, -0.253600
  1.029000, -0.254300
  1.031000, -0.255000
  1.033000, -0.255700
  1.035000, -0.256200
  1.037000, -0.256500
  1.039000, -0.256900
  1.041000, -0.257000
  1.043000, -0.256800
  1.045000, -0.256500
  1.047000, -0.256100
  1.049000, -0.255500
  1.051000, -0.254700
  1.053000, -0.253700
  1.055000, -0.252400
  1.057000, -0.250900
  1.059000, -0.249200
  1.061000, -0.247500
  1.063000, -0.245500
  1.065000, -0.243300
  1.067000, -0.241000
  1.069000, -0.238500
  1.071000, -0.235800
  1.073000, -0.232800
  1.075000, -0.229600
  1.077000, -0.226300
  1.079000, -0.222700
  1.081000, -0.219000
  1.083000, -0.215100
  1.085000, -0.211000
  1.087000, -0.206600
  1.089000, -0.202000
  1.091000, -0.197300
  1.093000, -0.192600
  1.095000, -0.187600
  1.097000, -0.182400
  1.099000, -0.177200
  1.101000, -0.171800
  1.103000, -0.166200
  1.105000, -0.160800
  1.107000, -0.155200
  1.109000, -0.149100
  1.111000, -0.143000
  1.113000, -0.136900
  1.115000, -0.130600
  1.117000, -0.124300
  1.119000, -0.117800
  1.121000, -0.111400
  1.123000, -0.104900
  1.125000, -0.098500
  1.127000, -0.092000
  1.129000, -0.085400
  1.131000, -0.078800
  1.133000, -0.072100
  1.135000, -0.065600
  1.137000, -0.059100
  1.139000, -0.052600
  1.141000, -0.046200
  1.143000, -0.039900
  1.145000, -0.033600
  1.147000, -0.027600
  1.149000, -0.021500
  1.151000, -0.015500
  1.153000, -0.009700
  1.155000, -0.004100
  1.157000,  0.001500
  1.159000,  0.006900
  1.161000,  0.012100
  1.163000,  0.017000
  1.165000,  0.021800
  1.167000,  0.026500
  1.169000,  0.030900
  1.171000,  0.035000
  1.173000,  0.039000
  1.175000,  0.042800
  1.177000,  0.046300
  1.179000,  0.049600
  1.181000,  0.052500
  1.183000,  0.055300
  1.185000,  0.057800
  1.187000,  0.060000
  1.189000,  0.062000
  1.191000,  0.063700
  1.193000,  0.065200
  1.195000,  0.066300
  1.197000,  0.067300
  1.199000,  0.068200
  1.201000,  0.068500
  1.203000,  0.068700
  1.205000,  0.068700
  1.207000,  0.068400
  1.209000,  0.068000
  1.211000,  0.067300
  1.213000,  0.066400
  1.215000,  0.065400
  1.217000,  0.064200
  1.219000,  0.062700
  1.221000,  0.061200
  1.223000,  0.059600
  1.225000,  0.057800
  1.227000,  0.055900
  1.229000,  0.053900
  1.231000,  0.051700
  1.233000,  0.049300
  1.235000,  0.046900
  1.237000,  0.044500
  1.239000,  0.042000
  1.241000,  0.039400
  1.243000,  0.036900
  1.245000,  0.034300
  1.247000,  0.031700
  1.249000,  0.029200
  1.251000,  0.026600
  1.253000,  0.024000
  1.255000,  0.021500
  1.257000,  0.019000
  1.259000,  0.016400
  1.261000,  0.014000
  1.263000,  0.011600
  1.265000,  0.009200
  1.267000,  0.006700
  1.269000,  0.004400
  1.271000,  0.002200
  1.273000,  0.000000
  1.275000, -0.002100
  1.277000, -0.004200
  1.279000, -0.006400
  1.281000, -0.008500
  1.283000, -0.010600
  1.285000, -0.012500
  1.287000, -0.014400
  1.289000, -0.016200
  1.291000, -0.017900
  1.293000, -0.019700
  1.295000, -0.021300
  1.297000, -0.022900
  1.299000, -0.024600
  1.301000, -0.026100
  1.303000, -0.027600
  1.305000, -0.029100
  1.307000, -0.030500
  1.309000, -0.032100
  1.311000, -0.033600
  1.313000, -0.034800
  1.315000, -0.035900
  1.317000, -0.037100
  1.319000, -0.038300
  1.321000, -0.039500
  1.323000, -0.040500
  1.325000, -0.041400
  1.327000, -0.042300
  1.329000, -0.043100
  1.331000, -0.043700
  1.333000, -0.044200
  1.335000, -0.044500
  1.337000, -0.044900
  1.339000, -0.045200
  1.341000, -0.045300
  1.343000, -0.045200
  1.345000, -0.044900
  1.347000, -0.044400
  1.349000, -0.043800
  1.351000, -0.043100
  1.353000, -0.042200
  1.355000, -0.041100
  1.357000, -0.039600
  1.359000, -0.038100
  1.361000, -0.036400
  1.363000, -0.034300
  1.365000, -0.032000
  1.367000, -0.029500
  1.369000, -0.026900
  1.371000, -0.024300
  1.373000, -0.021500
  1.375000, -0.018300
  1.377000, -0.014900
  1.379000, -0.011600
  1.381000, -0.008300
  1.383000, -0.004800
  1.385000, -0.001200
  1.387000,  0.002400
  1.389000,  0.005900
  1.391000,  0.009500
  1.393000,  0.012800
  1.395000,  0.015800
  1.397000,  0.018600
  1.399000,  0.021300
