# z (nm)   (kJ/mol)
  0.2610   17.09460
  0.2650   16.58280
  0.2690   16.26510
  0.2710   15.90400
  0.2730   15.55280
  0.2750   15.19190
  0.2770   14.78200
  0.2790   14.34300
  0.2810   13.91280
  0.2830   13.49040
  0.2850   13.06010
  0.2870   12.61830
  0.2890   12.17360
  0.2910   11.71350
  0.2930   11.25350
  0.2950   10.80310
  0.2970   10.34200
  0.2990    9.87040
  0.3010    9.40460
  0.3030    8.94930
  0.3050    8.49600
  0.3070    8.03630
  0.3090    7.57760
  0.3110    7.11670
  0.3130    6.65440
  0.3150    6.20180
  0.3170    5.75800
  0.3190    5.32540
  0.3210    4.90030
  0.3230    4.47270
  0.3250    4.05100
  0.3270    3.64220
  0.3290    3.24310
  0.3310    2.85520
  0.3330    2.47690
  0.3350    2.10060
  0.3370    1.73660
  0.3390    1.39060
  0.3410    1.05510
  0.3430    0.72810
  0.3450    0.41300
  0.3470    0.11160
  0.3490   -0.17780
  0.3510   -0.45630
  0.3530   -0.72150
  0.3550   -0.97410
  0.3570   -1.21570
  0.3590   -1.44070
  0.3610   -1.64960
  0.3630   -1.84400
  0.3650   -2.02570
  0.3670   -2.19600
  0.3690   -2.35150
  0.3710   -2.49340
  0.3730   -2.62380
  0.3750   -2.74150
  0.3770   -2.84660
  0.3790   -2.93820
  0.3810   -3.01670
  0.3830   -3.08320
  0.3850   -3.13640
  0.3870   -3.17690
  0.3890   -3.20540
  0.3910   -3.22100
  0.3930   -3.22500
  0.3950   -3.21850
  0.3970   -3.20040
  0.3990   -3.17210
  0.4010   -3.13380
  0.4030   -3.08550
  0.4050   -3.02800
  0.4070   -2.96120
  0.4090   -2.88630
  0.4110   -2.80290
  0.4130   -2.71070
  0.4150   -2.61140
  0.4170   -2.50580
  0.4190   -2.39460
  0.4210   -2.27890
  0.4230   -2.15980
  0.4250   -2.03780
  0.4270   -1.91070
  0.4290   -1.77930
  0.4310   -1.64700
  0.4330   -1.51180
  0.4350   -1.37360
  0.4370   -1.23520
  0.4390   -1.09760
  0.4410   -0.96030
  0.4430   -0.82250
  0.4450   -0.68540
  0.4470   -0.54980
  0.4490   -0.41620
  0.4510   -0.28460
  0.4530   -0.15520
  0.4550   -0.02880
  0.4570    0.09450
  0.4590    0.21430
  0.4610    0.33110
  0.4630    0.44420
  0.4650    0.55290
  0.4670    0.65750
  0.4690    0.75790
  0.4710    0.85330
  0.4730    0.94410
  0.4750    1.03070
  0.4770    1.11260
  0.4790    1.18940
  0.4810    1.26150
  0.4830    1.32920
  0.4850    1.39210
  0.4870    1.45000
  0.4890    1.50320
  0.4910    1.55170
  0.4930    1.59550
  0.4950    1.63400
  0.4970    1.66760
  0.4990    1.69700
  0.5010    1.72160
  0.5030    1.74120
  0.5050    1.75650
  0.5070    1.76700
  0.5090    1.77340
  0.5110    1.77590
  0.5130    1.77400
  0.5150    1.76800
  0.5170    1.75780
  0.5190    1.74340
  0.5210    1.72550
  0.5230    1.70400
  0.5250    1.67860
  0.5270    1.64980
  0.5290    1.61730
  0.5310    1.58180
  0.5330    1.54330
  0.5350    1.50190
  0.5370    1.45750
  0.5390    1.41000
  0.5410    1.36000
  0.5430    1.30740
  0.5450    1.25210
  0.5470    1.19440
  0.5490    1.13460
  0.5510    1.07310
  0.5530    1.00970
  0.5550    0.94460
  0.5570    0.87760
  0.5590    0.80830
  0.5610    0.73780
  0.5630    0.66650
  0.5650    0.59390
  0.5670    0.52000
  0.5690    0.44550
  0.5710    0.37080
  0.5730    0.29520
  0.5750    0.21940
  0.5770    0.14430
  0.5790    0.06920
  0.5810   -0.00640
  0.5830   -0.08160
  0.5850   -0.15640
  0.5870   -0.23080
  0.5890   -0.30440
  0.5910   -0.37730
  0.5930   -0.44870
  0.5950   -0.51880
  0.5970   -0.58800
  0.5990   -0.65590
  0.6010   -0.72220
  0.6030   -0.78720
  0.6050   -0.85040
  0.6070   -0.91170
  0.6090   -0.97120
  0.6110   -1.02850
  0.6130   -1.08330
  0.6150   -1.13590
  0.6170   -1.18670
  0.6190   -1.23500
  0.6210   -1.28100
  0.6230   -1.32470
  0.6250   -1.36620
  0.6270   -1.40540
  0.6290   -1.44220
  0.6310   -1.47630
  0.6330   -1.50770
  0.6350   -1.53670
  0.6370   -1.56320
  0.6390   -1.58720
  0.6410   -1.60860
  0.6430   -1.62740
  0.6450   -1.64380
  0.6470   -1.65790
  0.6490   -1.66950
  0.6510   -1.67860
  0.6530   -1.68530
  0.6550   -1.68970
  0.6570   -1.69170
  0.6590   -1.69140
  0.6610   -1.68900
  0.6630   -1.68450
  0.6650   -1.67790
  0.6670   -1.66920
  0.6690   -1.65860
  0.6710   -1.64610
  0.6730   -1.63160
  0.6750   -1.61520
  0.6770   -1.59710
  0.6790   -1.57720
  0.6810   -1.55590
  0.6830   -1.53300
  0.6850   -1.50840
  0.6870   -1.48230
  0.6890   -1.45460
  0.6910   -1.42580
  0.6930   -1.39570
  0.6950   -1.36440
  0.6970   -1.33200
  0.6990   -1.29870
  0.7010   -1.26450
  0.7030   -1.22940
  0.7050   -1.19350
  0.7070   -1.15680
  0.7090   -1.11930
  0.7110   -1.08130
  0.7130   -1.04290
  0.7150   -1.00400
  0.7170   -0.96470
  0.7190   -0.92520
  0.7210   -0.88550
  0.7230   -0.84570
  0.7250   -0.80570
  0.7270   -0.76570
  0.7290   -0.72600
  0.7310   -0.68640
  0.7330   -0.64710
  0.7350   -0.60810
  0.7370   -0.56940
  0.7390   -0.53140
  0.7410   -0.49390
  0.7430   -0.45700
  0.7450   -0.42050
  0.7470   -0.38490
  0.7490   -0.35010
  0.7510   -0.31590
  0.7530   -0.28280
  0.7550   -0.25080
  0.7570   -0.21990
  0.7590   -0.18970
  0.7610   -0.16050
  0.7630   -0.13270
  0.7650   -0.10600
  0.7670   -0.08050
  0.7690   -0.05620
  0.7710   -0.03310
  0.7730   -0.01140
  0.7750    0.00920
  0.7770    0.02860
  0.7790    0.04680
  0.7810    0.06370
  0.7830    0.07930
  0.7850    0.09350
  0.7870    0.10650
  0.7890    0.11820
  0.7910    0.12880
  0.7930    0.13820
  0.7950    0.14640
  0.7970    0.15340
  0.7990    0.15920
  0.8010    0.16400
  0.8030    0.16780
  0.8050    0.17070
  0.8070    0.17270
  0.8090    0.17370
  0.8110    0.17390
  0.8130    0.17300
  0.8150    0.17140
  0.8170    0.16910
  0.8190    0.16620
  0.8210    0.16260
  0.8230    0.15830
  0.8250    0.15350
  0.8270    0.14810
  0.8290    0.14230
  0.8310    0.13620
  0.8330    0.12950
  0.8350    0.12250
  0.8370    0.11530
  0.8390    0.10790
  0.8410    0.10030
  0.8430    0.09260
  0.8450    0.08490
  0.8470    0.07700
  0.8490    0.06900
  0.8510    0.06110
  0.8530    0.05330
  0.8550    0.04560
  0.8570    0.03790
  0.8590    0.03040
  0.8610    0.02300
  0.8630    0.01570
  0.8650    0.00860
  0.8670    0.00170
  0.8690   -0.00500
  0.8710   -0.01140
  0.8730   -0.01740
  0.8750   -0.02340
  0.8770   -0.02900
  0.8790   -0.03410
  0.8810   -0.03900
  0.8830   -0.04360
  0.8850   -0.04800
  0.8870   -0.05220
  0.8890   -0.05600
  0.8910   -0.05960
  0.8930   -0.06270
  0.8950   -0.06540
  0.8970   -0.06780
  0.8990   -0.06990
  0.9010   -0.07180
  0.9030   -0.07340
  0.9050   -0.07460
  0.9070   -0.07560
  0.9090   -0.07640
  0.9110   -0.07690
  0.9130   -0.07720
  0.9150   -0.07730
  0.9170   -0.07720
  0.9190   -0.07690
  0.9210   -0.07640
  0.9230   -0.07570
  0.9250   -0.07490
  0.9270   -0.07400
  0.9290   -0.07290
  0.9310   -0.07160
  0.9330   -0.07030
  0.9350   -0.06890
  0.9370   -0.06750
  0.9390   -0.06610
  0.9410   -0.06480
  0.9430   -0.06330
  0.9450   -0.06170
  0.9470   -0.05990
  0.9490   -0.05830
  0.9510   -0.05650
  0.9530   -0.05460
  0.9550   -0.05280
  0.9570   -0.05090
  0.9590   -0.04910
  0.9610   -0.04720
  0.9630   -0.04540
  0.9650   -0.04350
  0.9670   -0.04160
  0.9690   -0.03990
  0.9710   -0.03810
  0.9730   -0.03630
  0.9750   -0.03460
  0.9770   -0.03290
  0.9790   -0.03120
  0.9810   -0.02940
  0.9830   -0.02750
  0.9850   -0.02570
  0.9870   -0.02400
  0.9890   -0.02220
  0.9910   -0.02030
  0.9930   -0.01830
  0.9950   -0.01630
  0.9970   -0.01430
  0.9990   -0.01210
  1.0010   -0.00990
  1.0030   -0.00770
  1.0050   -0.00530
  1.0070   -0.00290
  1.0090   -0.00060
  1.0110    0.00180
  1.0130    0.00430
  1.0150    0.00690
  1.0170    0.00960
  1.0190    0.01240
  1.0210    0.01530
  1.0230    0.01830
  1.0250    0.02130
  1.0270    0.02450
  1.0290    0.02770
  1.0310    0.03110
  1.0330    0.03450
  1.0350    0.03790
  1.0370    0.04120
  1.0390    0.04450
  1.0410    0.04780
  1.0430    0.05120
  1.0450    0.05450
  1.0470    0.05790
  1.0490    0.06130
  1.0510    0.06460
  1.0530    0.06790
  1.0550    0.07100
  1.0570    0.07410
  1.0590    0.07720
  1.0610    0.08030
  1.0630    0.08320
  1.0650    0.08600
  1.0670    0.08870
  1.0690    0.09120
  1.0710    0.09350
  1.0730    0.09580
  1.0750    0.09800
  1.0770    0.10000
  1.0790    0.10170
  1.0810    0.10320
  1.0830    0.10460
  1.0850    0.10580
  1.0870    0.10680
  1.0890    0.10760
  1.0910    0.10820
  1.0930    0.10870
  1.0950    0.10900
  1.0970    0.10900
  1.0990    0.10900
  1.1010    0.10890
  1.1030    0.10860
  1.1050    0.10810
  1.1070    0.10770
  1.1090    0.10690
  1.1110    0.10610
  1.1130    0.10500
  1.1150    0.10390
  1.1170    0.10270
  1.1190    0.10140
  1.1210    0.10010
  1.1230    0.09860
  1.1250    0.09700
  1.1270    0.09540
  1.1290    0.09360
  1.1310    0.09190
  1.1330    0.09000
  1.1350    0.08810
  1.1370    0.08630
  1.1390    0.08450
  1.1410    0.08280
  1.1430    0.08110
  1.1450    0.07940
  1.1470    0.07760
  1.1490    0.07590
  1.1510    0.07430
  1.1530    0.07280
  1.1550    0.07130
  1.1570    0.06980
  1.1590    0.06830
  1.1610    0.06660
  1.1630    0.06490
  1.1650    0.06340
  1.1670    0.06190
  1.1690    0.06040
  1.1710    0.05880
  1.1730    0.05740
  1.1750    0.05580
  1.1770    0.05410
  1.1790    0.05240
  1.1810    0.05090
  1.1830    0.04930
  1.1850    0.04750
  1.1870    0.04590
  1.1890    0.04430
  1.1910    0.04270
  1.1930    0.04100
  1.1950    0.03930
  1.1970    0.03760
  1.1990    0.03590
  1.2010    0.03420
  1.2030    0.03250
  1.2050    0.03080
  1.2070    0.02900
  1.2090    0.02720
  1.2110    0.02550
  1.2130    0.02370
  1.2150    0.02200
  1.2170    0.02030
  1.2190    0.01850
  1.2210    0.01690
  1.2230    0.01520
  1.2250    0.01360
  1.2270    0.01180
  1.2290    0.01020
  1.2310    0.00860
  1.2330    0.00710
  1.2350    0.00570
  1.2370    0.00420
  1.2390    0.00270
  1.2410    0.00120
  1.2430   -0.00020
  1.2450   -0.00150
  1.2470   -0.00270
  1.2490   -0.00390
  1.2510   -0.00500
  1.2530   -0.00600
  1.2550   -0.00690
  1.2570   -0.00790
  1.2590   -0.00880
  1.2610   -0.00960
  1.2630   -0.01030
  1.2650   -0.01110
  1.2670   -0.01170
  1.2690   -0.01230
  1.2710   -0.01290
  1.2730   -0.01330
  1.2750   -0.01370
  1.2770   -0.01420
  1.2790   -0.01450
  1.2810   -0.01480
  1.2830   -0.01490
  1.2850   -0.01510
  1.2870   -0.01530
  1.2890   -0.01540
  1.2910   -0.01560
  1.2930   -0.01580
  1.2950   -0.01600
  1.2970   -0.01620
  1.2990   -0.01650
  1.3010   -0.01660
  1.3030   -0.01680
  1.3050   -0.01700
  1.3070   -0.01710
  1.3090   -0.01730
  1.3110   -0.01750
  1.3130   -0.01770
  1.3150   -0.01790
  1.3170   -0.01800
  1.3190   -0.01800
  1.3210   -0.01800
  1.3230   -0.01790
  1.3250   -0.01790
  1.3270   -0.01770
  1.3290   -0.01760
  1.3310   -0.01750
  1.3330   -0.01720
  1.3350   -0.01690
  1.3370   -0.01650
  1.3390   -0.01610
  1.3410   -0.01540
  1.3430   -0.01460
  1.3450   -0.01380
  1.3470   -0.01290
  1.3490   -0.01180
  1.3510   -0.01060
  1.3530   -0.00940
  1.3550   -0.00800
  1.3570   -0.00650
  1.3590   -0.00490
  1.3610   -0.00310
  1.3630   -0.00100
  1.3650    0.00110
  1.3670    0.00330
  1.3690    0.00590
  1.3710    0.00850
  1.3730    0.01100
  1.3750    0.01370
  1.3770    0.01640
  1.3790    0.01940
  1.3810    0.02230
  1.3830    0.02520
  1.3850    0.02830
  1.3870    0.03140
  1.3890    0.03420
  1.3910    0.03680
  1.3930    0.03920
  1.3950    0.04120
  1.3970    0.04290
  1.3990    0.04440
