# z (nm)   (kJ/mol)
  0.257000,  6.616100
  0.261000,  5.199200
  0.263000,  4.517600
  0.265000,  3.831800
  0.267000,  3.122300
  0.269000,  2.397300
  0.271000,  1.671600
  0.273000,  0.950500
  0.275000,  0.204200
  0.277000, -0.551500
  0.279000, -1.301800
  0.281000, -2.054300
  0.283000, -2.808100
  0.285000, -3.561800
  0.287000, -4.304500
  0.289000, -5.041000
  0.291000, -5.767700
  0.293000, -6.482500
  0.295000, -7.200000
  0.297000, -7.907300
  0.299000, -8.596400
  0.301000, -9.276900
  0.303000, -9.943500
  0.305000,-10.592300
  0.307000,-11.222200
  0.309000,-11.837800
  0.311000,-12.440300
  0.313000,-13.018800
  0.315000,-13.576000
  0.317000,-14.111200
  0.319000,-14.623100
  0.321000,-15.116500
  0.323000,-15.586700
  0.325000,-16.030600
  0.327000,-16.450000
  0.329000,-16.847100
  0.331000,-17.221000
  0.333000,-17.568300
  0.335000,-17.889400
  0.337000,-18.184400
  0.339000,-18.453100
  0.341000,-18.695900
  0.343000,-18.912800
  0.345000,-19.103200
  0.347000,-19.266800
  0.349000,-19.404200
  0.351000,-19.515600
  0.353000,-19.600700
  0.355000,-19.661300
  0.357000,-19.696900
  0.359000,-19.707400
  0.361000,-19.693400
  0.363000,-19.655700
  0.365000,-19.596400
  0.367000,-19.516300
  0.369000,-19.414600
  0.371000,-19.292600
  0.373000,-19.151500
  0.375000,-18.991100
  0.377000,-18.812800
  0.379000,-18.618900
  0.381000,-18.409500
  0.383000,-18.186400
  0.385000,-17.953300
  0.387000,-17.710700
  0.389000,-17.457300
  0.391000,-17.194200
  0.393000,-16.923600
  0.395000,-16.645600
  0.397000,-16.362700
  0.399000,-16.077900
  0.401000,-15.791400
  0.403000,-15.502500
  0.405000,-15.211500
  0.407000,-14.920700
  0.409000,-14.631700
  0.411000,-14.344200
  0.413000,-14.059200
  0.415000,-13.778100
  0.417000,-13.500900
  0.419000,-13.228000
  0.421000,-12.960500
  0.423000,-12.698700
  0.425000,-12.442400
  0.427000,-12.192600
  0.429000,-11.949500
  0.431000,-11.712900
  0.433000,-11.482900
  0.435000,-11.260500
  0.437000,-11.045300
  0.439000,-10.836800
  0.441000,-10.635600
  0.443000,-10.442200
  0.445000,-10.255500
  0.447000,-10.074900
  0.449000, -9.900500
  0.451000, -9.732100
  0.453000, -9.570100
  0.455000, -9.413900
  0.457000, -9.263300
  0.459000, -9.118200
  0.461000, -8.977600
  0.463000, -8.841400
  0.465000, -8.709400
  0.467000, -8.581200
  0.469000, -8.456700
  0.471000, -8.334900
  0.473000, -8.215300
  0.475000, -8.098700
  0.477000, -7.984800
  0.479000, -7.872400
  0.481000, -7.761400
  0.483000, -7.651700
  0.485000, -7.542800
  0.487000, -7.434500
  0.489000, -7.326300
  0.491000, -7.218100
  0.493000, -7.109400
  0.495000, -7.000000
  0.497000, -6.889600
  0.499000, -6.778100
  0.501000, -6.665800
  0.503000, -6.552100
  0.505000, -6.436700
  0.507000, -6.319600
  0.509000, -6.200900
  0.511000, -6.080500
  0.513000, -5.958200
  0.515000, -5.833900
  0.517000, -5.707600
  0.519000, -5.579500
  0.521000, -5.449600
  0.523000, -5.317500
  0.525000, -5.183200
  0.527000, -5.047200
  0.529000, -4.910600
  0.531000, -4.772200
  0.533000, -4.631700
  0.535000, -4.490400
  0.537000, -4.347900
  0.539000, -4.204300
  0.541000, -4.059900
  0.543000, -3.915200
  0.545000, -3.769800
  0.547000, -3.624000
  0.549000, -3.478000
  0.551000, -3.331500
  0.553000, -3.185100
  0.555000, -3.039300
  0.557000, -2.894900
  0.559000, -2.751300
  0.561000, -2.608300
  0.563000, -2.468200
  0.565000, -2.330400
  0.567000, -2.194800
  0.569000, -2.063500
  0.571000, -1.935700
  0.573000, -1.809600
  0.575000, -1.686300
  0.577000, -1.566900
  0.579000, -1.450600
  0.581000, -1.339000
  0.583000, -1.231700
  0.585000, -1.128100
  0.587000, -1.029100
  0.589000, -0.935300
  0.591000, -0.847000
  0.593000, -0.764400
  0.595000, -0.687000
  0.597000, -0.614900
  0.599000, -0.548400
  0.601000, -0.487400
  0.603000, -0.432200
  0.605000, -0.382100
  0.607000, -0.337600
  0.609000, -0.299100
  0.611000, -0.266000
  0.613000, -0.238600
  0.615000, -0.216500
  0.617000, -0.199700
  0.619000, -0.188200
  0.621000, -0.181600
  0.623000, -0.179200
  0.625000, -0.181600
  0.627000, -0.188700
  0.629000, -0.199800
  0.631000, -0.215000
  0.633000, -0.234200
  0.635000, -0.256800
  0.637000, -0.282800
  0.639000, -0.311700
  0.641000, -0.342900
  0.643000, -0.377500
  0.645000, -0.415100
  0.647000, -0.454100
  0.649000, -0.495000
  0.651000, -0.537900
  0.653000, -0.581500
  0.655000, -0.626500
  0.657000, -0.672700
  0.659000, -0.719500
  0.661000, -0.766500
  0.663000, -0.813500
  0.665000, -0.860100
  0.667000, -0.906900
  0.669000, -0.953300
  0.671000, -0.999300
  0.673000, -1.045000
  0.675000, -1.089000
  0.677000, -1.132100
  0.679000, -1.174100
  0.681000, -1.214900
  0.683000, -1.254300
  0.685000, -1.292000
  0.687000, -1.327900
  0.689000, -1.361900
  0.691000, -1.394200
  0.693000, -1.424700
  0.695000, -1.453500
  0.697000, -1.480400
  0.699000, -1.505300
  0.701000, -1.528300
  0.703000, -1.549300
  0.705000, -1.568100
  0.707000, -1.584900
  0.709000, -1.599700
  0.711000, -1.612600
  0.713000, -1.623500
  0.715000, -1.632500
  0.717000, -1.639700
  0.719000, -1.645200
  0.721000, -1.648900
  0.723000, -1.650900
  0.725000, -1.651100
  0.727000, -1.649600
  0.729000, -1.646700
  0.731000, -1.642500
  0.733000, -1.636800
  0.735000, -1.629600
  0.737000, -1.621200
  0.739000, -1.611500
  0.741000, -1.600700
  0.743000, -1.588800
  0.745000, -1.575900
  0.747000, -1.562100
  0.749000, -1.547300
  0.751000, -1.532100
  0.753000, -1.516300
  0.755000, -1.499800
  0.757000, -1.482400
  0.759000, -1.464600
  0.761000, -1.446300
  0.763000, -1.427600
  0.765000, -1.408300
  0.767000, -1.388900
  0.769000, -1.369400
  0.771000, -1.349400
  0.773000, -1.329000
  0.775000, -1.308300
  0.777000, -1.287700
  0.779000, -1.266900
  0.781000, -1.245900
  0.783000, -1.224800
  0.785000, -1.203700
  0.787000, -1.182700
  0.789000, -1.161700
  0.791000, -1.140600
  0.793000, -1.119500
  0.795000, -1.098500
  0.797000, -1.077400
  0.799000, -1.056500
  0.801000, -1.035700
  0.803000, -1.015000
  0.805000, -0.994400
  0.807000, -0.973900
  0.809000, -0.953500
  0.811000, -0.933200
  0.813000, -0.912900
  0.815000, -0.892700
  0.817000, -0.872400
  0.819000, -0.852200
  0.821000, -0.832200
  0.823000, -0.812200
  0.825000, -0.792500
  0.827000, -0.773000
  0.829000, -0.753600
  0.831000, -0.734400
  0.833000, -0.715400
  0.835000, -0.696400
  0.837000, -0.677500
  0.839000, -0.658700
  0.841000, -0.640100
  0.843000, -0.621700
  0.845000, -0.603600
  0.847000, -0.585600
  0.849000, -0.567700
  0.851000, -0.550100
  0.853000, -0.532700
  0.855000, -0.515500
  0.857000, -0.498500
  0.859000, -0.481800
  0.861000, -0.465200
  0.863000, -0.448800
  0.865000, -0.432900
  0.867000, -0.417300
  0.869000, -0.401900
  0.871000, -0.386800
  0.873000, -0.372000
  0.875000, -0.357500
  0.877000, -0.343400
  0.879000, -0.329700
  0.881000, -0.316400
  0.883000, -0.303400
  0.885000, -0.290800
  0.887000, -0.278500
  0.889000, -0.266800
  0.891000, -0.255800
  0.893000, -0.245100
  0.895000, -0.234700
  0.897000, -0.224800
  0.899000, -0.215500
  0.901000, -0.206700
  0.903000, -0.198300
  0.905000, -0.190500
  0.907000, -0.183200
  0.909000, -0.176300
  0.911000, -0.170000
  0.913000, -0.164500
  0.915000, -0.159400
  0.917000, -0.154900
  0.919000, -0.151000
  0.921000, -0.147600
  0.923000, -0.144700
  0.925000, -0.142300
  0.927000, -0.140300
  0.929000, -0.138800
  0.931000, -0.137800
  0.933000, -0.137400
  0.935000, -0.137500
  0.937000, -0.138000
  0.939000, -0.138800
  0.941000, -0.140200
  0.943000, -0.142100
  0.945000, -0.144500
  0.947000, -0.147000
  0.949000, -0.149800
  0.951000, -0.153100
  0.953000, -0.156800
  0.955000, -0.160600
  0.957000, -0.164600
  0.959000, -0.169000
  0.961000, -0.173900
  0.963000, -0.179000
  0.965000, -0.184100
  0.967000, -0.189300
  0.969000, -0.194600
  0.971000, -0.200200
  0.973000, -0.206000
  0.975000, -0.211800
  0.977000, -0.217600
  0.979000, -0.223600
  0.981000, -0.229500
  0.983000, -0.235500
  0.985000, -0.241800
  0.987000, -0.248000
  0.989000, -0.254200
  0.991000, -0.260300
  0.993000, -0.266400
  0.995000, -0.272500
  0.997000, -0.278600
  0.999000, -0.284400
  1.001000, -0.290100
  1.003000, -0.295900
  1.005000, -0.301600
  1.007000, -0.307100
  1.009000, -0.312400
  1.011000, -0.317800
  1.013000, -0.323000
  1.015000, -0.328100
  1.017000, -0.333000
  1.019000, -0.337800
  1.021000, -0.342500
  1.023000, -0.347000
  1.025000, -0.351400
  1.027000, -0.355700
  1.029000, -0.359800
  1.031000, -0.363800
  1.033000, -0.367700
  1.035000, -0.371400
  1.037000, -0.374800
  1.039000, -0.378000
  1.041000, -0.381100
  1.043000, -0.383900
  1.045000, -0.386600
  1.047000, -0.389300
  1.049000, -0.391700
  1.051000, -0.393800
  1.053000, -0.395800
  1.055000, -0.397600
  1.057000, -0.399100
  1.059000, -0.400300
  1.061000, -0.401300
  1.063000, -0.402000
  1.065000, -0.402600
  1.067000, -0.402900
  1.069000, -0.403000
  1.071000, -0.402800
  1.073000, -0.402300
  1.075000, -0.401600
  1.077000, -0.400700
  1.079000, -0.399600
  1.081000, -0.398000
  1.083000, -0.396200
  1.085000, -0.394200
  1.087000, -0.391700
  1.089000, -0.388900
  1.091000, -0.385900
  1.093000, -0.382700
  1.095000, -0.379300
  1.097000, -0.375600
  1.099000, -0.371600
  1.101000, -0.367300
  1.103000, -0.362600
  1.105000, -0.357600
  1.107000, -0.352500
  1.109000, -0.347200
  1.111000, -0.341800
  1.113000, -0.336100
  1.115000, -0.330200
  1.117000, -0.324100
  1.119000, -0.317900
  1.121000, -0.311400
  1.123000, -0.304800
  1.125000, -0.298000
  1.127000, -0.291100
  1.129000, -0.284000
  1.131000, -0.276800
  1.133000, -0.269500
  1.135000, -0.262000
  1.137000, -0.254500
  1.139000, -0.247000
  1.141000, -0.239500
  1.143000, -0.231900
  1.145000, -0.224200
  1.147000, -0.216500
  1.149000, -0.209000
  1.151000, -0.201400
  1.153000, -0.193800
  1.155000, -0.186200
  1.157000, -0.178600
  1.159000, -0.171100
  1.161000, -0.163600
  1.163000, -0.156100
  1.165000, -0.148700
  1.167000, -0.141600
  1.169000, -0.134500
  1.171000, -0.127400
  1.173000, -0.120500
  1.175000, -0.113600
  1.177000, -0.106800
  1.179000, -0.099900
  1.181000, -0.093300
  1.183000, -0.086800
  1.185000, -0.080400
  1.187000, -0.074100
  1.189000, -0.068000
  1.191000, -0.062100
  1.193000, -0.056300
  1.195000, -0.050600
  1.197000, -0.045000
  1.199000, -0.039500
  1.201000, -0.034200
  1.203000, -0.029000
  1.205000, -0.023900
  1.207000, -0.019100
  1.209000, -0.014400
  1.211000, -0.009800
  1.213000, -0.005500
  1.215000, -0.001200
  1.217000,  0.002900
  1.219000,  0.006800
  1.221000,  0.010700
  1.223000,  0.014200
  1.225000,  0.017600
  1.227000,  0.020800
  1.229000,  0.023800
  1.231000,  0.026600
  1.233000,  0.029200
  1.235000,  0.031400
  1.237000,  0.033400
  1.239000,  0.035300
  1.241000,  0.037000
  1.243000,  0.038600
  1.245000,  0.040000
  1.247000,  0.041100
  1.249000,  0.042000
  1.251000,  0.042600
  1.253000,  0.043000
  1.255000,  0.043100
  1.257000,  0.043000
  1.259000,  0.042700
  1.261000,  0.042100
  1.263000,  0.041400
  1.265000,  0.040500
  1.267000,  0.039400
  1.269000,  0.038000
  1.271000,  0.036500
  1.273000,  0.034700
  1.275000,  0.032800
  1.277000,  0.030700
  1.279000,  0.028500
  1.281000,  0.026000
  1.283000,  0.023500
  1.285000,  0.020900
  1.287000,  0.018200
  1.289000,  0.015300
  1.291000,  0.012300
  1.293000,  0.009300
  1.295000,  0.006300
  1.297000,  0.003200
  1.299000,  0.000100
  1.301000, -0.002800
  1.303000, -0.005800
  1.305000, -0.008900
  1.307000, -0.011800
  1.309000, -0.014600
  1.311000, -0.017400
  1.313000, -0.020200
  1.315000, -0.022900
  1.317000, -0.025300
  1.319000, -0.027700
  1.321000, -0.029900
  1.323000, -0.032100
  1.325000, -0.034000
  1.327000, -0.035800
  1.329000, -0.037300
  1.331000, -0.038700
  1.333000, -0.039800
  1.335000, -0.040800
  1.337000, -0.041400
  1.339000, -0.041700
  1.341000, -0.041800
  1.343000, -0.041800
  1.345000, -0.041400
  1.347000, -0.040800
  1.349000, -0.040100
  1.351000, -0.039200
  1.353000, -0.038000
  1.355000, -0.036400
  1.357000, -0.034600
  1.359000, -0.032700
  1.361000, -0.030700
  1.363000, -0.028400
  1.365000, -0.026100
  1.367000, -0.023700
  1.369000, -0.021000
  1.371000, -0.018200
  1.373000, -0.015200
  1.375000, -0.012200
  1.377000, -0.009100
  1.379000, -0.005900
  1.381000, -0.002600
  1.383000,  0.000700
  1.385000,  0.004100
  1.387000,  0.007300
  1.389000,  0.010300
  1.391000,  0.012900
  1.393000,  0.015300
  1.395000,  0.017700
  1.397000,  0.020000
  1.399000,  0.021800
