# z (nm)   (kJ/mol)
  0.2550    3.54050
  0.2570    2.79320
  0.2590    2.04530
  0.2610    1.28550
  0.2630    0.53180
  0.2650   -0.24780
  0.2670   -1.04330
  0.2690   -1.83910
  0.2710   -2.66750
  0.2730   -3.48890
  0.2750   -4.30570
  0.2770   -5.12280
  0.2790   -5.92940
  0.2810   -6.73270
  0.2830   -7.52850
  0.2850   -8.31850
  0.2870   -9.10290
  0.2890   -9.87580
  0.2910  -10.63750
  0.2930  -11.38800
  0.2950  -12.12190
  0.2970  -12.83960
  0.2990  -13.53970
  0.3010  -14.22200
  0.3030  -14.88530
  0.3050  -15.52720
  0.3070  -16.14650
  0.3090  -16.74150
  0.3110  -17.31300
  0.3130  -17.85930
  0.3150  -18.37980
  0.3170  -18.87360
  0.3190  -19.34040
  0.3210  -19.77830
  0.3230  -20.18620
  0.3250  -20.56420
  0.3270  -20.91230
  0.3290  -21.23180
  0.3310  -21.52140
  0.3330  -21.78030
  0.3350  -22.00840
  0.3370  -22.20520
  0.3390  -22.37030
  0.3410  -22.50460
  0.3430  -22.60870
  0.3450  -22.68260
  0.3470  -22.72640
  0.3490  -22.74090
  0.3510  -22.72720
  0.3530  -22.68560
  0.3550  -22.61600
  0.3570  -22.51940
  0.3590  -22.39820
  0.3610  -22.25450
  0.3630  -22.08760
  0.3650  -21.89900
  0.3670  -21.69040
  0.3690  -21.46150
  0.3710  -21.21370
  0.3730  -20.94950
  0.3750  -20.67020
  0.3770  -20.37650
  0.3790  -20.07060
  0.3810  -19.75330
  0.3830  -19.42660
  0.3850  -19.09250
  0.3870  -18.75180
  0.3890  -18.40560
  0.3910  -18.05710
  0.3930  -17.70620
  0.3950  -17.35340
  0.3970  -17.00040
  0.3990  -16.64740
  0.4010  -16.29630
  0.4030  -15.94890
  0.4050  -15.60530
  0.4070  -15.26580
  0.4090  -14.93190
  0.4110  -14.60420
  0.4130  -14.28330
  0.4150  -13.96970
  0.4170  -13.66380
  0.4190  -13.36650
  0.4210  -13.07780
  0.4230  -12.79730
  0.4250  -12.52600
  0.4270  -12.26460
  0.4290  -12.01240
  0.4310  -11.76970
  0.4330  -11.53630
  0.4350  -11.31240
  0.4370  -11.09790
  0.4390  -10.89260
  0.4410  -10.69650
  0.4430  -10.50930
  0.4450  -10.33140
  0.4470  -10.16190
  0.4490  -10.00030
  0.4510   -9.84700
  0.4530   -9.70040
  0.4550   -9.56090
  0.4570   -9.42910
  0.4590   -9.30390
  0.4610   -9.18500
  0.4630   -9.07240
  0.4650   -8.96520
  0.4670   -8.86310
  0.4690   -8.76630
  0.4710   -8.67350
  0.4730   -8.58480
  0.4750   -8.49970
  0.4770   -8.41860
  0.4790   -8.34090
  0.4810   -8.26470
  0.4830   -8.19100
  0.4850   -8.12000
  0.4870   -8.05050
  0.4890   -7.98240
  0.4910   -7.91530
  0.4930   -7.84880
  0.4950   -7.78300
  0.4970   -7.71710
  0.4990   -7.65060
  0.5010   -7.58380
  0.5030   -7.51660
  0.5050   -7.44840
  0.5070   -7.37860
  0.5090   -7.30710
  0.5110   -7.23420
  0.5130   -7.15950
  0.5150   -7.08270
  0.5170   -7.00350
  0.5190   -6.92180
  0.5210   -6.83730
  0.5230   -6.74990
  0.5250   -6.65990
  0.5270   -6.56670
  0.5290   -6.47070
  0.5310   -6.37160
  0.5330   -6.26900
  0.5350   -6.16350
  0.5370   -6.05490
  0.5390   -5.94230
  0.5410   -5.82580
  0.5430   -5.70600
  0.5450   -5.58350
  0.5470   -5.45850
  0.5490   -5.33090
  0.5510   -5.20030
  0.5530   -5.06690
  0.5550   -4.93100
  0.5570   -4.79260
  0.5590   -4.65190
  0.5610   -4.50940
  0.5630   -4.36530
  0.5650   -4.21960
  0.5670   -4.07180
  0.5690   -3.92380
  0.5710   -3.77700
  0.5730   -3.62890
  0.5750   -3.47980
  0.5770   -3.33140
  0.5790   -3.18410
  0.5810   -3.03880
  0.5830   -2.89490
  0.5850   -2.75240
  0.5870   -2.61280
  0.5890   -2.47560
  0.5910   -2.34130
  0.5930   -2.21040
  0.5950   -2.08250
  0.5970   -1.95770
  0.5990   -1.83760
  0.6010   -1.72270
  0.6030   -1.61150
  0.6050   -1.50480
  0.6070   -1.40420
  0.6090   -1.30900
  0.6110   -1.21920
  0.6130   -1.13570
  0.6150   -1.05800
  0.6170   -0.98590
  0.6190   -0.92000
  0.6210   -0.86050
  0.6230   -0.80710
  0.6250   -0.76000
  0.6270   -0.71880
  0.6290   -0.68310
  0.6310   -0.65370
  0.6330   -0.63060
  0.6350   -0.61280
  0.6370   -0.60010
  0.6390   -0.59220
  0.6410   -0.58960
  0.6430   -0.59280
  0.6450   -0.60070
  0.6470   -0.61180
  0.6490   -0.62760
  0.6510   -0.64800
  0.6530   -0.67220
  0.6550   -0.69960
  0.6570   -0.73020
  0.6590   -0.76380
  0.6610   -0.80040
  0.6630   -0.83950
  0.6650   -0.88040
  0.6670   -0.92310
  0.6690   -0.96720
  0.6710   -1.01270
  0.6730   -1.05900
  0.6750   -1.10570
  0.6770   -1.15280
  0.6790   -1.20010
  0.6810   -1.24840
  0.6830   -1.29650
  0.6850   -1.34350
  0.6870   -1.39040
  0.6890   -1.43690
  0.6910   -1.48220
  0.6930   -1.52670
  0.6950   -1.57020
  0.6970   -1.61220
  0.6990   -1.65290
  0.7010   -1.69120
  0.7030   -1.72800
  0.7050   -1.76370
  0.7070   -1.79700
  0.7090   -1.82880
  0.7110   -1.85880
  0.7130   -1.88620
  0.7150   -1.91170
  0.7170   -1.93520
  0.7190   -1.95670
  0.7210   -1.97620
  0.7230   -1.99380
  0.7250   -2.00930
  0.7270   -2.02280
  0.7290   -2.03410
  0.7310   -2.04340
  0.7330   -2.05060
  0.7350   -2.05600
  0.7370   -2.05960
  0.7390   -2.06130
  0.7410   -2.06110
  0.7430   -2.05910
  0.7450   -2.05550
  0.7470   -2.05020
  0.7490   -2.04320
  0.7510   -2.03480
  0.7530   -2.02490
  0.7550   -2.01370
  0.7570   -2.00100
  0.7590   -1.98720
  0.7610   -1.97200
  0.7630   -1.95570
  0.7650   -1.93830
  0.7670   -1.91990
  0.7690   -1.90070
  0.7710   -1.88060
  0.7730   -1.85970
  0.7750   -1.83780
  0.7770   -1.81510
  0.7790   -1.79180
  0.7810   -1.76770
  0.7830   -1.74300
  0.7850   -1.71770
  0.7870   -1.69170
  0.7890   -1.66530
  0.7910   -1.63830
  0.7930   -1.61070
  0.7950   -1.58310
  0.7970   -1.55520
  0.7990   -1.52680
  0.8010   -1.49810
  0.8030   -1.46900
  0.8050   -1.43970
  0.8070   -1.41010
  0.8090   -1.38030
  0.8110   -1.35060
  0.8130   -1.32060
  0.8150   -1.29020
  0.8170   -1.25980
  0.8190   -1.22940
  0.8210   -1.19870
  0.8230   -1.16810
  0.8250   -1.13750
  0.8270   -1.10680
  0.8290   -1.07600
  0.8310   -1.04520
  0.8330   -1.01430
  0.8350   -0.98340
  0.8370   -0.95250
  0.8390   -0.92180
  0.8410   -0.89100
  0.8430   -0.86030
  0.8450   -0.82990
  0.8470   -0.79960
  0.8490   -0.76950
  0.8510   -0.73960
  0.8530   -0.70990
  0.8550   -0.68030
  0.8570   -0.65110
  0.8590   -0.62210
  0.8610   -0.59330
  0.8630   -0.56500
  0.8650   -0.53690
  0.8670   -0.50930
  0.8690   -0.48230
  0.8710   -0.45570
  0.8730   -0.42920
  0.8750   -0.40320
  0.8770   -0.37790
  0.8790   -0.35320
  0.8810   -0.32890
  0.8830   -0.30510
  0.8850   -0.28180
  0.8870   -0.25930
  0.8890   -0.23740
  0.8910   -0.21630
  0.8930   -0.19590
  0.8950   -0.17620
  0.8970   -0.15690
  0.8990   -0.13860
  0.9010   -0.12100
  0.9030   -0.10430
  0.9050   -0.08850
  0.9070   -0.07360
  0.9090   -0.05950
  0.9110   -0.04620
  0.9130   -0.03360
  0.9150   -0.02210
  0.9170   -0.01150
  0.9190   -0.00180
  0.9210    0.00710
  0.9230    0.01510
  0.9250    0.02210
  0.9270    0.02820
  0.9290    0.03350
  0.9310    0.03790
  0.9330    0.04140
  0.9350    0.04400
  0.9370    0.04580
  0.9390    0.04680
  0.9410    0.04690
  0.9430    0.04620
  0.9450    0.04460
  0.9470    0.04230
  0.9490    0.03920
  0.9510    0.03540
  0.9530    0.03120
  0.9550    0.02610
  0.9570    0.02030
  0.9590    0.01400
  0.9610    0.00710
  0.9630   -0.00020
  0.9650   -0.00800
  0.9670   -0.01640
  0.9690   -0.02530
  0.9710   -0.03480
  0.9730   -0.04450
  0.9750   -0.05460
  0.9770   -0.06490
  0.9790   -0.07550
  0.9810   -0.08630
  0.9830   -0.09740
  0.9850   -0.10880
  0.9870   -0.12030
  0.9890   -0.13170
  0.9910   -0.14330
  0.9930   -0.15480
  0.9950   -0.16630
  0.9970   -0.17770
  0.9990   -0.18900
  1.0010   -0.20020
  1.0030   -0.21130
  1.0050   -0.22210
  1.0070   -0.23270
  1.0090   -0.24310
  1.0110   -0.25310
  1.0130   -0.26290
  1.0150   -0.27260
  1.0170   -0.28190
  1.0190   -0.29070
  1.0210   -0.29900
  1.0230   -0.30700
  1.0250   -0.31450
  1.0270   -0.32160
  1.0290   -0.32820
  1.0310   -0.33450
  1.0330   -0.34020
  1.0350   -0.34550
  1.0370   -0.35020
  1.0390   -0.35440
  1.0410   -0.35810
  1.0430   -0.36150
  1.0450   -0.36440
  1.0470   -0.36690
  1.0490   -0.36880
  1.0510   -0.37010
  1.0530   -0.37100
  1.0550   -0.37140
  1.0570   -0.37140
  1.0590   -0.37110
  1.0610   -0.37030
  1.0630   -0.36900
  1.0650   -0.36720
  1.0670   -0.36510
  1.0690   -0.36270
  1.0710   -0.35990
  1.0730   -0.35680
  1.0750   -0.35330
  1.0770   -0.34950
  1.0790   -0.34540
  1.0810   -0.34100
  1.0830   -0.33640
  1.0850   -0.33150
  1.0870   -0.32630
  1.0890   -0.32090
  1.0910   -0.31540
  1.0930   -0.30970
  1.0950   -0.30370
  1.0970   -0.29770
  1.0990   -0.29140
  1.1010   -0.28500
  1.1030   -0.27850
  1.1050   -0.27180
  1.1070   -0.26500
  1.1090   -0.25820
  1.1110   -0.25130
  1.1130   -0.24450
  1.1150   -0.23760
  1.1170   -0.23070
  1.1190   -0.22370
  1.1210   -0.21670
  1.1230   -0.20970
  1.1250   -0.20280
  1.1270   -0.19580
  1.1290   -0.18880
  1.1310   -0.18190
  1.1330   -0.17500
  1.1350   -0.16820
  1.1370   -0.16150
  1.1390   -0.15490
  1.1410   -0.14820
  1.1430   -0.14180
  1.1450   -0.13560
  1.1470   -0.12930
  1.1490   -0.12300
  1.1510   -0.11690
  1.1530   -0.11090
  1.1550   -0.10510
  1.1570   -0.09950
  1.1590   -0.09390
  1.1610   -0.08830
  1.1630   -0.08290
  1.1650   -0.07760
  1.1670   -0.07250
  1.1690   -0.06740
  1.1710   -0.06260
  1.1730   -0.05800
  1.1750   -0.05370
  1.1770   -0.04950
  1.1790   -0.04530
  1.1810   -0.04130
  1.1830   -0.03740
  1.1850   -0.03380
  1.1870   -0.03030
  1.1890   -0.02690
  1.1910   -0.02350
  1.1930   -0.02040
  1.1950   -0.01750
  1.1970   -0.01460
  1.1990   -0.01190
  1.2010   -0.00930
  1.2030   -0.00690
  1.2050   -0.00460
  1.2070   -0.00240
  1.2090   -0.00030
  1.2110    0.00170
  1.2130    0.00350
  1.2150    0.00520
  1.2170    0.00670
  1.2190    0.00810
  1.2210    0.00930
  1.2230    0.01040
  1.2250    0.01140
  1.2270    0.01220
  1.2290    0.01310
  1.2310    0.01390
  1.2330    0.01460
  1.2350    0.01520
  1.2370    0.01560
  1.2390    0.01600
  1.2410    0.01620
  1.2430    0.01640
  1.2450    0.01660
  1.2470    0.01670
  1.2490    0.01680
  1.2510    0.01650
  1.2530    0.01630
  1.2550    0.01620
  1.2570    0.01600
  1.2590    0.01560
  1.2610    0.01510
  1.2630    0.01450
  1.2650    0.01390
  1.2670    0.01310
  1.2690    0.01240
  1.2710    0.01170
  1.2730    0.01090
  1.2750    0.01000
  1.2770    0.00900
  1.2790    0.00790
  1.2810    0.00670
  1.2830    0.00550
  1.2850    0.00440
  1.2870    0.00310
  1.2890    0.00170
  1.2910    0.00050
  1.2930   -0.00080
  1.2950   -0.00220
  1.2970   -0.00350
  1.2990   -0.00490
  1.3010   -0.00620
  1.3030   -0.00740
  1.3050   -0.00860
  1.3070   -0.00980
  1.3090   -0.01100
  1.3110   -0.01220
  1.3130   -0.01330
  1.3150   -0.01430
  1.3170   -0.01540
  1.3190   -0.01640
  1.3210   -0.01730
  1.3230   -0.01820
  1.3250   -0.01900
  1.3270   -0.01960
  1.3290   -0.02010
  1.3310   -0.02050
  1.3330   -0.02080
  1.3350   -0.02100
  1.3370   -0.02120
  1.3390   -0.02130
  1.3410   -0.02110
  1.3430   -0.02060
  1.3450   -0.02000
  1.3470   -0.01950
  1.3490   -0.01880
  1.3510   -0.01780
  1.3530   -0.01690
  1.3550   -0.01590
  1.3570   -0.01480
  1.3590   -0.01360
  1.3610   -0.01210
  1.3630   -0.01050
  1.3650   -0.00880
  1.3670   -0.00680
  1.3690   -0.00480
  1.3710   -0.00310
  1.3730   -0.00140
  1.3750    0.00040
  1.3770    0.00220
  1.3790    0.00400
  1.3810    0.00580
  1.3830    0.00760
  1.3850    0.00930
  1.3870    0.01100
  1.3890    0.01250
  1.3910    0.01350
  1.3930    0.01440
  1.3950    0.01510
  1.3970    0.01570
  1.3990    0.01600
