# z (nm)   (kJ/mol)
  0.281000,  8.591000
  0.283000,  7.915200
  0.285000,  7.289500
  0.287000,  6.667300
  0.289000,  5.996800
  0.291000,  5.336500
  0.293000,  4.683600
  0.295000,  4.013300
  0.297000,  3.337800
  0.299000,  2.665600
  0.301000,  1.983600
  0.303000,  1.303500
  0.305000,  0.629100
  0.307000, -0.054100
  0.309000, -0.738900
  0.311000, -1.409200
  0.313000, -2.068000
  0.315000, -2.726200
  0.317000, -3.382700
  0.319000, -4.030900
  0.321000, -4.670000
  0.323000, -5.294100
  0.325000, -5.905800
  0.327000, -6.504000
  0.329000, -7.086300
  0.331000, -7.652300
  0.333000, -8.202400
  0.335000, -8.742000
  0.337000, -9.264400
  0.339000, -9.767700
  0.341000,-10.254000
  0.343000,-10.721400
  0.345000,-11.168600
  0.347000,-11.595100
  0.349000,-12.002000
  0.351000,-12.387400
  0.353000,-12.752200
  0.355000,-13.095500
  0.357000,-13.417900
  0.359000,-13.718700
  0.361000,-13.995300
  0.363000,-14.250900
  0.365000,-14.484200
  0.367000,-14.693700
  0.369000,-14.881300
  0.371000,-15.047500
  0.373000,-15.190800
  0.375000,-15.311200
  0.377000,-15.409800
  0.379000,-15.486800
  0.381000,-15.542000
  0.383000,-15.575400
  0.385000,-15.587800
  0.387000,-15.580800
  0.389000,-15.554400
  0.391000,-15.508900
  0.393000,-15.445400
  0.395000,-15.364200
  0.397000,-15.266200
  0.399000,-15.151700
  0.401000,-15.022900
  0.403000,-14.881600
  0.405000,-14.724300
  0.407000,-14.553900
  0.409000,-14.375000
  0.411000,-14.185700
  0.413000,-13.986600
  0.415000,-13.779200
  0.417000,-13.565000
  0.419000,-13.345000
  0.421000,-13.120200
  0.423000,-12.889900
  0.425000,-12.656000
  0.427000,-12.420800
  0.429000,-12.182500
  0.431000,-11.943800
  0.433000,-11.705900
  0.435000,-11.468300
  0.437000,-11.231700
  0.439000,-10.997200
  0.441000,-10.766300
  0.443000,-10.539500
  0.445000,-10.316100
  0.447000,-10.096700
  0.449000, -9.882000
  0.451000, -9.672200
  0.453000, -9.467600
  0.455000, -9.268400
  0.457000, -9.075000
  0.459000, -8.887500
  0.461000, -8.705500
  0.463000, -8.529200
  0.465000, -8.358600
  0.467000, -8.193800
  0.469000, -8.034300
  0.471000, -7.880200
  0.473000, -7.731400
  0.475000, -7.587200
  0.477000, -7.447800
  0.479000, -7.312800
  0.481000, -7.182000
  0.483000, -7.055100
  0.485000, -6.932500
  0.487000, -6.813200
  0.489000, -6.695500
  0.491000, -6.580100
  0.493000, -6.467300
  0.495000, -6.356600
  0.497000, -6.246500
  0.499000, -6.137900
  0.501000, -6.030300
  0.503000, -5.922300
  0.505000, -5.813900
  0.507000, -5.704900
  0.509000, -5.595200
  0.511000, -5.484100
  0.513000, -5.371600
  0.515000, -5.257400
  0.517000, -5.141300
  0.519000, -5.023000
  0.521000, -4.902300
  0.523000, -4.779200
  0.525000, -4.653500
  0.527000, -4.525000
  0.529000, -4.394000
  0.531000, -4.260000
  0.533000, -4.122800
  0.535000, -3.982700
  0.537000, -3.839200
  0.539000, -3.692300
  0.541000, -3.542400
  0.543000, -3.390400
  0.545000, -3.235700
  0.547000, -3.077500
  0.549000, -2.916000
  0.551000, -2.751600
  0.553000, -2.586000
  0.555000, -2.419100
  0.557000, -2.249800
  0.559000, -2.078700
  0.561000, -1.906600
  0.563000, -1.734000
  0.565000, -1.559900
  0.567000, -1.385400
  0.569000, -1.211800
  0.571000, -1.038000
  0.573000, -0.865500
  0.575000, -0.693400
  0.577000, -0.522500
  0.579000, -0.354300
  0.581000, -0.189100
  0.583000, -0.026700
  0.585000,  0.132600
  0.587000,  0.288100
  0.589000,  0.440300
  0.591000,  0.588800
  0.593000,  0.732800
  0.595000,  0.871300
  0.597000,  1.004200
  0.599000,  1.131400
  0.601000,  1.252200
  0.603000,  1.366600
  0.605000,  1.474500
  0.607000,  1.575800
  0.609000,  1.671300
  0.611000,  1.759300
  0.613000,  1.839800
  0.615000,  1.913200
  0.617000,  1.978500
  0.619000,  2.035100
  0.621000,  2.084000
  0.623000,  2.125300
  0.625000,  2.158600
  0.627000,  2.184300
  0.629000,  2.202000
  0.631000,  2.211900
  0.633000,  2.214800
  0.635000,  2.210700
  0.637000,  2.199800
  0.639000,  2.180900
  0.641000,  2.155300
  0.643000,  2.124200
  0.645000,  2.087000
  0.647000,  2.043500
  0.649000,  1.994800
  0.651000,  1.942000
  0.653000,  1.883400
  0.655000,  1.819700
  0.657000,  1.752300
  0.659000,  1.680500
  0.661000,  1.605500
  0.663000,  1.526800
  0.665000,  1.444500
  0.667000,  1.360800
  0.669000,  1.275200
  0.671000,  1.188400
  0.673000,  1.099800
  0.675000,  1.010200
  0.677000,  0.920300
  0.679000,  0.829800
  0.681000,  0.739300
  0.683000,  0.649300
  0.685000,  0.559700
  0.687000,  0.471800
  0.689000,  0.384700
  0.691000,  0.298600
  0.693000,  0.214600
  0.695000,  0.132100
  0.697000,  0.051800
  0.699000, -0.026500
  0.701000, -0.102400
  0.703000, -0.175600
  0.705000, -0.246400
  0.707000, -0.314700
  0.709000, -0.380000
  0.711000, -0.442500
  0.713000, -0.502500
  0.715000, -0.559500
  0.717000, -0.613600
  0.719000, -0.664600
  0.721000, -0.712500
  0.723000, -0.757400
  0.725000, -0.799400
  0.727000, -0.838300
  0.729000, -0.874100
  0.731000, -0.906800
  0.733000, -0.936800
  0.735000, -0.964300
  0.737000, -0.988900
  0.739000, -1.010700
  0.741000, -1.029700
  0.743000, -1.046200
  0.745000, -1.060200
  0.747000, -1.071800
  0.749000, -1.081200
  0.751000, -1.088500
  0.753000, -1.093400
  0.755000, -1.096400
  0.757000, -1.097700
  0.759000, -1.096900
  0.761000, -1.094400
  0.763000, -1.090400
  0.765000, -1.084600
  0.767000, -1.077500
  0.769000, -1.069000
  0.771000, -1.058900
  0.773000, -1.047800
  0.775000, -1.035400
  0.777000, -1.021600
  0.779000, -1.006800
  0.781000, -0.991200
  0.783000, -0.974700
  0.785000, -0.956900
  0.787000, -0.938200
  0.789000, -0.919200
  0.791000, -0.899600
  0.793000, -0.879400
  0.795000, -0.858300
  0.797000, -0.836200
  0.799000, -0.813400
  0.801000, -0.790000
  0.803000, -0.766000
  0.805000, -0.741600
  0.807000, -0.716600
  0.809000, -0.691300
  0.811000, -0.665300
  0.813000, -0.639000
  0.815000, -0.612300
  0.817000, -0.585300
  0.819000, -0.557800
  0.821000, -0.529800
  0.823000, -0.501200
  0.825000, -0.472300
  0.827000, -0.443100
  0.829000, -0.413600
  0.831000, -0.384000
  0.833000, -0.354100
  0.835000, -0.324100
  0.837000, -0.293800
  0.839000, -0.263000
  0.841000, -0.232400
  0.843000, -0.201800
  0.845000, -0.171100
  0.847000, -0.140400
  0.849000, -0.109700
  0.851000, -0.079100
  0.853000, -0.048600
  0.855000, -0.018300
  0.857000,  0.011800
  0.859000,  0.041800
  0.861000,  0.071600
  0.863000,  0.101200
  0.865000,  0.130100
  0.867000,  0.158600
  0.869000,  0.186700
  0.871000,  0.214100
  0.873000,  0.241100
  0.875000,  0.267400
  0.877000,  0.293100
  0.879000,  0.317900
  0.881000,  0.341900
  0.883000,  0.365000
  0.885000,  0.387300
  0.887000,  0.408800
  0.889000,  0.429100
  0.891000,  0.448500
  0.893000,  0.466600
  0.895000,  0.483600
  0.897000,  0.499400
  0.899000,  0.514000
  0.901000,  0.527400
  0.903000,  0.539500
  0.905000,  0.550500
  0.907000,  0.560100
  0.909000,  0.568400
  0.911000,  0.575400
  0.913000,  0.581000
  0.915000,  0.585200
  0.917000,  0.588200
  0.919000,  0.589800
  0.921000,  0.590000
  0.923000,  0.588900
  0.925000,  0.586400
  0.927000,  0.582700
  0.929000,  0.577700
  0.931000,  0.571400
  0.933000,  0.563800
  0.935000,  0.554900
  0.937000,  0.545000
  0.939000,  0.533900
  0.941000,  0.521700
  0.943000,  0.508400
  0.945000,  0.494000
  0.947000,  0.478600
  0.949000,  0.462400
  0.951000,  0.445500
  0.953000,  0.427600
  0.955000,  0.408700
  0.957000,  0.389300
  0.959000,  0.369400
  0.961000,  0.348600
  0.963000,  0.327300
  0.965000,  0.305600
  0.967000,  0.283600
  0.969000,  0.261200
  0.971000,  0.238500
  0.973000,  0.215800
  0.975000,  0.192800
  0.977000,  0.169600
  0.979000,  0.146600
  0.981000,  0.123600
  0.983000,  0.100700
  0.985000,  0.078000
  0.987000,  0.055400
  0.989000,  0.033200
  0.991000,  0.011300
  0.993000, -0.010300
  0.995000, -0.031500
  0.997000, -0.052200
  0.999000, -0.072400
  1.001000, -0.092200
  1.003000, -0.111500
  1.005000, -0.130200
  1.007000, -0.148100
  1.009000, -0.165500
  1.011000, -0.182300
  1.013000, -0.198300
  1.015000, -0.213700
  1.017000, -0.228400
  1.019000, -0.242500
  1.021000, -0.255800
  1.023000, -0.268300
  1.025000, -0.280100
  1.027000, -0.291100
  1.029000, -0.301400
  1.031000, -0.310900
  1.033000, -0.319600
  1.035000, -0.327800
  1.037000, -0.335200
  1.039000, -0.342000
  1.041000, -0.348000
  1.043000, -0.353400
  1.045000, -0.358100
  1.047000, -0.362100
  1.049000, -0.365600
  1.051000, -0.368500
  1.053000, -0.370700
  1.055000, -0.372500
  1.057000, -0.373500
  1.059000, -0.373900
  1.061000, -0.373900
  1.063000, -0.373400
  1.065000, -0.372300
  1.067000, -0.370900
  1.069000, -0.368900
  1.071000, -0.366500
  1.073000, -0.363600
  1.075000, -0.360300
  1.077000, -0.356600
  1.079000, -0.352500
  1.081000, -0.348000
  1.083000, -0.343200
  1.085000, -0.338100
  1.087000, -0.332700
  1.089000, -0.327000
  1.091000, -0.321000
  1.093000, -0.314400
  1.095000, -0.307700
  1.097000, -0.300700
  1.099000, -0.293500
  1.101000, -0.286100
  1.103000, -0.278400
  1.105000, -0.270700
  1.107000, -0.262800
  1.109000, -0.254800
  1.111000, -0.246400
  1.113000, -0.237900
  1.115000, -0.229400
  1.117000, -0.220800
  1.119000, -0.212200
  1.121000, -0.203300
  1.123000, -0.194400
  1.125000, -0.185500
  1.127000, -0.176500
  1.129000, -0.167600
  1.131000, -0.158800
  1.133000, -0.149900
  1.135000, -0.141100
  1.137000, -0.132300
  1.139000, -0.123500
  1.141000, -0.114900
  1.143000, -0.106500
  1.145000, -0.098100
  1.147000, -0.089800
  1.149000, -0.081600
  1.151000, -0.073700
  1.153000, -0.066200
  1.155000, -0.058700
  1.157000, -0.051300
  1.159000, -0.044100
  1.161000, -0.036900
  1.163000, -0.030100
  1.165000, -0.023800
  1.167000, -0.017700
  1.169000, -0.011700
  1.171000, -0.006100
  1.173000, -0.000600
  1.175000,  0.004600
  1.177000,  0.009600
  1.179000,  0.014300
  1.181000,  0.018700
  1.183000,  0.022800
  1.185000,  0.026700
  1.187000,  0.030200
  1.189000,  0.033600
  1.191000,  0.036900
  1.193000,  0.039900
  1.195000,  0.042600
  1.197000,  0.045200
  1.199000,  0.047500
  1.201000,  0.049600
  1.203000,  0.051400
  1.205000,  0.053000
  1.207000,  0.054500
  1.209000,  0.055800
  1.211000,  0.057000
  1.213000,  0.057900
  1.215000,  0.058700
  1.217000,  0.059400
  1.219000,  0.059900
  1.221000,  0.060300
  1.223000,  0.060600
  1.225000,  0.060800
  1.227000,  0.061000
  1.229000,  0.060900
  1.231000,  0.060800
  1.233000,  0.060600
  1.235000,  0.060200
  1.237000,  0.059900
  1.239000,  0.059400
  1.241000,  0.059000
  1.243000,  0.058400
  1.245000,  0.057700
  1.247000,  0.057000
  1.249000,  0.056200
  1.251000,  0.055400
  1.253000,  0.054500
  1.255000,  0.053500
  1.257000,  0.052300
  1.259000,  0.051000
  1.261000,  0.049700
  1.263000,  0.048400
  1.265000,  0.047000
  1.267000,  0.045500
  1.269000,  0.043800
  1.271000,  0.042000
  1.273000,  0.040100
  1.275000,  0.038000
  1.277000,  0.036000
  1.279000,  0.033700
  1.281000,  0.031500
  1.283000,  0.029200
  1.285000,  0.026800
  1.287000,  0.024300
  1.289000,  0.021600
  1.291000,  0.018900
  1.293000,  0.016000
  1.295000,  0.013100
  1.297000,  0.010100
  1.299000,  0.007100
  1.301000,  0.003800
  1.303000,  0.000400
  1.305000, -0.003100
  1.307000, -0.006600
  1.309000, -0.010000
  1.311000, -0.013500
  1.313000, -0.017100
  1.315000, -0.020600
  1.317000, -0.024100
  1.319000, -0.027600
  1.321000, -0.030900
  1.323000, -0.034300
  1.325000, -0.037600
  1.327000, -0.040700
  1.329000, -0.043800
  1.331000, -0.046700
  1.333000, -0.049600
  1.335000, -0.052400
  1.337000, -0.054900
  1.339000, -0.057200
  1.341000, -0.059300
  1.343000, -0.061400
  1.345000, -0.063200
  1.347000, -0.064900
  1.349000, -0.066300
  1.351000, -0.067500
  1.353000, -0.068500
  1.355000, -0.069300
  1.357000, -0.069600
  1.359000, -0.069800
  1.361000, -0.069700
  1.363000, -0.069400
  1.365000, -0.068900
  1.367000, -0.068200
  1.369000, -0.067300
  1.371000, -0.066000
  1.373000, -0.064500
  1.375000, -0.063000
  1.377000, -0.061400
  1.379000, -0.059500
  1.381000, -0.057800
  1.383000, -0.056100
  1.385000, -0.054100
  1.387000, -0.052400
  1.389000, -0.050800
  1.391000, -0.049000
  1.393000, -0.047200
  1.395000, -0.045800
  1.397000, -0.044500
  1.399000, -0.043400
