# z (nm)   (kJ/mol)
  0.271000,  7.361800
  0.275000,  6.112800
  0.277000,  5.465900
  0.279000,  4.807800
  0.281000,  4.148200
  0.283000,  3.474600
  0.285000,  2.808900
  0.287000,  2.153500
  0.289000,  1.491900
  0.291000,  0.826600
  0.293000,  0.149100
  0.295000, -0.527400
  0.297000, -1.199700
  0.299000, -1.863300
  0.301000, -2.517300
  0.303000, -3.168800
  0.305000, -3.811500
  0.307000, -4.445900
  0.309000, -5.071900
  0.311000, -5.685300
  0.313000, -6.287600
  0.315000, -6.875500
  0.317000, -7.449300
  0.319000, -8.012100
  0.321000, -8.564300
  0.323000, -9.103400
  0.325000, -9.623200
  0.327000,-10.125400
  0.329000,-10.615800
  0.331000,-11.088300
  0.333000,-11.539600
  0.335000,-11.971300
  0.337000,-12.385000
  0.339000,-12.778300
  0.341000,-13.152100
  0.343000,-13.506700
  0.345000,-13.839900
  0.347000,-14.154500
  0.349000,-14.449400
  0.351000,-14.723200
  0.353000,-14.976500
  0.355000,-15.209200
  0.357000,-15.420900
  0.359000,-15.611200
  0.361000,-15.780400
  0.363000,-15.928900
  0.365000,-16.057100
  0.367000,-16.165000
  0.369000,-16.252900
  0.371000,-16.320800
  0.373000,-16.369800
  0.375000,-16.399700
  0.377000,-16.410800
  0.379000,-16.404800
  0.381000,-16.381400
  0.383000,-16.341900
  0.385000,-16.286400
  0.387000,-16.215200
  0.389000,-16.130000
  0.391000,-16.031200
  0.393000,-15.919600
  0.395000,-15.795600
  0.397000,-15.661100
  0.399000,-15.517200
  0.401000,-15.363400
  0.403000,-15.200500
  0.405000,-15.028800
  0.407000,-14.849200
  0.409000,-14.663700
  0.411000,-14.472600
  0.413000,-14.276500
  0.415000,-14.076700
  0.417000,-13.873900
  0.419000,-13.668600
  0.421000,-13.460900
  0.423000,-13.252100
  0.425000,-13.042300
  0.427000,-12.832000
  0.429000,-12.622300
  0.431000,-12.413400
  0.433000,-12.205600
  0.435000,-11.999500
  0.437000,-11.795300
  0.439000,-11.593400
  0.441000,-11.394100
  0.443000,-11.197800
  0.445000,-11.004800
  0.447000,-10.814900
  0.449000,-10.628400
  0.451000,-10.445900
  0.453000,-10.267500
  0.455000,-10.093100
  0.457000, -9.922300
  0.459000, -9.755300
  0.461000, -9.592200
  0.463000, -9.432800
  0.465000, -9.277700
  0.467000, -9.126300
  0.469000, -8.978000
  0.471000, -8.833900
  0.473000, -8.693500
  0.475000, -8.556600
  0.477000, -8.423100
  0.479000, -8.292700
  0.481000, -8.165600
  0.483000, -8.040600
  0.485000, -7.917900
  0.487000, -7.797600
  0.489000, -7.679300
  0.491000, -7.562900
  0.493000, -7.448600
  0.495000, -7.335700
  0.497000, -7.223500
  0.499000, -7.112700
  0.501000, -7.002900
  0.503000, -6.892900
  0.505000, -6.782900
  0.507000, -6.673300
  0.509000, -6.563500
  0.511000, -6.453400
  0.513000, -6.342500
  0.515000, -6.230500
  0.517000, -6.117600
  0.519000, -6.003600
  0.521000, -5.888000
  0.523000, -5.771100
  0.525000, -5.652700
  0.527000, -5.532300
  0.529000, -5.409700
  0.531000, -5.285300
  0.533000, -5.158900
  0.535000, -5.030300
  0.537000, -4.899200
  0.539000, -4.766200
  0.541000, -4.631400
  0.543000, -4.493900
  0.545000, -4.353700
  0.547000, -4.211600
  0.549000, -4.067500
  0.551000, -3.920600
  0.553000, -3.771700
  0.555000, -3.621600
  0.557000, -3.470600
  0.559000, -3.318200
  0.561000, -3.164600
  0.563000, -3.010200
  0.565000, -2.854100
  0.567000, -2.698300
  0.569000, -2.542600
  0.571000, -2.386700
  0.573000, -2.231000
  0.575000, -2.074300
  0.577000, -1.918700
  0.579000, -1.765900
  0.581000, -1.614500
  0.583000, -1.464800
  0.585000, -1.318400
  0.587000, -1.175100
  0.589000, -1.033600
  0.591000, -0.895700
  0.593000, -0.761400
  0.595000, -0.630300
  0.597000, -0.504100
  0.599000, -0.382900
  0.601000, -0.265800
  0.603000, -0.153700
  0.605000, -0.046800
  0.607000,  0.055200
  0.609000,  0.151800
  0.611000,  0.242600
  0.613000,  0.327000
  0.615000,  0.405000
  0.617000,  0.477000
  0.619000,  0.542300
  0.621000,  0.600900
  0.623000,  0.652900
  0.625000,  0.697900
  0.627000,  0.736500
  0.629000,  0.768900
  0.631000,  0.794700
  0.633000,  0.814800
  0.635000,  0.829300
  0.637000,  0.837300
  0.639000,  0.839100
  0.641000,  0.834900
  0.643000,  0.825000
  0.645000,  0.809900
  0.647000,  0.789700
  0.649000,  0.763400
  0.651000,  0.732200
  0.653000,  0.696600
  0.655000,  0.657200
  0.657000,  0.614200
  0.659000,  0.567500
  0.661000,  0.518500
  0.663000,  0.466800
  0.665000,  0.413100
  0.667000,  0.357100
  0.669000,  0.297500
  0.671000,  0.236300
  0.673000,  0.174600
  0.675000,  0.112400
  0.677000,  0.049200
  0.679000, -0.014300
  0.681000, -0.078100
  0.683000, -0.143400
  0.685000, -0.207900
  0.687000, -0.271100
  0.689000, -0.334300
  0.691000, -0.397100
  0.693000, -0.459400
  0.695000, -0.520400
  0.697000, -0.579700
  0.699000, -0.637700
  0.701000, -0.694100
  0.703000, -0.748400
  0.705000, -0.800600
  0.707000, -0.850700
  0.709000, -0.898600
  0.711000, -0.944400
  0.713000, -0.988100
  0.715000, -1.029700
  0.717000, -1.068600
  0.719000, -1.105000
  0.721000, -1.139400
  0.723000, -1.171500
  0.725000, -1.201400
  0.727000, -1.229100
  0.729000, -1.254100
  0.731000, -1.277000
  0.733000, -1.297600
  0.735000, -1.316100
  0.737000, -1.332600
  0.739000, -1.347000
  0.741000, -1.359000
  0.743000, -1.368900
  0.745000, -1.377100
  0.747000, -1.383300
  0.749000, -1.387500
  0.751000, -1.390200
  0.753000, -1.391100
  0.755000, -1.390600
  0.757000, -1.388600
  0.759000, -1.385100
  0.761000, -1.380200
  0.763000, -1.373800
  0.765000, -1.366300
  0.767000, -1.357800
  0.769000, -1.348200
  0.771000, -1.337300
  0.773000, -1.325300
  0.775000, -1.312500
  0.777000, -1.298700
  0.779000, -1.284000
  0.781000, -1.268600
  0.783000, -1.252200
  0.785000, -1.235300
  0.787000, -1.217800
  0.789000, -1.199600
  0.791000, -1.180700
  0.793000, -1.161300
  0.795000, -1.141500
  0.797000, -1.121100
  0.799000, -1.100200
  0.801000, -1.078700
  0.803000, -1.056900
  0.805000, -1.034500
  0.807000, -1.011900
  0.809000, -0.989100
  0.811000, -0.965900
  0.813000, -0.942200
  0.815000, -0.918400
  0.817000, -0.894200
  0.819000, -0.869800
  0.821000, -0.845000
  0.823000, -0.819800
  0.825000, -0.794300
  0.827000, -0.768700
  0.829000, -0.742800
  0.831000, -0.716700
  0.833000, -0.690600
  0.835000, -0.664400
  0.837000, -0.638100
  0.839000, -0.611500
  0.841000, -0.585100
  0.843000, -0.558900
  0.845000, -0.532100
  0.847000, -0.504900
  0.849000, -0.478000
  0.851000, -0.451200
  0.853000, -0.424400
  0.855000, -0.397900
  0.857000, -0.371800
  0.859000, -0.345900
  0.861000, -0.320200
  0.863000, -0.294400
  0.865000, -0.269100
  0.867000, -0.244100
  0.869000, -0.219000
  0.871000, -0.194200
  0.873000, -0.169900
  0.875000, -0.146300
  0.877000, -0.122900
  0.879000, -0.100100
  0.881000, -0.077900
  0.883000, -0.056000
  0.885000, -0.034700
  0.887000, -0.014100
  0.889000,  0.005700
  0.891000,  0.024900
  0.893000,  0.043500
  0.895000,  0.061400
  0.897000,  0.078600
  0.899000,  0.095000
  0.901000,  0.110600
  0.903000,  0.125300
  0.905000,  0.139100
  0.907000,  0.152100
  0.909000,  0.164300
  0.911000,  0.175300
  0.913000,  0.185700
  0.915000,  0.195200
  0.917000,  0.203600
  0.919000,  0.211100
  0.921000,  0.217600
  0.923000,  0.223200
  0.925000,  0.227900
  0.927000,  0.231500
  0.929000,  0.234200
  0.931000,  0.235900
  0.933000,  0.236600
  0.935000,  0.236500
  0.937000,  0.235300
  0.939000,  0.233200
  0.941000,  0.230200
  0.943000,  0.226300
  0.945000,  0.221500
  0.947000,  0.215800
  0.949000,  0.209400
  0.951000,  0.202200
  0.953000,  0.194200
  0.955000,  0.185400
  0.957000,  0.175900
  0.959000,  0.165700
  0.961000,  0.154900
  0.963000,  0.143500
  0.965000,  0.131800
  0.967000,  0.119500
  0.969000,  0.106600
  0.971000,  0.093300
  0.973000,  0.079500
  0.975000,  0.065400
  0.977000,  0.050900
  0.979000,  0.036200
  0.981000,  0.021400
  0.983000,  0.006300
  0.985000, -0.008800
  0.987000, -0.024100
  0.989000, -0.039400
  0.991000, -0.054700
  0.993000, -0.070100
  0.995000, -0.085300
  0.997000, -0.100700
  0.999000, -0.116100
  1.001000, -0.131300
  1.003000, -0.146100
  1.005000, -0.160800
  1.007000, -0.175100
  1.009000, -0.189200
  1.011000, -0.203200
  1.013000, -0.216600
  1.015000, -0.229600
  1.017000, -0.242400
  1.019000, -0.254700
  1.021000, -0.266500
  1.023000, -0.278000
  1.025000, -0.289100
  1.027000, -0.299700
  1.029000, -0.310000
  1.031000, -0.319700
  1.033000, -0.328900
  1.035000, -0.337600
  1.037000, -0.345800
  1.039000, -0.353500
  1.041000, -0.360700
  1.043000, -0.367500
  1.045000, -0.373700
  1.047000, -0.379300
  1.049000, -0.384500
  1.051000, -0.389200
  1.053000, -0.393400
  1.055000, -0.397000
  1.057000, -0.400100
  1.059000, -0.402600
  1.061000, -0.404700
  1.063000, -0.406300
  1.065000, -0.407400
  1.067000, -0.408100
  1.069000, -0.408300
  1.071000, -0.408000
  1.073000, -0.407400
  1.075000, -0.406200
  1.077000, -0.404600
  1.079000, -0.402700
  1.081000, -0.400400
  1.083000, -0.397700
  1.085000, -0.394600
  1.087000, -0.391000
  1.089000, -0.387200
  1.091000, -0.383000
  1.093000, -0.378500
  1.095000, -0.373900
  1.097000, -0.369000
  1.099000, -0.363700
  1.101000, -0.358100
  1.103000, -0.352400
  1.105000, -0.346500
  1.107000, -0.340400
  1.109000, -0.334100
  1.111000, -0.327700
  1.113000, -0.321100
  1.115000, -0.314200
  1.117000, -0.307400
  1.119000, -0.300400
  1.121000, -0.293300
  1.123000, -0.286300
  1.125000, -0.279100
  1.127000, -0.271900
  1.129000, -0.264700
  1.131000, -0.257300
  1.133000, -0.249900
  1.135000, -0.242600
  1.137000, -0.235300
  1.139000, -0.228100
  1.141000, -0.220900
  1.143000, -0.213700
  1.145000, -0.206700
  1.147000, -0.199700
  1.149000, -0.192800
  1.151000, -0.185900
  1.153000, -0.179200
  1.155000, -0.172500
  1.157000, -0.165900
  1.159000, -0.159400
  1.161000, -0.153000
  1.163000, -0.146700
  1.165000, -0.140600
  1.167000, -0.134500
  1.169000, -0.128500
  1.171000, -0.122700
  1.173000, -0.116900
  1.175000, -0.111200
  1.177000, -0.105700
  1.179000, -0.100500
  1.181000, -0.095200
  1.183000, -0.089900
  1.185000, -0.084800
  1.187000, -0.079700
  1.189000, -0.074600
  1.191000, -0.069600
  1.193000, -0.064700
  1.195000, -0.060000
  1.197000, -0.055400
  1.199000, -0.050900
  1.201000, -0.046400
  1.203000, -0.042000
  1.205000, -0.037700
  1.207000, -0.033400
  1.209000, -0.029300
  1.211000, -0.025200
  1.213000, -0.021300
  1.215000, -0.017500
  1.217000, -0.013700
  1.219000, -0.009900
  1.221000, -0.006200
  1.223000, -0.002600
  1.225000,  0.000900
  1.227000,  0.004400
  1.229000,  0.007700
  1.231000,  0.011000
  1.233000,  0.014100
  1.235000,  0.017100
  1.237000,  0.019900
  1.239000,  0.022700
  1.241000,  0.025400
  1.243000,  0.028000
  1.245000,  0.030400
  1.247000,  0.032600
  1.249000,  0.034800
  1.251000,  0.036700
  1.253000,  0.038500
  1.255000,  0.040200
  1.257000,  0.041800
  1.259000,  0.043200
  1.261000,  0.044300
  1.263000,  0.045200
  1.265000,  0.046000
  1.267000,  0.046600
  1.269000,  0.047000
  1.271000,  0.047300
  1.273000,  0.047300
  1.275000,  0.047100
  1.277000,  0.046700
  1.279000,  0.046300
  1.281000,  0.045700
  1.283000,  0.044800
  1.285000,  0.043800
  1.287000,  0.042700
  1.289000,  0.041600
  1.291000,  0.040300
  1.293000,  0.038800
  1.295000,  0.037100
  1.297000,  0.035200
  1.299000,  0.033400
  1.301000,  0.031400
  1.303000,  0.029100
  1.305000,  0.026900
  1.307000,  0.024600
  1.309000,  0.022200
  1.311000,  0.019600
  1.313000,  0.017000
  1.315000,  0.014300
  1.317000,  0.011600
  1.319000,  0.008800
  1.321000,  0.006100
  1.323000,  0.003500
  1.325000,  0.000900
  1.327000, -0.001700
  1.329000, -0.004300
  1.331000, -0.006800
  1.333000, -0.009300
  1.335000, -0.011700
  1.337000, -0.014100
  1.339000, -0.016400
  1.341000, -0.018700
  1.343000, -0.020900
  1.345000, -0.023100
  1.347000, -0.025100
  1.349000, -0.026900
  1.351000, -0.028700
  1.353000, -0.030300
  1.355000, -0.032000
  1.357000, -0.033700
  1.359000, -0.035300
  1.361000, -0.036800
  1.363000, -0.038100
  1.365000, -0.039300
  1.367000, -0.040500
  1.369000, -0.041700
  1.371000, -0.042500
  1.373000, -0.043100
  1.375000, -0.043700
  1.377000, -0.044500
  1.379000, -0.045100
  1.381000, -0.045500
  1.383000, -0.046100
  1.385000, -0.047000
  1.387000, -0.047900
  1.389000, -0.048800
  1.391000, -0.049900
  1.393000, -0.050900
  1.395000, -0.051900
  1.397000, -0.053400
  1.399000, -0.055100
