# z (nm)   (kJ/mol)
  0.253000,  7.431500
  0.255000,  6.808800
  0.257000,  6.201400
  0.259000,  5.577900
  0.261000,  4.937000
  0.263000,  4.281000
  0.265000,  3.603000
  0.267000,  2.927800
  0.269000,  2.248300
  0.271000,  1.556800
  0.273000,  0.878000
  0.275000,  0.196200
  0.277000, -0.497900
  0.279000, -1.190500
  0.281000, -1.873000
  0.283000, -2.543900
  0.285000, -3.215900
  0.287000, -3.885200
  0.289000, -4.541500
  0.291000, -5.188400
  0.293000, -5.827300
  0.295000, -6.456500
  0.297000, -7.071100
  0.299000, -7.669900
  0.301000, -8.254800
  0.303000, -8.819000
  0.305000, -9.366200
  0.307000, -9.897300
  0.309000,-10.411300
  0.311000,-10.909500
  0.313000,-11.390100
  0.315000,-11.850700
  0.317000,-12.290700
  0.319000,-12.711800
  0.321000,-13.114400
  0.323000,-13.496900
  0.325000,-13.858700
  0.327000,-14.201400
  0.329000,-14.522500
  0.331000,-14.820100
  0.333000,-15.094500
  0.335000,-15.346600
  0.337000,-15.576900
  0.339000,-15.785300
  0.341000,-15.972900
  0.343000,-16.138800
  0.345000,-16.282700
  0.347000,-16.405800
  0.349000,-16.506000
  0.351000,-16.584200
  0.353000,-16.643100
  0.355000,-16.682800
  0.357000,-16.702900
  0.359000,-16.702400
  0.361000,-16.683000
  0.363000,-16.647200
  0.365000,-16.593400
  0.367000,-16.520900
  0.369000,-16.431400
  0.371000,-16.326600
  0.373000,-16.209200
  0.375000,-16.079700
  0.377000,-15.937800
  0.379000,-15.784700
  0.381000,-15.620500
  0.383000,-15.445500
  0.385000,-15.262100
  0.387000,-15.069700
  0.389000,-14.869800
  0.391000,-14.663200
  0.393000,-14.449300
  0.395000,-14.230000
  0.397000,-14.006400
  0.399000,-13.778300
  0.401000,-13.546900
  0.403000,-13.313600
  0.405000,-13.078200
  0.407000,-12.841000
  0.409000,-12.602800
  0.411000,-12.363800
  0.413000,-12.124300
  0.415000,-11.884900
  0.417000,-11.646000
  0.419000,-11.407700
  0.421000,-11.170400
  0.423000,-10.934300
  0.425000,-10.699600
  0.427000,-10.466100
  0.429000,-10.234800
  0.431000,-10.005700
  0.433000, -9.778400
  0.435000, -9.553200
  0.437000, -9.330100
  0.439000, -9.109600
  0.441000, -8.892200
  0.443000, -8.676700
  0.445000, -8.463500
  0.447000, -8.252800
  0.449000, -8.044400
  0.451000, -7.838700
  0.453000, -7.635400
  0.455000, -7.434500
  0.457000, -7.235700
  0.459000, -7.039300
  0.461000, -6.845700
  0.463000, -6.654300
  0.465000, -6.465100
  0.467000, -6.278300
  0.469000, -6.093800
  0.471000, -5.911600
  0.473000, -5.731600
  0.475000, -5.553800
  0.477000, -5.378200
  0.479000, -5.204700
  0.481000, -5.033400
  0.483000, -4.864400
  0.485000, -4.697400
  0.487000, -4.532400
  0.489000, -4.369900
  0.491000, -4.209800
  0.493000, -4.052200
  0.495000, -3.896900
  0.497000, -3.743900
  0.499000, -3.593500
  0.501000, -3.445100
  0.503000, -3.298400
  0.505000, -3.154200
  0.507000, -3.013000
  0.509000, -2.873300
  0.511000, -2.735600
  0.513000, -2.601400
  0.515000, -2.470400
  0.517000, -2.342000
  0.519000, -2.216100
  0.521000, -2.093100
  0.523000, -1.973000
  0.525000, -1.856000
  0.527000, -1.742000
  0.529000, -1.631200
  0.531000, -1.523800
  0.533000, -1.419800
  0.535000, -1.318900
  0.537000, -1.221000
  0.539000, -1.126600
  0.541000, -1.035900
  0.543000, -0.948700
  0.545000, -0.865500
  0.547000, -0.786800
  0.549000, -0.711800
  0.551000, -0.640300
  0.553000, -0.572700
  0.555000, -0.508700
  0.557000, -0.449100
  0.559000, -0.393700
  0.561000, -0.342400
  0.563000, -0.295300
  0.565000, -0.252400
  0.567000, -0.213800
  0.569000, -0.179100
  0.571000, -0.149100
  0.573000, -0.123500
  0.575000, -0.101900
  0.577000, -0.084700
  0.579000, -0.071700
  0.581000, -0.062700
  0.583000, -0.058000
  0.585000, -0.057300
  0.587000, -0.060400
  0.589000, -0.067400
  0.591000, -0.078500
  0.593000, -0.093100
  0.595000, -0.111200
  0.597000, -0.132900
  0.599000, -0.158100
  0.601000, -0.186300
  0.603000, -0.217600
  0.605000, -0.252700
  0.607000, -0.290700
  0.609000, -0.330700
  0.611000, -0.373000
  0.613000, -0.417800
  0.615000, -0.464900
  0.617000, -0.513500
  0.619000, -0.564300
  0.621000, -0.616800
  0.623000, -0.670600
  0.625000, -0.725900
  0.627000, -0.782200
  0.629000, -0.840100
  0.631000, -0.898700
  0.633000, -0.957700
  0.635000, -1.016900
  0.637000, -1.075900
  0.639000, -1.135100
  0.641000, -1.194400
  0.643000, -1.253300
  0.645000, -1.311600
  0.647000, -1.369500
  0.649000, -1.426900
  0.651000, -1.483000
  0.653000, -1.538300
  0.655000, -1.592600
  0.657000, -1.645000
  0.659000, -1.696000
  0.661000, -1.745200
  0.663000, -1.793200
  0.665000, -1.839800
  0.667000, -1.884500
  0.669000, -1.927100
  0.671000, -1.967500
  0.673000, -2.006300
  0.675000, -2.042800
  0.677000, -2.076900
  0.679000, -2.108800
  0.681000, -2.138600
  0.683000, -2.166000
  0.685000, -2.191200
  0.687000, -2.214200
  0.689000, -2.234700
  0.691000, -2.253100
  0.693000, -2.269500
  0.695000, -2.283400
  0.697000, -2.294900
  0.699000, -2.304200
  0.701000, -2.311600
  0.703000, -2.316600
  0.705000, -2.319400
  0.707000, -2.320100
  0.709000, -2.318800
  0.711000, -2.315500
  0.713000, -2.310000
  0.715000, -2.302400
  0.717000, -2.292700
  0.719000, -2.281000
  0.721000, -2.267900
  0.723000, -2.253000
  0.725000, -2.236400
  0.727000, -2.218300
  0.729000, -2.198500
  0.731000, -2.176900
  0.733000, -2.153900
  0.735000, -2.129500
  0.737000, -2.103800
  0.739000, -2.076900
  0.741000, -2.048500
  0.743000, -2.018800
  0.745000, -1.988200
  0.747000, -1.956600
  0.749000, -1.923700
  0.751000, -1.889700
  0.753000, -1.854900
  0.755000, -1.819600
  0.757000, -1.783300
  0.759000, -1.746400
  0.761000, -1.708700
  0.763000, -1.670300
  0.765000, -1.631600
  0.767000, -1.592600
  0.769000, -1.552900
  0.771000, -1.512900
  0.773000, -1.472800
  0.775000, -1.432300
  0.777000, -1.391500
  0.779000, -1.350700
  0.781000, -1.309900
  0.783000, -1.269300
  0.785000, -1.228500
  0.787000, -1.187600
  0.789000, -1.146900
  0.791000, -1.106400
  0.793000, -1.065900
  0.795000, -1.025800
  0.797000, -0.985900
  0.799000, -0.946200
  0.801000, -0.907100
  0.803000, -0.868400
  0.805000, -0.830100
  0.807000, -0.792600
  0.809000, -0.755600
  0.811000, -0.719000
  0.813000, -0.683200
  0.815000, -0.648000
  0.817000, -0.613400
  0.819000, -0.579700
  0.821000, -0.546600
  0.823000, -0.514200
  0.825000, -0.482700
  0.827000, -0.452100
  0.829000, -0.422400
  0.831000, -0.393600
  0.833000, -0.365600
  0.835000, -0.338500
  0.837000, -0.312700
  0.839000, -0.288000
  0.841000, -0.264000
  0.843000, -0.241100
  0.845000, -0.219300
  0.847000, -0.198600
  0.849000, -0.179100
  0.851000, -0.160600
  0.853000, -0.143100
  0.855000, -0.126600
  0.857000, -0.111100
  0.859000, -0.096900
  0.861000, -0.083900
  0.863000, -0.071800
  0.865000, -0.060700
  0.867000, -0.050900
  0.869000, -0.042200
  0.871000, -0.034500
  0.873000, -0.027800
  0.875000, -0.022200
  0.877000, -0.017600
  0.879000, -0.014000
  0.881000, -0.011500
  0.883000, -0.009900
  0.885000, -0.009300
  0.887000, -0.009600
  0.889000, -0.010800
  0.891000, -0.012800
  0.893000, -0.015700
  0.895000, -0.019300
  0.897000, -0.023800
  0.899000, -0.029000
  0.901000, -0.035000
  0.903000, -0.041800
  0.905000, -0.049200
  0.907000, -0.057200
  0.909000, -0.065700
  0.911000, -0.074400
  0.913000, -0.083700
  0.915000, -0.093700
  0.917000, -0.104200
  0.919000, -0.115000
  0.921000, -0.126300
  0.923000, -0.137900
  0.925000, -0.149700
  0.927000, -0.161600
  0.929000, -0.173500
  0.931000, -0.185600
  0.933000, -0.197900
  0.935000, -0.210200
  0.937000, -0.222800
  0.939000, -0.235300
  0.941000, -0.247700
  0.943000, -0.260000
  0.945000, -0.272100
  0.947000, -0.284300
  0.949000, -0.296500
  0.951000, -0.308300
  0.953000, -0.320000
  0.955000, -0.331600
  0.957000, -0.342800
  0.959000, -0.353600
  0.961000, -0.364200
  0.963000, -0.374300
  0.965000, -0.384200
  0.967000, -0.393900
  0.969000, -0.403200
  0.971000, -0.412300
  0.973000, -0.420900
  0.975000, -0.429200
  0.977000, -0.437000
  0.979000, -0.444500
  0.981000, -0.451700
  0.983000, -0.458300
  0.985000, -0.464200
  0.987000, -0.469500
  0.989000, -0.474500
  0.991000, -0.479000
  0.993000, -0.482900
  0.995000, -0.486300
  0.997000, -0.489300
  0.999000, -0.491700
  1.001000, -0.493600
  1.003000, -0.495100
  1.005000, -0.496100
  1.007000, -0.496600
  1.009000, -0.496700
  1.011000, -0.496400
  1.013000, -0.495600
  1.015000, -0.494300
  1.017000, -0.492500
  1.019000, -0.490100
  1.021000, -0.487400
  1.023000, -0.484200
  1.025000, -0.480700
  1.027000, -0.476600
  1.029000, -0.472200
  1.031000, -0.467300
  1.033000, -0.462200
  1.035000, -0.456800
  1.037000, -0.451000
  1.039000, -0.444800
  1.041000, -0.438300
  1.043000, -0.431700
  1.045000, -0.424900
  1.047000, -0.417800
  1.049000, -0.410400
  1.051000, -0.402600
  1.053000, -0.394700
  1.055000, -0.386700
  1.057000, -0.378600
  1.059000, -0.370300
  1.061000, -0.361900
  1.063000, -0.353400
  1.065000, -0.344900
  1.067000, -0.336300
  1.069000, -0.327800
  1.071000, -0.319200
  1.073000, -0.310700
  1.075000, -0.302100
  1.077000, -0.293600
  1.079000, -0.285300
  1.081000, -0.277100
  1.083000, -0.268800
  1.085000, -0.260700
  1.087000, -0.252700
  1.089000, -0.244700
  1.091000, -0.237000
  1.093000, -0.229500
  1.095000, -0.222000
  1.097000, -0.214700
  1.099000, -0.207600
  1.101000, -0.200600
  1.103000, -0.193700
  1.105000, -0.187000
  1.107000, -0.180600
  1.109000, -0.174300
  1.111000, -0.168200
  1.113000, -0.162200
  1.115000, -0.156400
  1.117000, -0.150700
  1.119000, -0.145200
  1.121000, -0.140000
  1.123000, -0.134800
  1.125000, -0.129700
  1.127000, -0.124700
  1.129000, -0.119900
  1.131000, -0.115100
  1.133000, -0.110600
  1.135000, -0.106200
  1.137000, -0.101800
  1.139000, -0.097500
  1.141000, -0.093300
  1.143000, -0.089300
  1.145000, -0.085400
  1.147000, -0.081600
  1.149000, -0.077800
  1.151000, -0.074100
  1.153000, -0.070400
  1.155000, -0.066900
  1.157000, -0.063400
  1.159000, -0.059900
  1.161000, -0.056600
  1.163000, -0.053300
  1.165000, -0.050100
  1.167000, -0.046900
  1.169000, -0.043700
  1.171000, -0.040700
  1.173000, -0.037900
  1.175000, -0.035100
  1.177000, -0.032400
  1.179000, -0.029800
  1.181000, -0.027400
  1.183000, -0.025000
  1.185000, -0.022600
  1.187000, -0.020200
  1.189000, -0.018300
  1.191000, -0.016500
  1.193000, -0.014600
  1.195000, -0.012700
  1.197000, -0.010900
  1.199000, -0.009300
  1.201000, -0.007800
  1.203000, -0.006400
  1.205000, -0.005300
  1.207000, -0.004300
  1.209000, -0.003500
  1.211000, -0.002900
  1.213000, -0.002300
  1.215000, -0.001800
  1.217000, -0.001400
  1.219000, -0.001300
  1.221000, -0.001300
  1.223000, -0.001300
  1.225000, -0.001300
  1.227000, -0.001500
  1.229000, -0.001800
  1.231000, -0.002200
  1.233000, -0.002700
  1.235000, -0.003200
  1.237000, -0.003700
  1.239000, -0.004300
  1.241000, -0.005000
  1.243000, -0.005700
  1.245000, -0.006400
  1.247000, -0.007100
  1.249000, -0.007700
  1.251000, -0.008500
  1.253000, -0.009100
  1.255000, -0.009700
  1.257000, -0.010300
  1.259000, -0.010900
  1.261000, -0.011500
  1.263000, -0.012000
  1.265000, -0.012300
  1.267000, -0.012700
  1.269000, -0.013000
  1.271000, -0.013400
  1.273000, -0.013700
  1.275000, -0.014000
  1.277000, -0.014200
  1.279000, -0.014400
  1.281000, -0.014500
  1.283000, -0.014500
  1.285000, -0.014600
  1.287000, -0.014600
  1.289000, -0.014500
  1.291000, -0.014300
  1.293000, -0.014200
  1.295000, -0.014100
  1.297000, -0.013800
  1.299000, -0.013500
  1.301000, -0.013200
  1.303000, -0.012900
  1.305000, -0.012500
  1.307000, -0.012100
  1.309000, -0.011600
  1.311000, -0.011300
  1.313000, -0.010900
  1.315000, -0.010500
  1.317000, -0.010100
  1.319000, -0.009600
  1.321000, -0.008900
  1.323000, -0.008100
  1.325000, -0.007400
  1.327000, -0.006600
  1.329000, -0.005900
  1.331000, -0.005200
  1.333000, -0.004400
  1.335000, -0.003600
  1.337000, -0.002500
  1.339000, -0.001500
  1.341000, -0.000500
  1.343000,  0.000600
  1.345000,  0.001800
  1.347000,  0.002900
  1.349000,  0.003900
  1.351000,  0.005200
  1.353000,  0.006600
  1.355000,  0.008100
  1.357000,  0.009600
  1.359000,  0.011000
  1.361000,  0.012400
  1.363000,  0.013800
  1.365000,  0.015400
  1.367000,  0.017400
  1.369000,  0.019200
  1.371000,  0.021000
  1.373000,  0.022700
  1.375000,  0.024300
  1.377000,  0.025800
  1.379000,  0.027600
  1.381000,  0.029700
  1.383000,  0.031500
  1.385000,  0.033100
  1.387000,  0.034600
  1.389000,  0.035900
  1.391000,  0.037100
  1.393000,  0.038300
  1.395000,  0.039100
  1.397000,  0.039600
  1.399000,  0.040000
