# z (nm)   (kJ/mol)
  0.2530   -0.89660
  0.2550   -1.81940
  0.2570   -2.79200
  0.2590   -3.75850
  0.2610   -4.71660
  0.2630   -5.71660
  0.2650   -6.71480
  0.2670   -7.70130
  0.2690   -8.71200
  0.2710   -9.73100
  0.2730  -10.75160
  0.2750  -11.77720
  0.2770  -12.80050
  0.2790  -13.81810
  0.2810  -14.82020
  0.2830  -15.81660
  0.2850  -16.80690
  0.2870  -17.78630
  0.2890  -18.74360
  0.2910  -19.68340
  0.2930  -20.60590
  0.2950  -21.50270
  0.2970  -22.37520
  0.2990  -23.22000
  0.3010  -24.04010
  0.3030  -24.82900
  0.3050  -25.58260
  0.3070  -26.30590
  0.3090  -26.99860
  0.3110  -27.65330
  0.3130  -28.26670
  0.3150  -28.83970
  0.3170  -29.37210
  0.3190  -29.86600
  0.3210  -30.31980
  0.3230  -30.72940
  0.3250  -31.09510
  0.3270  -31.41750
  0.3290  -31.69600
  0.3310  -31.92950
  0.3330  -32.11690
  0.3350  -32.25980
  0.3370  -32.35930
  0.3390  -32.41420
  0.3410  -32.42400
  0.3430  -32.39060
  0.3450  -32.31520
  0.3470  -32.19770
  0.3490  -32.04050
  0.3510  -31.84410
  0.3530  -31.60930
  0.3550  -31.33840
  0.3570  -31.03180
  0.3590  -30.69180
  0.3610  -30.32040
  0.3630  -29.92000
  0.3650  -29.49690
  0.3670  -29.04720
  0.3690  -28.57260
  0.3710  -28.08040
  0.3730  -27.56960
  0.3750  -27.04600
  0.3770  -26.51190
  0.3790  -25.96760
  0.3810  -25.41650
  0.3830  -24.86070
  0.3850  -24.30190
  0.3870  -23.74130
  0.3890  -23.18410
  0.3910  -22.63160
  0.3930  -22.08440
  0.3950  -21.54650
  0.3970  -21.01880
  0.3990  -20.50280
  0.4010  -20.00060
  0.4030  -19.51340
  0.4050  -19.04320
  0.4070  -18.59160
  0.4090  -18.15910
  0.4110  -17.74580
  0.4130  -17.35270
  0.4150  -16.97990
  0.4170  -16.62780
  0.4190  -16.29690
  0.4210  -15.98780
  0.4230  -15.70070
  0.4250  -15.43460
  0.4270  -15.19000
  0.4290  -14.96550
  0.4310  -14.75980
  0.4330  -14.57320
  0.4350  -14.40480
  0.4370  -14.25440
  0.4390  -14.12120
  0.4410  -14.00370
  0.4430  -13.90200
  0.4450  -13.81570
  0.4470  -13.74210
  0.4490  -13.68020
  0.4510  -13.62910
  0.4530  -13.58770
  0.4550  -13.55360
  0.4570  -13.52560
  0.4590  -13.50560
  0.4610  -13.49070
  0.4630  -13.47990
  0.4650  -13.47360
  0.4670  -13.47010
  0.4690  -13.46740
  0.4710  -13.46450
  0.4730  -13.46220
  0.4750  -13.45890
  0.4770  -13.45390
  0.4790  -13.44660
  0.4810  -13.43720
  0.4830  -13.42440
  0.4850  -13.40710
  0.4870  -13.38550
  0.4890  -13.35930
  0.4910  -13.32790
  0.4930  -13.29130
  0.4950  -13.24910
  0.4970  -13.20070
  0.4990  -13.14630
  0.5010  -13.08620
  0.5030  -13.02030
  0.5050  -12.94860
  0.5070  -12.87110
  0.5090  -12.78780
  0.5110  -12.69860
  0.5130  -12.60420
  0.5150  -12.50490
  0.5170  -12.40000
  0.5190  -12.29020
  0.5210  -12.17580
  0.5230  -12.05770
  0.5250  -11.93570
  0.5270  -11.81000
  0.5290  -11.68110
  0.5310  -11.54920
  0.5330  -11.41450
  0.5350  -11.27780
  0.5370  -11.13930
  0.5390  -10.99880
  0.5410  -10.85690
  0.5430  -10.71350
  0.5450  -10.56920
  0.5470  -10.42390
  0.5490  -10.27880
  0.5510  -10.13400
  0.5530   -9.98870
  0.5550   -9.84340
  0.5570   -9.69890
  0.5590   -9.55460
  0.5610   -9.41070
  0.5630   -9.26790
  0.5650   -9.12560
  0.5670   -8.98450
  0.5690   -8.84390
  0.5710   -8.70400
  0.5730   -8.56530
  0.5750   -8.42730
  0.5770   -8.28990
  0.5790   -8.15280
  0.5810   -8.01610
  0.5830   -7.88020
  0.5850   -7.74480
  0.5870   -7.61040
  0.5890   -7.47670
  0.5910   -7.34270
  0.5930   -7.20890
  0.5950   -7.07570
  0.5970   -6.94250
  0.5990   -6.80930
  0.6010   -6.67670
  0.6030   -6.54430
  0.6050   -6.41130
  0.6070   -6.27780
  0.6090   -6.14410
  0.6110   -6.01040
  0.6130   -5.87680
  0.6150   -5.74300
  0.6170   -5.60800
  0.6190   -5.47330
  0.6210   -5.33860
  0.6230   -5.20280
  0.6250   -5.06700
  0.6270   -4.93150
  0.6290   -4.79730
  0.6310   -4.66280
  0.6330   -4.52720
  0.6350   -4.39180
  0.6370   -4.25740
  0.6390   -4.12450
  0.6410   -3.99190
  0.6430   -3.86150
  0.6450   -3.73190
  0.6470   -3.60200
  0.6490   -3.47280
  0.6510   -3.34460
  0.6530   -3.21770
  0.6550   -3.09250
  0.6570   -2.96950
  0.6590   -2.84840
  0.6610   -2.73010
  0.6630   -2.61430
  0.6650   -2.50000
  0.6670   -2.38790
  0.6690   -2.27960
  0.6710   -2.17380
  0.6730   -2.07130
  0.6750   -1.97230
  0.6770   -1.87580
  0.6790   -1.78360
  0.6810   -1.69450
  0.6830   -1.60830
  0.6850   -1.52660
  0.6870   -1.44870
  0.6890   -1.37420
  0.6910   -1.30420
  0.6930   -1.23850
  0.6950   -1.17700
  0.6970   -1.11800
  0.6990   -1.06230
  0.7010   -1.01180
  0.7030   -0.96580
  0.7050   -0.92360
  0.7070   -0.88520
  0.7090   -0.85090
  0.7110   -0.82090
  0.7130   -0.79410
  0.7150   -0.77140
  0.7170   -0.75310
  0.7190   -0.73830
  0.7210   -0.72710
  0.7230   -0.71950
  0.7250   -0.71500
  0.7270   -0.71370
  0.7290   -0.71520
  0.7310   -0.71990
  0.7330   -0.72760
  0.7350   -0.73770
  0.7370   -0.75040
  0.7390   -0.76540
  0.7410   -0.78300
  0.7430   -0.80230
  0.7450   -0.82280
  0.7470   -0.84480
  0.7490   -0.86800
  0.7510   -0.89310
  0.7530   -0.91940
  0.7550   -0.94600
  0.7570   -0.97380
  0.7590   -1.00290
  0.7610   -1.03190
  0.7630   -1.06080
  0.7650   -1.09040
  0.7670   -1.12050
  0.7690   -1.15050
  0.7710   -1.17960
  0.7730   -1.20830
  0.7750   -1.23690
  0.7770   -1.26500
  0.7790   -1.29230
  0.7810   -1.31900
  0.7830   -1.34460
  0.7850   -1.36860
  0.7870   -1.39220
  0.7890   -1.41490
  0.7910   -1.43660
  0.7930   -1.45730
  0.7950   -1.47680
  0.7970   -1.49500
  0.7990   -1.51190
  0.8010   -1.52750
  0.8030   -1.54170
  0.8050   -1.55470
  0.8070   -1.56630
  0.8090   -1.57650
  0.8110   -1.58550
  0.8130   -1.59310
  0.8150   -1.59940
  0.8170   -1.60430
  0.8190   -1.60800
  0.8210   -1.61060
  0.8230   -1.61210
  0.8250   -1.61240
  0.8270   -1.61150
  0.8290   -1.60950
  0.8310   -1.60650
  0.8330   -1.60230
  0.8350   -1.59680
  0.8370   -1.59030
  0.8390   -1.58320
  0.8410   -1.57510
  0.8430   -1.56610
  0.8450   -1.55580
  0.8470   -1.54480
  0.8490   -1.53320
  0.8510   -1.52100
  0.8530   -1.50800
  0.8550   -1.49410
  0.8570   -1.47950
  0.8590   -1.46440
  0.8610   -1.44860
  0.8630   -1.43190
  0.8650   -1.41490
  0.8670   -1.39740
  0.8690   -1.37920
  0.8710   -1.36030
  0.8730   -1.34080
  0.8750   -1.32090
  0.8770   -1.30100
  0.8790   -1.28060
  0.8810   -1.25960
  0.8830   -1.23800
  0.8850   -1.21600
  0.8870   -1.19380
  0.8890   -1.17120
  0.8910   -1.14790
  0.8930   -1.12410
  0.8950   -1.10020
  0.8970   -1.07590
  0.8990   -1.05110
  0.9010   -1.02610
  0.9030   -1.00100
  0.9050   -0.97550
  0.9070   -0.94980
  0.9090   -0.92380
  0.9110   -0.89730
  0.9130   -0.87080
  0.9150   -0.84450
  0.9170   -0.81790
  0.9190   -0.79110
  0.9210   -0.76450
  0.9230   -0.73820
  0.9250   -0.71160
  0.9270   -0.68490
  0.9290   -0.65800
  0.9310   -0.63110
  0.9330   -0.60430
  0.9350   -0.57790
  0.9370   -0.55180
  0.9390   -0.52550
  0.9410   -0.49960
  0.9430   -0.47410
  0.9450   -0.44880
  0.9470   -0.42330
  0.9490   -0.39810
  0.9510   -0.37350
  0.9530   -0.34910
  0.9550   -0.32530
  0.9570   -0.30270
  0.9590   -0.28030
  0.9610   -0.25790
  0.9630   -0.23610
  0.9650   -0.21480
  0.9670   -0.19410
  0.9690   -0.17400
  0.9710   -0.15440
  0.9730   -0.13550
  0.9750   -0.11730
  0.9770   -0.09980
  0.9790   -0.08290
  0.9810   -0.06680
  0.9830   -0.05130
  0.9850   -0.03650
  0.9870   -0.02240
  0.9890   -0.00910
  0.9910    0.00360
  0.9930    0.01560
  0.9950    0.02670
  0.9970    0.03720
  0.9990    0.04700
  1.0010    0.05610
  1.0030    0.06440
  1.0050    0.07200
  1.0070    0.07900
  1.0090    0.08540
  1.0110    0.09110
  1.0130    0.09600
  1.0150    0.10030
  1.0170    0.10400
  1.0190    0.10700
  1.0210    0.10920
  1.0230    0.11090
  1.0250    0.11190
  1.0270    0.11230
  1.0290    0.11210
  1.0310    0.11130
  1.0330    0.11020
  1.0350    0.10850
  1.0370    0.10630
  1.0390    0.10360
  1.0410    0.10040
  1.0430    0.09680
  1.0450    0.09270
  1.0470    0.08800
  1.0490    0.08310
  1.0510    0.07820
  1.0530    0.07280
  1.0550    0.06670
  1.0570    0.06050
  1.0590    0.05400
  1.0610    0.04730
  1.0630    0.04050
  1.0650    0.03350
  1.0670    0.02620
  1.0690    0.01880
  1.0710    0.01110
  1.0730    0.00330
  1.0750   -0.00450
  1.0770   -0.01220
  1.0790   -0.02000
  1.0810   -0.02760
  1.0830   -0.03520
  1.0850   -0.04290
  1.0870   -0.05070
  1.0890   -0.05860
  1.0910   -0.06640
  1.0930   -0.07400
  1.0950   -0.08150
  1.0970   -0.08870
  1.0990   -0.09580
  1.1010   -0.10280
  1.1030   -0.10970
  1.1050   -0.11650
  1.1070   -0.12300
  1.1090   -0.12940
  1.1110   -0.13540
  1.1130   -0.14120
  1.1150   -0.14670
  1.1170   -0.15200
  1.1190   -0.15730
  1.1210   -0.16240
  1.1230   -0.16720
  1.1250   -0.17180
  1.1270   -0.17620
  1.1290   -0.18030
  1.1310   -0.18430
  1.1330   -0.18800
  1.1350   -0.19150
  1.1370   -0.19490
  1.1390   -0.19800
  1.1410   -0.20080
  1.1430   -0.20330
  1.1450   -0.20580
  1.1470   -0.20800
  1.1490   -0.20990
  1.1510   -0.21150
  1.1530   -0.21300
  1.1550   -0.21420
  1.1570   -0.21530
  1.1590   -0.21620
  1.1610   -0.21680
  1.1630   -0.21730
  1.1650   -0.21760
  1.1670   -0.21760
  1.1690   -0.21740
  1.1710   -0.21710
  1.1730   -0.21660
  1.1750   -0.21570
  1.1770   -0.21470
  1.1790   -0.21360
  1.1810   -0.21220
  1.1830   -0.21050
  1.1850   -0.20870
  1.1870   -0.20670
  1.1890   -0.20450
  1.1910   -0.20240
  1.1930   -0.20000
  1.1950   -0.19730
  1.1970   -0.19440
  1.1990   -0.19140
  1.2010   -0.18820
  1.2030   -0.18500
  1.2050   -0.18160
  1.2070   -0.17810
  1.2090   -0.17430
  1.2110   -0.17040
  1.2130   -0.16640
  1.2150   -0.16210
  1.2170   -0.15790
  1.2190   -0.15360
  1.2210   -0.14910
  1.2230   -0.14460
  1.2250   -0.13970
  1.2270   -0.13480
  1.2290   -0.13000
  1.2310   -0.12520
  1.2330   -0.12050
  1.2350   -0.11580
  1.2370   -0.11100
  1.2390   -0.10610
  1.2410   -0.10100
  1.2430   -0.09600
  1.2450   -0.09100
  1.2470   -0.08600
  1.2490   -0.08110
  1.2510   -0.07610
  1.2530   -0.07120
  1.2550   -0.06630
  1.2570   -0.06140
  1.2590   -0.05660
  1.2610   -0.05180
  1.2630   -0.04710
  1.2650   -0.04250
  1.2670   -0.03790
  1.2690   -0.03350
  1.2710   -0.02930
  1.2730   -0.02500
  1.2750   -0.02080
  1.2770   -0.01670
  1.2790   -0.01270
  1.2810   -0.00880
  1.2830   -0.00510
  1.2850   -0.00160
  1.2870    0.00200
  1.2890    0.00560
  1.2910    0.00930
  1.2930    0.01260
  1.2950    0.01590
  1.2970    0.01900
  1.2990    0.02200
  1.3010    0.02490
  1.3030    0.02780
  1.3050    0.03060
  1.3070    0.03340
  1.3090    0.03610
  1.3110    0.03860
  1.3130    0.04090
  1.3150    0.04340
  1.3170    0.04590
  1.3190    0.04830
  1.3210    0.05090
  1.3230    0.05340
  1.3250    0.05580
  1.3270    0.05810
  1.3290    0.06040
  1.3310    0.06280
  1.3330    0.06500
  1.3350    0.06720
  1.3370    0.06950
  1.3390    0.07200
  1.3410    0.07470
  1.3430    0.07730
  1.3450    0.07960
  1.3470    0.08190
  1.3490    0.08450
  1.3510    0.08700
  1.3530    0.08940
  1.3550    0.09180
  1.3570    0.09410
  1.3590    0.09650
  1.3610    0.09880
  1.3630    0.10110
  1.3650    0.10340
  1.3670    0.10560
  1.3690    0.10780
  1.3710    0.11020
  1.3730    0.11250
  1.3750    0.11460
  1.3770    0.11680
  1.3790    0.11870
  1.3810    0.12060
  1.3830    0.12230
  1.3850    0.12390
  1.3870    0.12510
  1.3890    0.12620
  1.3910    0.12710
  1.3930    0.12760
  1.3950    0.12770
  1.3970    0.12740
  1.3990    0.12650
