# z (nm)   (kJ/mol)
  0.1000  320.07644
  0.1020  317.00929
  0.1040  313.93976
  0.1060  310.12192
  0.1080  306.85332
  0.1100  303.26289
  0.1120  299.63187
  0.1140  295.85965
  0.1160  292.21127
  0.1180  288.45224
  0.1200  284.59418
  0.1220  280.59312
  0.1240  276.46983
  0.1260  272.20271
  0.1280  267.77836
  0.1300  263.18908
  0.1320  258.42829
  0.1340  253.49650
  0.1360  248.39158
  0.1380  243.12425
  0.1400  237.70762
  0.1420  232.17056
  0.1440  226.55886
  0.1460  220.90185
  0.1480  215.24416
  0.1500  209.61892
  0.1520  204.05989
  0.1540  198.59677
  0.1560  193.24827
  0.1580  188.02596
  0.1600  182.93747
  0.1620  177.99015
  0.1640  173.18838
  0.1660  168.54497
  0.1680  164.06848
  0.1700  159.75543
  0.1720  155.61260
  0.1740  151.63219
  0.1760  147.80415
  0.1780  144.11551
  0.1800  140.54855
  0.1820  137.08524
  0.1840  133.70509
  0.1860  130.39746
  0.1880  127.14691
  0.1900  123.93634
  0.1920  120.76802
  0.1940  117.64055
  0.1960  114.55618
  0.1980  111.51801
  0.2000  108.53932
  0.2020  105.62368
  0.2040  102.76693
  0.2060   99.97547
  0.2080   97.24487
  0.2100   94.57381
  0.2120   91.96326
  0.2140   89.41122
  0.2160   86.91583
  0.2180   84.47270
  0.2200   82.08944
  0.2220   79.77371
  0.2240   77.52512
  0.2260   75.35685
  0.2280   73.27251
  0.2300   71.28566
  0.2320   69.39636
  0.2340   67.60157
  0.2360   65.89800
  0.2380   64.28548
  0.2400   62.75569
  0.2420   61.30693
  0.2440   59.92577
  0.2460   58.60892
  0.2480   57.35221
  0.2500   56.14456
  0.2520   54.98757
  0.2540   53.88061
  0.2560   52.81802
  0.2580   51.79946
  0.2600   50.82424
  0.2620   49.89051
  0.2640   48.98288
  0.2660   48.12013
  0.2680   47.29249
  0.2700   46.50100
  0.2720   45.73370
  0.2740   44.99193
  0.2760   44.27530
  0.2780   43.58218
  0.2800   42.90905
  0.2820   42.25474
  0.2840   41.61406
  0.2860   40.98824
  0.2880   40.38493
  0.2900   39.79741
  0.2920   39.22364
  0.2940   38.66590
  0.2960   38.12638
  0.2980   37.59985
  0.3000   37.09265
  0.3020   36.60459
  0.3040   36.12655
  0.3060   35.66069
  0.3080   35.21202
  0.3100   34.77262
  0.3120   34.34470
  0.3140   33.92438
  0.3160   33.51621
  0.3180   33.11616
  0.3200   32.71977
  0.3220   32.32980
  0.3240   31.95534
  0.3260   31.58831
  0.3280   31.23253
  0.3300   30.89069
  0.3320   30.55906
  0.3340   30.24008
  0.3360   29.93084
  0.3380   29.63229
  0.3400   29.34563
  0.3420   29.06677
  0.3440   28.79673
  0.3460   28.53270
  0.3480   28.27318
  0.3500   28.01682
  0.3520   27.76284
  0.3540   27.51272
  0.3560   27.25143
  0.3580   26.99693
  0.3600   26.74391
  0.3620   26.49489
  0.3640   26.24537
  0.3660   26.00067
  0.3680   25.76357
  0.3700   25.53192
  0.3720   25.30434
  0.3740   25.08455
  0.3760   24.87758
  0.3780   24.68044
  0.3800   24.49723
  0.3820   24.32225
  0.3840   24.15534
  0.3860   24.00043
  0.3880   23.84983
  0.3900   23.70784
  0.3920   23.56079
  0.3940   23.41238
  0.3960   23.25622
  0.3980   23.09126
  0.4000   22.90160
  0.4020   22.69903
  0.4040   22.48764
  0.4060   22.26063
  0.4080   22.02901
  0.4100   21.79980
  0.4120   21.57852
  0.4140   21.37501
  0.4160   21.18655
  0.4180   21.01317
  0.4200   20.85880
  0.4220   20.71119
  0.4240   20.56631
  0.4260   20.42185
  0.4280   20.26020
  0.4300   20.07890
  0.4320   19.88386
  0.4340   19.66472
  0.4360   19.42939
  0.4380   19.17954
  0.4400   18.91574
  0.4420   18.65586
  0.4440   18.39444
  0.4460   18.14606
  0.4480   17.90301
  0.4500   17.67343
  0.4520   17.44428
  0.4540   17.19982
  0.4560   16.95443
  0.4580   16.69637
  0.4600   16.41292
  0.4620   16.10606
  0.4640   15.77512
  0.4660   15.40874
  0.4680   15.01481
  0.4700   14.59199
  0.4720   14.14092
  0.4740   13.66660
  0.4760   13.17865
  0.4780   12.67654
  0.4800   12.17614
  0.4820   11.67421
  0.4840   11.18142
  0.4860   10.70144
  0.4880   10.22563
  0.4900    9.76312
  0.4920    9.31730
  0.4940    8.88625
  0.4960    8.46675
  0.4980    8.06005
  0.5000    7.66686
  0.5020    7.28200
  0.5040    6.91199
  0.5060    6.55740
  0.5080    6.21588
  0.5100    5.88320
  0.5120    5.56682
  0.5140    5.27404
  0.5160    4.99631
  0.5180    4.73868
  0.5200    4.49890
  0.5220    4.27261
  0.5240    4.06024
  0.5260    3.87025
  0.5280    3.69566
  0.5300    3.53258
  0.5320    3.38371
  0.5340    3.24662
  0.5360    3.11887
  0.5380    3.00616
  0.5400    2.90169
  0.5420    2.81184
  0.5440    2.73234
  0.5460    2.65739
  0.5480    2.59242
  0.5500    2.53593
  0.5520    2.49120
  0.5540    2.45378
  0.5560    2.41663
  0.5580    2.39074
  0.5600    2.36148
  0.5620    2.34502
  0.5640    2.33900
  0.5660    2.33818
  0.5680    2.33810
  0.5700    2.34433
  0.5720    2.35255
  0.5740    2.36912
  0.5760    2.38622
  0.5780    2.40363
  0.5800    2.42188
  0.5820    2.44312
  0.5840    2.46506
  0.5860    2.48989
  0.5880    2.52165
  0.5900    2.55353
  0.5920    2.59027
  0.5940    2.62270
  0.5960    2.65584
  0.5980    2.69365
  0.6000    2.73350
  0.6020    2.76774
  0.6040    2.80223
  0.6060    2.83500
  0.6080    2.86525
  0.6100    2.89435
  0.6120    2.92367
  0.6140    2.95491
  0.6160    2.98156
  0.6180    3.00662
  0.6200    3.03305
  0.6220    3.05781
  0.6240    3.08015
  0.6260    3.10589
  0.6280    3.12674
  0.6300    3.14457
  0.6320    3.16192
  0.6340    3.18056
  0.6360    3.20206
  0.6380    3.21280
  0.6400    3.22854
  0.6420    3.23534
  0.6440    3.24892
  0.6460    3.25933
  0.6480    3.27286
  0.6500    3.28364
  0.6520    3.28866
  0.6540    3.29202
  0.6560    3.29308
  0.6580    3.28591
  0.6600    3.28652
  0.6620    3.27999
  0.6640    3.27109
  0.6660    3.25658
  0.6680    3.24331
  0.6700    3.22484
  0.6720    3.20851
  0.6740    3.18784
  0.6760    3.16383
  0.6780    3.14099
  0.6800    3.11210
  0.6820    3.08092
  0.6840    3.04125
  0.6860    3.00004
  0.6880    2.95688
  0.6900    2.90863
  0.6920    2.85352
  0.6940    2.79344
  0.6960    2.72639
  0.6980    2.66216
  0.7000    2.59752
  0.7020    2.52434
  0.7040    2.44755
  0.7060    2.37810
  0.7080    2.29285
  0.7100    2.21171
  0.7120    2.12980
  0.7140    2.04573
  0.7160    1.96487
  0.7180    1.87928
  0.7200    1.78937
  0.7220    1.70131
  0.7240    1.61604
  0.7260    1.53518
  0.7280    1.45192
  0.7300    1.36654
  0.7320    1.28088
  0.7340    1.19362
  0.7360    1.10611
  0.7380    1.02073
  0.7400    0.92911
  0.7420    0.83794
  0.7440    0.73972
  0.7460    0.64284
  0.7480    0.54728
  0.7500    0.45360
  0.7520    0.35992
  0.7540    0.26967
  0.7560    0.18108
  0.7580    0.10450
  0.7600    0.02612
  0.7620   -0.04906
  0.7640   -0.11927
  0.7660   -0.18365
  0.7680   -0.24450
  0.7700   -0.29337
  0.7720   -0.34532
  0.7740   -0.39126
  0.7760   -0.43504
  0.7780   -0.47987
  0.7800   -0.52108
  0.7820   -0.55997
  0.7840   -0.59266
  0.7860   -0.62380
  0.7880   -0.65808
  0.7900   -0.68255
  0.7920   -0.70776
  0.7940   -0.73386
  0.7960   -0.75628
  0.7980   -0.77951
  0.8000   -0.80227
  0.8020   -0.82402
  0.8040   -0.84235
  0.8060   -0.86120
  0.8080   -0.87680
  0.8100   -0.88798
  0.8120   -0.89823
  0.8140   -0.90499
  0.8160   -0.90764
  0.8180   -0.90746
  0.8200   -0.90061
  0.8220   -0.89572
  0.8240   -0.88720
  0.8260   -0.87104
  0.8280   -0.85091
  0.8300   -0.83262
  0.8320   -0.80789
  0.8340   -0.78743
  0.8360   -0.76261
  0.8380   -0.73677
  0.8400   -0.71267
  0.8420   -0.68616
  0.8440   -0.66870
  0.8460   -0.64986
  0.8480   -0.63098
  0.8500   -0.61350
  0.8520   -0.59236
  0.8540   -0.57271
  0.8560   -0.54520
  0.8580   -0.51356
  0.8600   -0.48820
  0.8620   -0.45488
  0.8640   -0.42459
  0.8660   -0.38589
  0.8680   -0.34962
  0.8700   -0.30987
  0.8720   -0.27067
  0.8740   -0.22965
  0.8760   -0.18907
  0.8780   -0.15516
  0.8800   -0.12066
  0.8820   -0.08546
  0.8840   -0.05724
  0.8860   -0.03084
  0.8880   -0.01317
  0.8900    0.01226
  0.8920    0.03346
  0.8940    0.05288
  0.8960    0.07532
  0.8980    0.08971
  0.9000    0.10237
  0.9020    0.12079
  0.9040    0.13553
  0.9060    0.14279
  0.9080    0.15335
  0.9100    0.16278
  0.9120    0.17443
  0.9140    0.18179
  0.9160    0.19523
  0.9180    0.20845
  0.9200    0.22324
  0.9220    0.23850
  0.9240    0.25690
  0.9260    0.27074
  0.9280    0.28593
  0.9300    0.30170
  0.9320    0.31758
  0.9340    0.33269
  0.9360    0.35011
  0.9380    0.36834
  0.9400    0.37986
  0.9420    0.39850
  0.9440    0.41134
  0.9460    0.42349
  0.9480    0.43501
  0.9500    0.44577
  0.9520    0.44918
  0.9540    0.45572
  0.9560    0.45736
  0.9580    0.45389
  0.9600    0.45071
  0.9620    0.44927
  0.9640    0.44192
  0.9660    0.43504
  0.9680    0.42248
  0.9700    0.40575
  0.9720    0.39314
  0.9740    0.38089
  0.9760    0.36384
  0.9780    0.34623
  0.9800    0.32735
  0.9820    0.31054
  0.9840    0.29618
  0.9860    0.28453
  0.9880    0.27288
  0.9900    0.26439
  0.9920    0.25396
  0.9940    0.24074
  0.9960    0.23403
  0.9980    0.22224
  1.0000    0.21227
  1.0020    0.20790
  1.0040    0.19329
  1.0060    0.18062
  1.0080    0.16756
  1.0100    0.15043
  1.0120    0.13569
  1.0140    0.11893
  1.0160    0.10110
  1.0180    0.08653
  1.0200    0.07210
  1.0220    0.05797
  1.0240    0.04573
  1.0260    0.03520
  1.0280    0.02788
  1.0300    0.01602
  1.0320    0.00458
  1.0340   -0.00412
  1.0360   -0.01322
  1.0380   -0.02730
  1.0400   -0.03799
  1.0420   -0.05339
  1.0440   -0.06950
  1.0460   -0.08679
  1.0480   -0.10321
  1.0500   -0.11888
  1.0520   -0.13677
  1.0540   -0.15482
  1.0560   -0.17101
  1.0580   -0.17988
  1.0600   -0.19201
  1.0620   -0.19930
  1.0640   -0.21000
  1.0660   -0.21233
  1.0680   -0.22072
  1.0700   -0.23068
  1.0720   -0.23722
  1.0740   -0.24031
  1.0760   -0.24431
  1.0780   -0.25003
  1.0800   -0.25723
  1.0820   -0.26126
  1.0840   -0.26082
  1.0860   -0.26286
  1.0880   -0.26090
  1.0900   -0.25913
  1.0920   -0.25885
  1.0940   -0.25993
  1.0960   -0.25817
  1.0980   -0.25374
  1.1000   -0.24972
  1.1020   -0.24195
  1.1040   -0.24332
  1.1060   -0.24454
  1.1080   -0.24879
  1.1100   -0.25214
  1.1120   -0.25676
  1.1140   -0.26068
  1.1160   -0.26747
  1.1180   -0.27752
  1.1200   -0.28254
  1.1220   -0.29392
  1.1240   -0.30279
  1.1260   -0.31199
  1.1280   -0.31059
  1.1300   -0.30858
  1.1320   -0.30138
  1.1340   -0.29104
  1.1360   -0.27542
  1.1380   -0.25494
  1.1400   -0.23967
  1.1420   -0.22188
  1.1440   -0.20984
  1.1460   -0.19569
  1.1480   -0.18415
  1.1500   -0.18124
  1.1520   -0.17686
  1.1540   -0.17794
  1.1560   -0.17609
  1.1580   -0.18517
  1.1600   -0.18724
  1.1620   -0.19095
  1.1640   -0.19051
  1.1660   -0.18735
  1.1680   -0.18829
  1.1700   -0.18580
  1.1720   -0.18259
  1.1740   -0.18175
  1.1760   -0.18667
  1.1780   -0.18558
  1.1800   -0.18833
  1.1820   -0.18923
  1.1840   -0.19429
  1.1860   -0.19837
  1.1880   -0.19285
  1.1900   -0.19024
  1.1920   -0.18992
  1.1940   -0.18628
  1.1960   -0.18383
  1.1980   -0.17829
  1.2000   -0.17121
