# z (nm)   (kJ/mol)
  0.1900  304.16517
  0.1920  301.83780
  0.1940  299.34307
  0.1960  296.77712
  0.1980  294.46663
  0.2000  292.25782
  0.2020  290.02731
  0.2040  287.69017
  0.2060  285.23898
  0.2080  282.58545
  0.2100  279.66859
  0.2120  276.41359
  0.2140  272.73958
  0.2160  268.55892
  0.2180  263.80160
  0.2200  258.42118
  0.2220  252.38400
  0.2240  245.65141
  0.2260  238.15778
  0.2280  229.86245
  0.2300  220.89923
  0.2320  211.68191
  0.2340  202.68897
  0.2360  194.15537
  0.2380  186.09298
  0.2400  178.51991
  0.2420  171.43127
  0.2440  164.75268
  0.2460  158.41777
  0.2480  152.40361
  0.2500  146.64465
  0.2520  141.03658
  0.2540  135.52844
  0.2560  130.18101
  0.2580  125.13020
  0.2600  120.46825
  0.2620  116.21046
  0.2640  112.25958
  0.2660  108.49670
  0.2680  104.81379
  0.2700  101.18242
  0.2720   97.67507
  0.2740   94.40825
  0.2760   91.47093
  0.2780   88.85052
  0.2800   86.43637
  0.2820   84.05270
  0.2840   81.55738
  0.2860   78.91771
  0.2880   76.19072
  0.2900   73.47552
  0.2920   70.85476
  0.2940   68.33574
  0.2960   65.88843
  0.2980   63.45345
  0.3000   60.99744
  0.3020   58.51798
  0.3040   56.03950
  0.3060   53.59754
  0.3080   51.22526
  0.3100   48.95474
  0.3120   46.80613
  0.3140   44.78580
  0.3160   42.88864
  0.3180   41.10704
  0.3200   39.41644
  0.3220   37.81928
  0.3240   36.34447
  0.3260   34.99596
  0.3280   33.77876
  0.3300   32.68954
  0.3320   31.69706
  0.3340   30.77618
  0.3360   29.89183
  0.3380   29.00260
  0.3400   28.07474
  0.3420   27.10975
  0.3440   26.19039
  0.3460   25.39203
  0.3480   24.61759
  0.3500   23.69593
  0.3520   22.58100
  0.3540   21.40481
  0.3560   20.27177
  0.3580   19.14279
  0.3600   17.90707
  0.3620   16.51183
  0.3640   14.95968
  0.3660   13.31645
  0.3680   11.66104
  0.3700   10.03548
  0.3720    8.46173
  0.3740    6.95206
  0.3760    5.51974
  0.3780    4.18819
  0.3800    2.96405
  0.3820    1.85454
  0.3840    0.83340
  0.3860   -0.13136
  0.3880   -1.04941
  0.3900   -1.91212
  0.3920   -2.69468
  0.3940   -3.38326
  0.3960   -3.96395
  0.3980   -4.45239
  0.4000   -4.87579
  0.4020   -5.27504
  0.4040   -5.68495
  0.4060   -6.10577
  0.4080   -6.51303
  0.4100   -6.87836
  0.4120   -7.18834
  0.4140   -7.41465
  0.4160   -7.58504
  0.4180   -7.74729
  0.4200   -7.92836
  0.4220   -8.14192
  0.4240   -8.35854
  0.4260   -8.57922
  0.4280   -8.78766
  0.4300   -8.99325
  0.4320   -9.16085
  0.4340   -9.20859
  0.4360   -9.11991
  0.4380   -8.97259
  0.4400   -8.84281
  0.4420   -8.72733
  0.4440   -8.58467
  0.4460   -8.39842
  0.4480   -8.18321
  0.4500   -7.92977
  0.4520   -7.59934
  0.4540   -7.18957
  0.4560   -6.72946
  0.4580   -6.26407
  0.4600   -5.85224
  0.4620   -5.49264
  0.4640   -5.16529
  0.4660   -4.82920
  0.4680   -4.44510
  0.4700   -3.99375
  0.4720   -3.49339
  0.4740   -2.96988
  0.4760   -2.44791
  0.4780   -1.94819
  0.4800   -1.48874
  0.4820   -1.05299
  0.4840   -0.62450
  0.4860   -0.19867
  0.4880    0.24773
  0.4900    0.71359
  0.4920    1.19913
  0.4940    1.69420
  0.4960    2.17896
  0.4980    2.64531
  0.5000    3.09590
  0.5020    3.54113
  0.5040    3.99363
  0.5060    4.42626
  0.5080    4.85655
  0.5100    5.24422
  0.5120    5.58064
  0.5140    5.85995
  0.5160    6.07433
  0.5180    6.22911
  0.5200    6.34381
  0.5220    6.41905
  0.5240    6.45276
  0.5260    6.45908
  0.5280    6.43211
  0.5300    6.37457
  0.5320    6.28211
  0.5340    6.15529
  0.5360    6.00092
  0.5380    5.82302
  0.5400    5.63376
  0.5420    5.44842
  0.5440    5.27467
  0.5460    5.12547
  0.5480    5.00458
  0.5500    4.93023
  0.5520    4.89092
  0.5540    4.88086
  0.5560    4.88111
  0.5580    4.88775
  0.5600    4.88094
  0.5620    4.86828
  0.5640    4.86185
  0.5660    4.88437
  0.5680    4.93618
  0.5700    5.00528
  0.5720    5.07489
  0.5740    5.11866
  0.5760    5.14912
  0.5780    5.15896
  0.5800    5.15662
  0.5820    5.13926
  0.5840    5.10939
  0.5860    5.06280
  0.5880    5.01503
  0.5900    4.94742
  0.5920    4.87141
  0.5940    4.76724
  0.5960    4.65079
  0.5980    4.51995
  0.6000    4.37682
  0.6020    4.22434
  0.6040    4.05261
  0.6060    3.85936
  0.6080    3.63055
  0.6100    3.36248
  0.6120    3.06312
  0.6140    2.74481
  0.6160    2.42960
  0.6180    2.13270
  0.6200    1.86519
  0.6220    1.61486
  0.6240    1.37903
  0.6260    1.13467
  0.6280    0.88208
  0.6300    0.60812
  0.6320    0.33848
  0.6340    0.07126
  0.6360   -0.16884
  0.6380   -0.38738
  0.6400   -0.57300
  0.6420   -0.73039
  0.6440   -0.86360
  0.6460   -0.96802
  0.6480   -1.05180
  0.6500   -1.13099
  0.6520   -1.20217
  0.6540   -1.28363
  0.6560   -1.35904
  0.6580   -1.43409
  0.6600   -1.49710
  0.6620   -1.53228
  0.6640   -1.53896
  0.6660   -1.51324
  0.6680   -1.45709
  0.6700   -1.36863
  0.6720   -1.25965
  0.6740   -1.14706
  0.6760   -1.03159
  0.6780   -0.91788
  0.6800   -0.80251
  0.6820   -0.68118
  0.6840   -0.53631
  0.6860   -0.37439
  0.6880   -0.17496
  0.6900    0.03261
  0.6920    0.24934
  0.6940    0.46935
  0.6960    0.68883
  0.6980    0.89452
  0.7000    1.08388
  0.7020    1.26469
  0.7040    1.44955
  0.7060    1.62182
  0.7080    1.79249
  0.7100    1.96031
  0.7120    2.12789
  0.7140    2.30142
  0.7160    2.46347
  0.7180    2.61333
  0.7200    2.74348
  0.7220    2.85443
  0.7240    2.94147
  0.7260    3.00317
  0.7280    3.03885
  0.7300    3.05793
  0.7320    3.06261
  0.7340    3.06086
  0.7360    3.06367
  0.7380    3.06824
  0.7400    3.08336
  0.7420    3.11529
  0.7440    3.14972
  0.7460    3.19278
  0.7480    3.23151
  0.7500    3.25077
  0.7520    3.24370
  0.7540    3.20065
  0.7560    3.12133
  0.7580    3.01828
  0.7600    2.89603
  0.7620    2.77838
  0.7640    2.67710
  0.7660    2.59505
  0.7680    2.53578
  0.7700    2.49770
  0.7720    2.47739
  0.7740    2.44352
  0.7760    2.40024
  0.7780    2.32721
  0.7800    2.22663
  0.7820    2.09587
  0.7840    1.96156
  0.7860    1.82298
  0.7880    1.69543
  0.7900    1.58980
  0.7920    1.50333
  0.7940    1.43870
  0.7960    1.38854
  0.7980    1.34064
  0.8000    1.28886
  0.8020    1.23665
  0.8040    1.18489
  0.8060    1.12140
  0.8080    1.05943
  0.8100    0.99822
  0.8120    0.94018
  0.8140    0.89554
  0.8160    0.84874
  0.8180    0.80471
  0.8200    0.76637
  0.8220    0.74080
  0.8240    0.72142
  0.8260    0.69958
  0.8280    0.68790
  0.8300    0.68296
  0.8320    0.68358
  0.8340    0.69089
  0.8360    0.70174
  0.8380    0.71043
  0.8400    0.71579
  0.8420    0.71577
  0.8440    0.70714
  0.8460    0.69151
  0.8480    0.66092
  0.8500    0.61495
  0.8520    0.56826
  0.8540    0.52490
  0.8560    0.48361
  0.8580    0.45788
  0.8600    0.45328
  0.8620    0.45907
  0.8640    0.47942
  0.8660    0.50114
  0.8680    0.52911
  0.8700    0.54372
  0.8720    0.54803
  0.8740    0.53561
  0.8760    0.51059
  0.8780    0.47658
  0.8800    0.43298
  0.8820    0.39173
  0.8840    0.35482
  0.8860    0.32866
  0.8880    0.30697
  0.8900    0.28970
  0.8920    0.27291
  0.8940    0.26598
  0.8960    0.25646
  0.8980    0.24175
  0.9000    0.21827
  0.9020    0.20307
  0.9040    0.18708
  0.9060    0.18268
  0.9080    0.17909
  0.9100    0.18146
  0.9120    0.17956
  0.9140    0.17892
  0.9160    0.16670
  0.9180    0.15288
  0.9200    0.13903
  0.9220    0.12308
  0.9240    0.09969
  0.9260    0.08133
  0.9280    0.05812
  0.9300    0.05326
  0.9320    0.05802
  0.9340    0.07021
  0.9360    0.08918
  0.9380    0.11427
  0.9400    0.13866
  0.9420    0.15889
  0.9440    0.17076
  0.9460    0.16309
  0.9480    0.14990
  0.9500    0.12374
  0.9520    0.10244
  0.9540    0.08292
  0.9560    0.07659
  0.9580    0.07284
  0.9600    0.07917
  0.9620    0.09515
  0.9640    0.11361
  0.9660    0.13661
  0.9680    0.15595
  0.9700    0.16593
  0.9720    0.17108
  0.9740    0.17184
  0.9760    0.16669
  0.9780    0.16559
  0.9800    0.16827
  0.9820    0.16972
  0.9840    0.16837
  0.9860    0.16365
  0.9880    0.15092
  0.9900    0.12914
  0.9920    0.11216
  0.9940    0.09834
  0.9960    0.09218
  0.9980    0.09317
  1.0000    0.10833
  1.0020    0.14219
  1.0040    0.17553
  1.0060    0.20353
  1.0080    0.22222
  1.0100    0.22872
  1.0120    0.22818
  1.0140    0.20884
  1.0160    0.18611
  1.0180    0.15370
  1.0200    0.12572
  1.0220    0.10476
  1.0240    0.09026
  1.0260    0.07236
  1.0280    0.06422
  1.0300    0.06969
  1.0320    0.07693
  1.0340    0.08634
  1.0360    0.09705
  1.0380    0.09756
  1.0400    0.09204
  1.0420    0.08213
  1.0440    0.06907
  1.0460    0.05147
  1.0480    0.03249
  1.0500    0.01552
  1.0520    0.01198
  1.0540    0.00781
  1.0560    0.01026
  1.0580    0.01520
  1.0600    0.01733
  1.0620    0.02154
  1.0640    0.01953
  1.0660    0.01184
  1.0680    0.00207
  1.0700   -0.01185
  1.0720   -0.02483
  1.0740   -0.02815
  1.0760   -0.02665
  1.0780   -0.02149
  1.0800   -0.01144
  1.0820   -0.00329
  1.0840    0.00416
  1.0860    0.00508
  1.0880    0.00359
  1.0900   -0.01120
  1.0920   -0.03264
  1.0940   -0.06576
  1.0960   -0.09994
  1.0980   -0.13679
  1.1000   -0.16294
  1.1020   -0.18584
  1.1040   -0.20598
  1.1060   -0.21173
  1.1080   -0.20546
  1.1100   -0.18704
  1.1120   -0.16472
  1.1140   -0.12823
  1.1160   -0.09201
  1.1180   -0.06077
  1.1200   -0.04019
  1.1220   -0.03125
  1.1240   -0.03072
  1.1260   -0.04512
  1.1280   -0.08007
  1.1300   -0.12200
  1.1320   -0.16635
  1.1340   -0.20283
  1.1360   -0.23612
  1.1380   -0.24999
  1.1400   -0.25142
  1.1420   -0.23985
  1.1440   -0.22207
  1.1460   -0.20471
  1.1480   -0.18599
  1.1500   -0.17138
  1.1520   -0.16329
  1.1540   -0.15811
  1.1560   -0.16096
  1.1580   -0.17454
  1.1600   -0.19381
  1.1620   -0.21541
  1.1640   -0.23638
  1.1660   -0.25943
  1.1680   -0.28387
  1.1700   -0.30634
  1.1720   -0.31056
  1.1740   -0.31008
  1.1760   -0.30007
  1.1780   -0.28137
  1.1800   -0.24961
  1.1820   -0.21454
  1.1840   -0.17872
  1.1860   -0.15312
  1.1880   -0.13221
  1.1900   -0.12097
  1.1920   -0.11833
  1.1940   -0.12702
  1.1960   -0.14489
  1.1980   -0.17163
  1.2000   -0.19629
