# z (nm)   (kJ/mol)
  0.1240  307.47596
  0.1260  302.67731
  0.1280  298.62064
  0.1300  294.45982
  0.1320  290.30538
  0.1340  286.12073
  0.1360  281.89756
  0.1380  277.57175
  0.1400  273.12452
  0.1420  268.54706
  0.1440  263.81043
  0.1460  258.90426
  0.1480  253.82841
  0.1500  248.56445
  0.1520  243.10899
  0.1540  237.45785
  0.1560  231.61127
  0.1580  225.56952
  0.1600  219.33649
  0.1620  212.93311
  0.1640  206.39135
  0.1660  199.74815
  0.1680  193.04912
  0.1700  186.34937
  0.1720  179.69856
  0.1740  173.13855
  0.1760  166.70553
  0.1780  160.42867
  0.1800  154.33049
  0.1820  148.43460
  0.1840  142.74704
  0.1860  137.28054
  0.1880  132.04066
  0.1900  127.02681
  0.1920  122.24114
  0.1940  117.66510
  0.1960  113.26840
  0.1980  109.02912
  0.2000  104.91992
  0.2020  100.93964
  0.2040   97.09719
  0.2060   93.40963
  0.2080   89.90126
  0.2100   86.58060
  0.2120   83.45029
  0.2140   80.50626
  0.2160   77.71805
  0.2180   75.05046
  0.2200   72.45618
  0.2220   69.90375
  0.2240   67.37511
  0.2260   64.88905
  0.2280   62.49003
  0.2300   60.23666
  0.2320   58.16496
  0.2340   56.28821
  0.2360   54.58197
  0.2380   52.99986
  0.2400   51.50245
  0.2420   50.06014
  0.2440   48.67351
  0.2460   47.34649
  0.2480   46.08446
  0.2500   44.90696
  0.2520   43.81776
  0.2540   42.81668
  0.2560   41.90179
  0.2580   41.06447
  0.2600   40.28557
  0.2620   39.55239
  0.2640   38.85455
  0.2660   38.19153
  0.2680   37.55548
  0.2700   36.95509
  0.2720   36.40532
  0.2740   35.90693
  0.2760   35.46522
  0.2780   35.06857
  0.2800   34.71021
  0.2820   34.36946
  0.2840   34.03950
  0.2860   33.71785
  0.2880   33.40474
  0.2900   33.09661
  0.2920   32.80219
  0.2940   32.53217
  0.2960   32.28546
  0.2980   32.07411
  0.3000   31.88430
  0.3020   31.71464
  0.3040   31.55236
  0.3060   31.38206
  0.3080   31.20398
  0.3100   31.01748
  0.3120   30.80997
  0.3140   30.59502
  0.3160   30.36579
  0.3180   30.12450
  0.3200   29.87556
  0.3220   29.61872
  0.3240   29.35218
  0.3260   29.07444
  0.3280   28.77999
  0.3300   28.48976
  0.3320   28.19369
  0.3340   27.90438
  0.3360   27.61342
  0.3380   27.33959
  0.3400   27.06910
  0.3420   26.81503
  0.3440   26.57232
  0.3460   26.34442
  0.3480   26.12811
  0.3500   25.92100
  0.3520   25.72489
  0.3540   25.52737
  0.3560   25.33983
  0.3580   25.15410
  0.3600   24.97133
  0.3620   24.79456
  0.3640   24.62324
  0.3660   24.45305
  0.3680   24.28886
  0.3700   24.14120
  0.3720   23.98947
  0.3740   23.84628
  0.3760   23.70930
  0.3780   23.58052
  0.3800   23.45493
  0.3820   23.33492
  0.3840   23.22095
  0.3860   23.11329
  0.3880   23.00797
  0.3900   22.90188
  0.3920   22.79817
  0.3940   22.68545
  0.3960   22.55640
  0.3980   22.40982
  0.4000   22.24298
  0.4020   22.05823
  0.4040   21.85072
  0.4060   21.62699
  0.4080   21.39067
  0.4100   21.13304
  0.4120   20.86146
  0.4140   20.57425
  0.4160   20.26403
  0.4180   19.93749
  0.4200   19.58830
  0.4220   19.22465
  0.4240   18.85712
  0.4260   18.47364
  0.4280   18.08488
  0.4300   17.69067
  0.4320   17.30208
  0.4340   16.93098
  0.4360   16.56851
  0.4380   16.22893
  0.4400   15.91399
  0.4420   15.62980
  0.4440   15.37900
  0.4460   15.14917
  0.4480   14.94534
  0.4500   14.74857
  0.4520   14.55773
  0.4540   14.36411
  0.4560   14.16830
  0.4580   13.96768
  0.4600   13.76425
  0.4620   13.55751
  0.4640   13.35817
  0.4660   13.15794
  0.4680   12.95012
  0.4700   12.72532
  0.4720   12.46860
  0.4740   12.18050
  0.4760   11.84227
  0.4780   11.46968
  0.4800   11.06444
  0.4820   10.62704
  0.4840   10.18646
  0.4860    9.73910
  0.4880    9.30270
  0.4900    8.87730
  0.4920    8.47471
  0.4940    8.07396
  0.4960    7.69038
  0.4980    7.32712
  0.5000    6.97398
  0.5020    6.63193
  0.5040    6.29697
  0.5060    5.96556
  0.5080    5.63955
  0.5100    5.31536
  0.5120    4.99554
  0.5140    4.68220
  0.5160    4.37500
  0.5180    4.07758
  0.5200    3.80064
  0.5220    3.54181
  0.5240    3.28758
  0.5260    3.05041
  0.5280    2.83563
  0.5300    2.63855
  0.5320    2.45907
  0.5340    2.30402
  0.5360    2.16301
  0.5380    2.04305
  0.5400    1.93482
  0.5420    1.84367
  0.5440    1.76130
  0.5460    1.68736
  0.5480    1.62061
  0.5500    1.55973
  0.5520    1.50678
  0.5540    1.45685
  0.5560    1.41162
  0.5580    1.37295
  0.5600    1.33544
  0.5620    1.30917
  0.5640    1.29228
  0.5660    1.28457
  0.5680    1.28231
  0.5700    1.29380
  0.5720    1.31792
  0.5740    1.34802
  0.5760    1.38391
  0.5780    1.42388
  0.5800    1.47631
  0.5820    1.53219
  0.5840    1.58542
  0.5860    1.64458
  0.5880    1.70221
  0.5900    1.75256
  0.5920    1.80011
  0.5940    1.84921
  0.5960    1.89551
  0.5980    1.93536
  0.6000    1.97443
  0.6020    2.00750
  0.6040    2.04322
  0.6060    2.07397
  0.6080    2.10799
  0.6100    2.14730
  0.6120    2.17522
  0.6140    2.20931
  0.6160    2.24435
  0.6180    2.27958
  0.6200    2.31140
  0.6220    2.34520
  0.6240    2.37315
  0.6260    2.40604
  0.6280    2.43886
  0.6300    2.47263
  0.6320    2.50108
  0.6340    2.52101
  0.6360    2.54190
  0.6380    2.56061
  0.6400    2.57728
  0.6420    2.58851
  0.6440    2.59868
  0.6460    2.60867
  0.6480    2.61733
  0.6500    2.62376
  0.6520    2.62731
  0.6540    2.62885
  0.6560    2.63245
  0.6580    2.63531
  0.6600    2.63944
  0.6620    2.63787
  0.6640    2.64205
  0.6660    2.64265
  0.6680    2.64082
  0.6700    2.64168
  0.6720    2.64046
  0.6740    2.63205
  0.6760    2.61634
  0.6780    2.60896
  0.6800    2.59164
  0.6820    2.58052
  0.6840    2.56218
  0.6860    2.54667
  0.6880    2.53426
  0.6900    2.51495
  0.6920    2.49667
  0.6940    2.47787
  0.6960    2.45378
  0.6980    2.42463
  0.7000    2.39131
  0.7020    2.35553
  0.7040    2.31948
  0.7060    2.27749
  0.7080    2.23378
  0.7100    2.18519
  0.7120    2.13807
  0.7140    2.08836
  0.7160    2.04002
  0.7180    1.99569
  0.7200    1.94441
  0.7220    1.89121
  0.7240    1.84090
  0.7260    1.78806
  0.7280    1.73621
  0.7300    1.67947
  0.7320    1.61958
  0.7340    1.55214
  0.7360    1.48734
  0.7380    1.41830
  0.7400    1.34463
  0.7420    1.26666
  0.7440    1.19169
  0.7460    1.10766
  0.7480    1.01304
  0.7500    0.92734
  0.7520    0.83512
  0.7540    0.74903
  0.7560    0.65833
  0.7580    0.57293
  0.7600    0.49442
  0.7620    0.42076
  0.7640    0.35528
  0.7660    0.29820
  0.7680    0.24608
  0.7700    0.18733
  0.7720    0.12997
  0.7740    0.07831
  0.7760    0.02394
  0.7780   -0.02898
  0.7800   -0.08137
  0.7820   -0.13425
  0.7840   -0.18593
  0.7860   -0.23235
  0.7880   -0.27756
  0.7900   -0.31859
  0.7920   -0.35509
  0.7940   -0.39316
  0.7960   -0.42686
  0.7980   -0.46347
  0.8000   -0.49618
  0.8020   -0.52765
  0.8040   -0.55400
  0.8060   -0.57495
  0.8080   -0.58811
  0.8100   -0.60091
  0.8120   -0.61353
  0.8140   -0.61886
  0.8160   -0.62309
  0.8180   -0.62628
  0.8200   -0.63548
  0.8220   -0.63899
  0.8240   -0.64248
  0.8260   -0.65030
  0.8280   -0.65433
  0.8300   -0.65119
  0.8320   -0.64751
  0.8340   -0.64146
  0.8360   -0.64306
  0.8380   -0.64180
  0.8400   -0.63593
  0.8420   -0.62852
  0.8440   -0.61952
  0.8460   -0.61230
  0.8480   -0.60518
  0.8500   -0.59214
  0.8520   -0.58290
  0.8540   -0.57834
  0.8560   -0.57772
  0.8580   -0.57454
  0.8600   -0.57449
  0.8620   -0.57075
  0.8640   -0.56730
  0.8660   -0.55804
  0.8680   -0.54567
  0.8700   -0.53678
  0.8720   -0.51836
  0.8740   -0.49649
  0.8760   -0.47505
  0.8780   -0.45458
  0.8800   -0.43445
  0.8820   -0.41635
  0.8840   -0.39768
  0.8860   -0.38391
  0.8880   -0.38097
  0.8900   -0.37575
  0.8920   -0.37222
  0.8940   -0.36770
  0.8960   -0.36095
  0.8980   -0.35536
  0.9000   -0.34849
  0.9020   -0.33299
  0.9040   -0.31503
  0.9060   -0.29398
  0.9080   -0.26606
  0.9100   -0.23474
  0.9120   -0.19988
  0.9140   -0.16627
  0.9160   -0.12931
  0.9180   -0.08968
  0.9200   -0.05709
  0.9220   -0.02635
  0.9240   -0.00125
  0.9260    0.01660
  0.9280    0.03521
  0.9300    0.04008
  0.9320    0.04311
  0.9340    0.04775
  0.9360    0.04687
  0.9380    0.04177
  0.9400    0.04739
  0.9420    0.04939
  0.9440    0.05481
  0.9460    0.06220
  0.9480    0.07216
  0.9500    0.08044
  0.9520    0.09133
  0.9540    0.10441
  0.9560    0.11918
  0.9580    0.12880
  0.9600    0.14625
  0.9620    0.15570
  0.9640    0.16456
  0.9660    0.16987
  0.9680    0.17972
  0.9700    0.18761
  0.9720    0.18954
  0.9740    0.19543
  0.9760    0.20102
  0.9780    0.20734
  0.9800    0.20816
  0.9820    0.21001
  0.9840    0.20552
  0.9860    0.20724
  0.9880    0.20055
  0.9900    0.18834
  0.9920    0.17365
  0.9940    0.15964
  0.9960    0.14667
  0.9980    0.13545
  1.0000    0.12577
  1.0020    0.12034
  1.0040    0.12281
  1.0060    0.12631
  1.0080    0.12951
  1.0100    0.13734
  1.0120    0.14195
  1.0140    0.14307
  1.0160    0.14349
  1.0180    0.13995
  1.0200    0.14043
  1.0220    0.13963
  1.0240    0.14361
  1.0260    0.14556
  1.0280    0.14531
  1.0300    0.14455
  1.0320    0.13989
  1.0340    0.13911
  1.0360    0.13646
  1.0380    0.13441
  1.0400    0.12714
  1.0420    0.11667
  1.0440    0.10186
  1.0460    0.08673
  1.0480    0.07278
  1.0500    0.05720
  1.0520    0.04176
  1.0540    0.03254
  1.0560    0.02896
  1.0580    0.02274
  1.0600    0.02155
  1.0620    0.02628
  1.0640    0.02482
  1.0660    0.02926
  1.0680    0.02753
  1.0700    0.02835
  1.0720    0.02445
  1.0740    0.02313
  1.0760    0.01809
  1.0780    0.00959
  1.0800    0.00188
  1.0820   -0.00398
  1.0840   -0.01248
  1.0860   -0.01773
  1.0880   -0.03047
  1.0900   -0.03759
  1.0920   -0.04427
  1.0940   -0.04789
  1.0960   -0.05354
  1.0980   -0.05499
  1.1000   -0.05472
  1.1020   -0.04571
  1.1040   -0.04371
  1.1060   -0.03607
  1.1080   -0.02665
  1.1100   -0.02085
  1.1120   -0.01580
  1.1140   -0.01674
  1.1160   -0.02399
  1.1180   -0.02836
  1.1200   -0.04319
  1.1220   -0.05537
  1.1240   -0.07393
  1.1260   -0.08773
  1.1280   -0.10162
  1.1300   -0.11440
  1.1320   -0.12801
  1.1340   -0.13632
  1.1360   -0.13603
  1.1380   -0.13288
  1.1400   -0.12577
  1.1420   -0.11391
  1.1440   -0.10117
  1.1460   -0.08856
  1.1480   -0.08039
  1.1500   -0.07553
  1.1520   -0.07438
  1.1540   -0.08020
  1.1560   -0.09125
  1.1580   -0.10278
  1.1600   -0.12212
  1.1620   -0.14474
  1.1640   -0.15466
  1.1660   -0.17093
  1.1680   -0.18547
  1.1700   -0.19783
  1.1720   -0.20376
  1.1740   -0.20712
  1.1760   -0.20468
  1.1780   -0.19846
  1.1800   -0.19057
  1.1820   -0.18304
  1.1840   -0.17322
  1.1860   -0.16475
  1.1880   -0.16166
  1.1900   -0.16298
  1.1920   -0.16498
  1.1940   -0.16721
  1.1960   -0.17337
  1.1980   -0.18077
  1.2000   -0.19266
