# z (nm)   (kJ/mol)
  0.2320  302.33174
  0.2340  299.01763
  0.2360  295.84827
  0.2380  293.35891
  0.2400  290.78687
  0.2420  288.61359
  0.2440  286.37218
  0.2460  284.19969
  0.2480  281.95045
  0.2500  279.57360
  0.2520  277.00263
  0.2540  274.16713
  0.2560  270.98863
  0.2580  267.37802
  0.2600  263.24053
  0.2620  258.48645
  0.2640  253.03145
  0.2660  246.79527
  0.2680  239.71742
  0.2700  231.77192
  0.2720  223.03273
  0.2740  213.66364
  0.2760  203.93183
  0.2780  194.13016
  0.2800  184.53152
  0.2820  175.37020
  0.2840  166.84529
  0.2860  159.06695
  0.2880  152.04193
  0.2900  145.71356
  0.2920  140.07932
  0.2940  135.14448
  0.2960  130.71589
  0.2980  126.42234
  0.3000  122.15284
  0.3020  118.26151
  0.3040  114.95065
  0.3060  112.03810
  0.3080  109.31604
  0.3100  106.72283
  0.3120  104.29412
  0.3140  102.06000
  0.3160   99.95062
  0.3180   97.81134
  0.3200   95.59983
  0.3220   93.51289
  0.3240   91.67159
  0.3260   89.91951
  0.3280   88.22429
  0.3300   86.68153
  0.3320   85.29459
  0.3340   84.08734
  0.3360   83.05294
  0.3380   82.11527
  0.3400   81.23601
  0.3420   80.47674
  0.3440   79.80721
  0.3460   79.07004
  0.3480   78.15641
  0.3500   77.15436
  0.3520   76.24534
  0.3540   75.55691
  0.3560   75.06346
  0.3580   74.61350
  0.3600   74.04921
  0.3620   73.28983
  0.3640   72.46312
  0.3660   71.71822
  0.3680   71.07967
  0.3700   70.37937
  0.3720   69.42880
  0.3740   68.11106
  0.3760   66.36087
  0.3780   64.16361
  0.3800   61.58517
  0.3820   58.72637
  0.3840   55.60548
  0.3860   52.18247
  0.3880   48.62221
  0.3900   45.14887
  0.3920   41.95825
  0.3940   39.19633
  0.3960   36.93169
  0.3980   35.03139
  0.4000   33.29457
  0.4020   31.58588
  0.4040   29.85398
  0.4060   28.08186
  0.4080   26.28117
  0.4100   24.51978
  0.4120   22.83115
  0.4140   21.20325
  0.4160   19.56810
  0.4180   17.87473
  0.4200   16.12659
  0.4220   14.36410
  0.4240   12.62396
  0.4260   10.97034
  0.4280    9.43058
  0.4300    8.01677
  0.4320    6.66470
  0.4340    5.31595
  0.4360    3.99817
  0.4380    2.89455
  0.4400    2.14936
  0.4420    1.71606
  0.4440    1.33464
  0.4460    0.78907
  0.4480    0.14885
  0.4500   -0.31231
  0.4520   -0.40647
  0.4540   -0.21953
  0.4560    0.02268
  0.4580    0.13668
  0.4600    0.07528
  0.4620   -0.05141
  0.4640   -0.07492
  0.4660    0.10358
  0.4680    0.41485
  0.4700    0.70126
  0.4720    0.87366
  0.4740    1.03028
  0.4760    1.24863
  0.4780    1.52061
  0.4800    1.79362
  0.4820    2.02325
  0.4840    2.23818
  0.4860    2.45102
  0.4880    2.65761
  0.4900    2.83168
  0.4920    2.96524
  0.4940    3.09172
  0.4960    3.26945
  0.4980    3.51073
  0.5000    3.73681
  0.5020    3.87440
  0.5040    3.95175
  0.5060    4.12954
  0.5080    4.45716
  0.5100    4.77287
  0.5120    4.86701
  0.5140    4.75674
  0.5160    4.67351
  0.5180    4.77146
  0.5200    4.96769
  0.5220    5.10548
  0.5240    5.09668
  0.5260    4.97099
  0.5280    4.79267
  0.5300    4.60113
  0.5320    4.39989
  0.5340    4.17396
  0.5360    3.90100
  0.5380    3.56130
  0.5400    3.18442
  0.5420    2.78231
  0.5440    2.36638
  0.5460    1.94014
  0.5480    1.48644
  0.5500    1.01599
  0.5520    0.53733
  0.5540    0.07291
  0.5560   -0.37280
  0.5580   -0.80603
  0.5600   -1.21849
  0.5620   -1.61549
  0.5640   -1.98877
  0.5660   -2.33799
  0.5680   -2.67491
  0.5700   -3.00645
  0.5720   -3.32993
  0.5740   -3.61222
  0.5760   -3.84441
  0.5780   -4.04516
  0.5800   -4.23873
  0.5820   -4.42682
  0.5840   -4.60311
  0.5860   -4.75132
  0.5880   -4.85169
  0.5900   -4.91392
  0.5920   -4.93855
  0.5940   -4.94453
  0.5960   -4.92917
  0.5980   -4.90941
  0.6000   -4.87329
  0.6020   -4.81822
  0.6040   -4.75439
  0.6060   -4.68121
  0.6080   -4.61474
  0.6100   -4.55649
  0.6120   -4.50351
  0.6140   -4.45919
  0.6160   -4.42782
  0.6180   -4.41594
  0.6200   -4.42292
  0.6220   -4.43584
  0.6240   -4.44171
  0.6260   -4.43573
  0.6280   -4.43624
  0.6300   -4.45118
  0.6320   -4.48629
  0.6340   -4.53798
  0.6360   -4.59473
  0.6380   -4.66919
  0.6400   -4.73648
  0.6420   -4.80692
  0.6440   -4.85979
  0.6460   -4.89016
  0.6480   -4.90053
  0.6500   -4.87860
  0.6520   -4.84532
  0.6540   -4.81860
  0.6560   -4.81690
  0.6580   -4.85915
  0.6600   -4.90642
  0.6620   -4.95123
  0.6640   -4.96960
  0.6660   -4.96924
  0.6680   -4.93780
  0.6700   -4.85497
  0.6720   -4.74199
  0.6740   -4.61273
  0.6760   -4.51217
  0.6780   -4.45454
  0.6800   -4.43102
  0.6820   -4.42451
  0.6840   -4.41875
  0.6860   -4.41009
  0.6880   -4.38838
  0.6900   -4.32512
  0.6920   -4.20200
  0.6940   -4.02671
  0.6960   -3.83184
  0.6980   -3.64962
  0.7000   -3.51551
  0.7020   -3.42867
  0.7040   -3.37590
  0.7060   -3.32885
  0.7080   -3.25824
  0.7100   -3.15452
  0.7120   -3.01270
  0.7140   -2.85384
  0.7160   -2.68868
  0.7180   -2.53096
  0.7200   -2.39589
  0.7220   -2.27788
  0.7240   -2.16708
  0.7260   -2.05690
  0.7280   -1.95261
  0.7300   -1.84726
  0.7320   -1.74817
  0.7340   -1.64500
  0.7360   -1.53229
  0.7380   -1.42322
  0.7400   -1.31255
  0.7420   -1.22392
  0.7440   -1.16033
  0.7460   -1.11706
  0.7480   -1.08833
  0.7500   -1.05000
  0.7520   -0.99212
  0.7540   -0.92304
  0.7560   -0.84214
  0.7580   -0.76721
  0.7600   -0.71029
  0.7620   -0.66473
  0.7640   -0.63227
  0.7660   -0.61180
  0.7680   -0.59474
  0.7700   -0.58071
  0.7720   -0.55870
  0.7740   -0.53485
  0.7760   -0.50491
  0.7780   -0.47828
  0.7800   -0.45217
  0.7820   -0.43984
  0.7840   -0.43353
  0.7860   -0.44245
  0.7880   -0.44961
  0.7900   -0.45542
  0.7920   -0.44735
  0.7940   -0.42810
  0.7960   -0.42056
  0.7980   -0.42876
  0.8000   -0.46104
  0.8020   -0.50175
  0.8040   -0.55547
  0.8060   -0.58743
  0.8080   -0.59842
  0.8100   -0.58222
  0.8120   -0.56107
  0.8140   -0.56119
  0.8160   -0.58957
  0.8180   -0.64004
  0.8200   -0.70517
  0.8220   -0.76058
  0.8240   -0.78654
  0.8260   -0.77858
  0.8280   -0.74103
  0.8300   -0.69139
  0.8320   -0.64759
  0.8340   -0.63220
  0.8360   -0.64173
  0.8380   -0.68259
  0.8400   -0.73513
  0.8420   -0.78800
  0.8440   -0.82718
  0.8460   -0.84945
  0.8480   -0.86549
  0.8500   -0.86974
  0.8520   -0.87258
  0.8540   -0.88128
  0.8560   -0.88562
  0.8580   -0.89727
  0.8600   -0.89691
  0.8620   -0.89685
  0.8640   -0.90240
  0.8660   -0.92809
  0.8680   -0.96290
  0.8700   -0.99629
  0.8720   -1.01549
  0.8740   -1.02209
  0.8760   -0.99801
  0.8780   -0.97659
  0.8800   -0.97762
  0.8820   -1.00633
  0.8840   -1.06258
  0.8860   -1.12330
  0.8880   -1.16183
  0.8900   -1.16362
  0.8920   -1.11675
  0.8940   -1.03227
  0.8960   -0.93139
  0.8980   -0.84249
  0.9000   -0.79120
  0.9020   -0.79198
  0.9040   -0.84282
  0.9060   -0.93018
  0.9080   -1.02969
  0.9100   -1.10832
  0.9120   -1.15138
  0.9140   -1.14554
  0.9160   -1.08210
  0.9180   -0.98658
  0.9200   -0.88549
  0.9220   -0.79432
  0.9240   -0.73786
  0.9260   -0.72354
  0.9280   -0.72997
  0.9300   -0.75188
  0.9320   -0.76484
  0.9340   -0.77121
  0.9360   -0.76275
  0.9380   -0.72700
  0.9400   -0.67585
  0.9420   -0.61234
  0.9440   -0.54539
  0.9460   -0.49133
  0.9480   -0.45019
  0.9500   -0.43458
  0.9520   -0.42852
  0.9540   -0.43106
  0.9560   -0.43941
  0.9580   -0.44634
  0.9600   -0.43783
  0.9620   -0.41777
  0.9640   -0.37618
  0.9660   -0.32161
  0.9680   -0.24872
  0.9700   -0.18598
  0.9720   -0.13181
  0.9740   -0.10620
  0.9760   -0.11057
  0.9780   -0.14374
  0.9800   -0.18843
  0.9820   -0.23252
  0.9840   -0.26736
  0.9860   -0.28057
  0.9880   -0.26473
  0.9900   -0.23915
  0.9920   -0.19183
  0.9940   -0.13993
  0.9960   -0.07928
  0.9980   -0.02912
  1.0000    0.01088
  1.0020    0.03605
  1.0040    0.04783
  1.0060    0.04406
  1.0080    0.03074
  1.0100    0.01921
  1.0120    0.00634
  1.0140    0.00722
  1.0160    0.01465
  1.0180    0.04412
  1.0200    0.08919
  1.0220    0.13882
  1.0240    0.17431
  1.0260    0.19861
  1.0280    0.21917
  1.0300    0.22533
  1.0320    0.22579
  1.0340    0.22669
  1.0360    0.22940
  1.0380    0.23271
  1.0400    0.23280
  1.0420    0.22586
  1.0440    0.22056
  1.0460    0.22405
  1.0480    0.23517
  1.0500    0.24693
  1.0520    0.27228
  1.0540    0.29627
  1.0560    0.31405
  1.0580    0.32565
  1.0600    0.32402
  1.0620    0.30953
  1.0640    0.29994
  1.0660    0.29084
  1.0680    0.29369
  1.0700    0.31487
  1.0720    0.34957
  1.0740    0.37636
  1.0760    0.40486
  1.0780    0.41909
  1.0800    0.42050
  1.0820    0.40716
  1.0840    0.38887
  1.0860    0.36645
  1.0880    0.34846
  1.0900    0.33668
  1.0920    0.34255
  1.0940    0.35265
  1.0960    0.35946
  1.0980    0.37326
  1.1000    0.37870
  1.1020    0.38566
  1.1040    0.38809
  1.1060    0.37956
  1.1080    0.36938
  1.1100    0.36220
  1.1120    0.35880
  1.1140    0.35678
  1.1160    0.35345
  1.1180    0.34448
  1.1200    0.33167
  1.1220    0.32033
  1.1240    0.31853
  1.1260    0.31123
  1.1280    0.32079
  1.1300    0.33037
  1.1320    0.33957
  1.1340    0.33324
  1.1360    0.32020
  1.1380    0.28770
  1.1400    0.25243
  1.1420    0.20797
  1.1440    0.17576
  1.1460    0.14863
  1.1480    0.14428
  1.1500    0.16734
  1.1520    0.19980
  1.1540    0.23492
  1.1560    0.27632
  1.1580    0.29561
  1.1600    0.29242
  1.1620    0.27168
  1.1640    0.23812
  1.1660    0.19729
  1.1680    0.16911
  1.1700    0.15443
  1.1720    0.15252
  1.1740    0.16783
  1.1760    0.18868
  1.1780    0.21892
  1.1800    0.24597
  1.1820    0.26903
  1.1840    0.27193
  1.1860    0.27312
  1.1880    0.27232
  1.1900    0.26957
  1.1920    0.27235
  1.1940    0.28305
  1.1960    0.30065
  1.1980    0.32475
  1.2000    0.34464
