# z (nm)   (kJ/mol)
  0.1960  315.60362
  0.1980  310.93846
  0.2000  307.86915
  0.2020  305.08419
  0.2040  302.44159
  0.2060  299.82089
  0.2080  297.25912
  0.2100  294.59442
  0.2120  291.86131
  0.2140  289.02004
  0.2160  286.01260
  0.2180  282.80903
  0.2200  279.36554
  0.2220  275.64431
  0.2240  271.59611
  0.2260  267.17916
  0.2280  262.35170
  0.2300  257.07550
  0.2320  251.31885
  0.2340  245.06209
  0.2360  238.29517
  0.2380  231.04367
  0.2400  223.35696
  0.2420  215.34417
  0.2440  207.17836
  0.2460  199.08517
  0.2480  191.26482
  0.2500  183.83250
  0.2520  176.79086
  0.2540  170.09497
  0.2560  163.72584
  0.2580  157.67632
  0.2600  151.91911
  0.2620  146.42238
  0.2640  141.15951
  0.2660  136.13290
  0.2680  131.28886
  0.2700  126.50277
  0.2720  121.71774
  0.2740  116.98954
  0.2760  112.37518
  0.2780  107.91924
  0.2800  103.64548
  0.2820   99.55762
  0.2840   95.64442
  0.2860   91.88983
  0.2880   88.30558
  0.2900   84.91919
  0.2920   81.73306
  0.2940   78.75103
  0.2960   75.95302
  0.2980   73.32601
  0.3000   70.86092
  0.3020   68.54513
  0.3040   66.35348
  0.3060   64.25134
  0.3080   62.21504
  0.3100   60.22277
  0.3120   58.29551
  0.3140   56.43744
  0.3160   54.66425
  0.3180   52.96413
  0.3200   51.29426
  0.3220   49.61993
  0.3240   47.90254
  0.3260   46.13743
  0.3280   44.34983
  0.3300   42.57740
  0.3320   40.86973
  0.3340   39.25123
  0.3360   37.74166
  0.3380   36.32898
  0.3400   34.99549
  0.3420   33.70432
  0.3440   32.42688
  0.3460   31.14643
  0.3480   29.88564
  0.3500   28.67932
  0.3520   27.58591
  0.3540   26.64646
  0.3560   25.86970
  0.3580   25.24089
  0.3600   24.69926
  0.3620   24.19803
  0.3640   23.71509
  0.3660   23.24634
  0.3680   22.82110
  0.3700   22.47172
  0.3720   22.21343
  0.3740   22.05211
  0.3760   21.94915
  0.3780   21.90034
  0.3800   21.86316
  0.3820   21.85962
  0.3840   21.90187
  0.3860   21.98754
  0.3880   22.12011
  0.3900   22.29949
  0.3920   22.52027
  0.3940   22.75381
  0.3960   23.00018
  0.3980   23.25759
  0.4000   23.50205
  0.4020   23.72207
  0.4040   23.91372
  0.4060   24.05893
  0.4080   24.17145
  0.4100   24.26336
  0.4120   24.33937
  0.4140   24.39517
  0.4160   24.40913
  0.4180   24.36777
  0.4200   24.23656
  0.4220   24.01121
  0.4240   23.69972
  0.4260   23.31533
  0.4280   22.90007
  0.4300   22.46233
  0.4320   22.01654
  0.4340   21.56048
  0.4360   21.07130
  0.4380   20.54787
  0.4400   20.00447
  0.4420   19.44981
  0.4440   18.90235
  0.4460   18.38426
  0.4480   17.90905
  0.4500   17.48130
  0.4520   17.09137
  0.4540   16.76717
  0.4560   16.48907
  0.4580   16.24977
  0.4600   16.03893
  0.4620   15.82116
  0.4640   15.57408
  0.4660   15.29495
  0.4680   15.00164
  0.4700   14.73159
  0.4720   14.49422
  0.4740   14.31858
  0.4760   14.19042
  0.4780   14.08947
  0.4800   13.98728
  0.4820   13.87347
  0.4840   13.74496
  0.4860   13.62957
  0.4880   13.53986
  0.4900   13.44671
  0.4920   13.35856
  0.4940   13.25008
  0.4960   13.11042
  0.4980   12.94107
  0.5000   12.76532
  0.5020   12.58221
  0.5040   12.37162
  0.5060   12.12426
  0.5080   11.81526
  0.5100   11.43796
  0.5120   11.01048
  0.5140   10.55580
  0.5160   10.08030
  0.5180    9.60402
  0.5200    9.13538
  0.5220    8.67925
  0.5240    8.23294
  0.5260    7.80568
  0.5280    7.39051
  0.5300    6.99330
  0.5320    6.62114
  0.5340    6.27484
  0.5360    5.95627
  0.5380    5.67152
  0.5400    5.40726
  0.5420    5.17050
  0.5440    4.95343
  0.5460    4.75997
  0.5480    4.58535
  0.5500    4.42589
  0.5520    4.27619
  0.5540    4.13175
  0.5560    3.98710
  0.5580    3.85189
  0.5600    3.72307
  0.5620    3.60810
  0.5640    3.49071
  0.5660    3.38976
  0.5680    3.29756
  0.5700    3.20549
  0.5720    3.09634
  0.5740    2.99674
  0.5760    2.88468
  0.5780    2.77572
  0.5800    2.66869
  0.5820    2.56075
  0.5840    2.45290
  0.5860    2.34260
  0.5880    2.22957
  0.5900    2.10830
  0.5920    1.97680
  0.5940    1.84563
  0.5960    1.69325
  0.5980    1.52751
  0.6000    1.35204
  0.6020    1.16809
  0.6040    0.98503
  0.6060    0.81309
  0.6080    0.65501
  0.6100    0.52012
  0.6120    0.40232
  0.6140    0.32161
  0.6160    0.25343
  0.6180    0.21519
  0.6200    0.19305
  0.6220    0.18410
  0.6240    0.19586
  0.6260    0.22270
  0.6280    0.25197
  0.6300    0.29212
  0.6320    0.34082
  0.6340    0.39668
  0.6360    0.46192
  0.6380    0.54321
  0.6400    0.64027
  0.6420    0.74991
  0.6440    0.86466
  0.6460    0.98589
  0.6480    1.10046
  0.6500    1.21066
  0.6520    1.31667
  0.6540    1.42174
  0.6560    1.52822
  0.6580    1.64095
  0.6600    1.75207
  0.6620    1.86573
  0.6640    1.97565
  0.6660    2.06034
  0.6680    2.14175
  0.6700    2.21345
  0.6720    2.28199
  0.6740    2.35255
  0.6760    2.41736
  0.6780    2.47254
  0.6800    2.52619
  0.6820    2.57854
  0.6840    2.61887
  0.6860    2.64797
  0.6880    2.67526
  0.6900    2.69656
  0.6920    2.71301
  0.6940    2.71298
  0.6960    2.70822
  0.6980    2.69627
  0.7000    2.68364
  0.7020    2.66500
  0.7040    2.65080
  0.7060    2.65027
  0.7080    2.65106
  0.7100    2.65732
  0.7120    2.66904
  0.7140    2.68369
  0.7160    2.70651
  0.7180    2.71881
  0.7200    2.72706
  0.7220    2.71431
  0.7240    2.69093
  0.7260    2.65128
  0.7280    2.59176
  0.7300    2.52847
  0.7320    2.45660
  0.7340    2.38116
  0.7360    2.30019
  0.7380    2.22203
  0.7400    2.15439
  0.7420    2.09233
  0.7440    2.03326
  0.7460    1.98415
  0.7480    1.93649
  0.7500    1.89932
  0.7520    1.85606
  0.7540    1.81299
  0.7560    1.76678
  0.7580    1.71177
  0.7600    1.64610
  0.7620    1.57826
  0.7640    1.49739
  0.7660    1.40858
  0.7680    1.31926
  0.7700    1.23145
  0.7720    1.15277
  0.7740    1.08444
  0.7760    1.03869
  0.7780    0.99711
  0.7800    0.96402
  0.7820    0.93559
  0.7840    0.89803
  0.7860    0.85779
  0.7880    0.80832
  0.7900    0.75367
  0.7920    0.69105
  0.7940    0.62833
  0.7960    0.56127
  0.7980    0.49884
  0.8000    0.43961
  0.8020    0.37102
  0.8040    0.30586
  0.8060    0.24458
  0.8080    0.18211
  0.8100    0.13051
  0.8120    0.08532
  0.8140    0.04910
  0.8160    0.02118
  0.8180   -0.00244
  0.8200   -0.02492
  0.8220   -0.04185
  0.8240   -0.05553
  0.8260   -0.06234
  0.8280   -0.07440
  0.8300   -0.08150
  0.8320   -0.09105
  0.8340   -0.12233
  0.8360   -0.16002
  0.8380   -0.20781
  0.8400   -0.25483
  0.8420   -0.29943
  0.8440   -0.33494
  0.8460   -0.36417
  0.8480   -0.38184
  0.8500   -0.38575
  0.8520   -0.37742
  0.8540   -0.35956
  0.8560   -0.33563
  0.8580   -0.30467
  0.8600   -0.26321
  0.8620   -0.22041
  0.8640   -0.18460
  0.8660   -0.16086
  0.8680   -0.14791
  0.8700   -0.15223
  0.8720   -0.17190
  0.8740   -0.21034
  0.8760   -0.25500
  0.8780   -0.30357
  0.8800   -0.35219
  0.8820   -0.38456
  0.8840   -0.39798
  0.8860   -0.39446
  0.8880   -0.37022
  0.8900   -0.32828
  0.8920   -0.28252
  0.8940   -0.23385
  0.8960   -0.19118
  0.8980   -0.16721
  0.9000   -0.16102
  0.9020   -0.17569
  0.9040   -0.20973
  0.9060   -0.25123
  0.9080   -0.30700
  0.9100   -0.35473
  0.9120   -0.39015
  0.9140   -0.40276
  0.9160   -0.40525
  0.9180   -0.40104
  0.9200   -0.38573
  0.9220   -0.36413
  0.9240   -0.33188
  0.9260   -0.30482
  0.9280   -0.27795
  0.9300   -0.24293
  0.9320   -0.19252
  0.9340   -0.11440
  0.9360   -0.01436
  0.9380    0.10690
  0.9400    0.20606
  0.9420    0.18015
  0.9440   -0.10538
  0.9460   -0.67828
  0.9480   -1.30076
  0.9500   -1.55380
  0.9520   -1.22695
  0.9540   -0.55970
  0.9560    0.01565
  0.9580    0.27955
  0.9600    0.26966
  0.9620    0.13094
  0.9640   -0.03449
  0.9660   -0.18762
  0.9680   -0.30775
  0.9700   -0.38430
  0.9720   -0.41697
  0.9740   -0.42250
  0.9760   -0.40552
  0.9780   -0.35645
  0.9800   -0.29316
  0.9820   -0.22724
  0.9840   -0.16454
  0.9860   -0.11075
  0.9880   -0.06344
  0.9900   -0.03065
  0.9920   -0.01248
  0.9940   -0.00677
  0.9960   -0.00579
  0.9980   -0.01660
  1.0000   -0.03045
  1.0020   -0.04923
  1.0040   -0.06498
  1.0060   -0.07076
  1.0080   -0.07310
  1.0100   -0.06295
  1.0120   -0.05341
  1.0140   -0.03768
  1.0160   -0.01717
  1.0180    0.00554
  1.0200    0.03056
  1.0220    0.05721
  1.0240    0.08661
  1.0260    0.11142
  1.0280    0.13506
  1.0300    0.15113
  1.0320    0.16944
  1.0340    0.17752
  1.0360    0.17798
  1.0380    0.17737
  1.0400    0.16054
  1.0420    0.14316
  1.0440    0.12103
  1.0460    0.10235
  1.0480    0.08437
  1.0500    0.07595
  1.0520    0.07469
  1.0540    0.08439
  1.0560    0.09819
  1.0580    0.12105
  1.0600    0.14616
  1.0620    0.16968
  1.0640    0.18895
  1.0660    0.19531
  1.0680    0.18574
  1.0700    0.17402
  1.0720    0.15810
  1.0740    0.13772
  1.0760    0.12051
  1.0780    0.10161
  1.0800    0.08355
  1.0820    0.06588
  1.0840    0.05531
  1.0860    0.05304
  1.0880    0.05751
  1.0900    0.05654
  1.0920    0.06034
  1.0940    0.06576
  1.0960    0.08234
  1.0980    0.08758
  1.1000    0.09555
  1.1020    0.10622
  1.1040    0.12050
  1.1060    0.13069
  1.1080    0.14267
  1.1100    0.15430
  1.1120    0.16339
  1.1140    0.17038
  1.1160    0.17249
  1.1180    0.17003
  1.1200    0.17224
  1.1220    0.17518
  1.1240    0.17520
  1.1260    0.16662
  1.1280    0.15742
  1.1300    0.15325
  1.1320    0.14660
  1.1340    0.14154
  1.1360    0.13883
  1.1380    0.13654
  1.1400    0.13554
  1.1420    0.13556
  1.1440    0.14268
  1.1460    0.14769
  1.1480    0.15180
  1.1500    0.16118
  1.1520    0.16974
  1.1540    0.17757
  1.1560    0.18395
  1.1580    0.18888
  1.1600    0.19760
  1.1620    0.19798
  1.1640    0.19916
  1.1660    0.20143
  1.1680    0.19665
  1.1700    0.19280
  1.1720    0.18695
  1.1740    0.18278
  1.1760    0.18285
  1.1780    0.18292
  1.1800    0.18464
  1.1820    0.18684
  1.1840    0.19332
  1.1860    0.19627
  1.1880    0.20209
  1.1900    0.20742
  1.1920    0.20420
  1.1940    0.20535
  1.1960    0.19755
  1.1980    0.19835
  1.2000    0.19643
