# z (nm)   (kJ/mol)
  0.1960  319.22418
  0.1980  316.46734
  0.2000  314.25477
  0.2020  311.56106
  0.2040  308.63849
  0.2060  305.79969
  0.2080  303.00715
  0.2100  302.57511
  0.2120  299.66403
  0.2140  296.65242
  0.2160  293.51680
  0.2180  290.20277
  0.2200  286.72102
  0.2220  283.06408
  0.2240  279.21843
  0.2260  275.18009
  0.2280  270.91757
  0.2300  266.40808
  0.2320  261.61624
  0.2340  256.49326
  0.2360  251.00646
  0.2380  245.14228
  0.2400  238.95725
  0.2420  232.56476
  0.2440  226.11850
  0.2460  219.75985
  0.2480  213.60697
  0.2500  207.74597
  0.2520  202.22955
  0.2540  197.06339
  0.2560  192.21811
  0.2580  187.65753
  0.2600  183.34355
  0.2620  179.24320
  0.2640  175.31245
  0.2660  171.48536
  0.2680  167.74069
  0.2700  164.08398
  0.2720  160.55522
  0.2740  157.16443
  0.2760  153.91177
  0.2780  150.81761
  0.2800  147.86550
  0.2820  145.04597
  0.2840  142.30100
  0.2860  139.58349
  0.2880  136.87991
  0.2900  134.20761
  0.2920  131.61051
  0.2940  129.12198
  0.2960  126.76429
  0.2980  124.52034
  0.3000  122.34481
  0.3020  120.18023
  0.3040  117.98621
  0.3060  115.74968
  0.3080  113.47411
  0.3100  111.19123
  0.3120  108.92950
  0.3140  106.71610
  0.3160  104.56157
  0.3180  102.47074
  0.3200  100.42283
  0.3220   98.42514
  0.3240   96.46313
  0.3260   94.56480
  0.3280   92.76053
  0.3300   91.07906
  0.3320   89.53183
  0.3340   88.10499
  0.3360   86.75147
  0.3380   85.43968
  0.3400   84.15501
  0.3420   82.91832
  0.3440   81.74583
  0.3460   80.65025
  0.3480   79.61457
  0.3500   78.58360
  0.3520   77.50670
  0.3540   76.35627
  0.3560   75.14320
  0.3580   73.92902
  0.3600   72.79390
  0.3620   71.80770
  0.3640   70.97999
  0.3660   70.26579
  0.3680   69.60891
  0.3700   68.92892
  0.3720   68.21207
  0.3740   67.44386
  0.3760   66.63419
  0.3780   65.78007
  0.3800   64.90948
  0.3820   64.05970
  0.3840   63.28825
  0.3860   62.61113
  0.3880   62.01555
  0.3900   61.46791
  0.3920   60.90014
  0.3940   60.29069
  0.3960   59.62416
  0.3980   58.92069
  0.4000   58.19470
  0.4020   57.46442
  0.4040   56.72769
  0.4060   56.00220
  0.4080   55.29098
  0.4100   54.59941
  0.4120   53.93918
  0.4140   53.30572
  0.4160   52.70604
  0.4180   52.12614
  0.4200   51.54480
  0.4220   50.93591
  0.4240   50.30309
  0.4260   49.63579
  0.4280   48.95091
  0.4300   48.25756
  0.4320   47.58660
  0.4340   46.94806
  0.4360   46.33893
  0.4380   45.75463
  0.4400   45.17377
  0.4420   44.60977
  0.4440   44.04304
  0.4460   43.46905
  0.4480   42.89632
  0.4500   42.33185
  0.4520   41.77372
  0.4540   41.24425
  0.4560   40.73919
  0.4580   40.26804
  0.4600   39.82902
  0.4620   39.41425
  0.4640   39.01214
  0.4660   38.62192
  0.4680   38.21978
  0.4700   37.81590
  0.4720   37.40747
  0.4740   37.01650
  0.4760   36.63102
  0.4780   36.24835
  0.4800   35.86144
  0.4820   35.45376
  0.4840   35.02304
  0.4860   34.53833
  0.4880   34.01779
  0.4900   33.46887
  0.4920   32.90200
  0.4940   32.32772
  0.4960   31.76305
  0.4980   31.20862
  0.5000   30.66858
  0.5020   30.12735
  0.5040   29.57132
  0.5060   29.00623
  0.5080   28.42860
  0.5100   27.84510
  0.5120   27.24952
  0.5140   26.65082
  0.5160   26.04652
  0.5180   25.44006
  0.5200   24.82503
  0.5220   24.21340
  0.5240   23.58832
  0.5260   22.96144
  0.5280   22.34412
  0.5300   21.74036
  0.5320   21.14422
  0.5340   20.54729
  0.5360   19.95662
  0.5380   19.35777
  0.5400   18.75558
  0.5420   18.14971
  0.5440   17.55207
  0.5460   16.96346
  0.5480   16.39392
  0.5500   15.84999
  0.5520   15.33777
  0.5540   14.84288
  0.5560   14.36832
  0.5580   13.90394
  0.5600   13.45176
  0.5620   13.01382
  0.5640   12.58669
  0.5660   12.16851
  0.5680   11.77006
  0.5700   11.39881
  0.5720   11.03560
  0.5740   10.69252
  0.5760   10.34847
  0.5780   10.00720
  0.5800    9.67157
  0.5820    9.33728
  0.5840    9.01003
  0.5860    8.70196
  0.5880    8.41673
  0.5900    8.15093
  0.5920    7.91166
  0.5940    7.69210
  0.5960    7.50339
  0.5980    7.32771
  0.6000    7.15844
  0.6020    6.99857
  0.6040    6.83236
  0.6060    6.65943
  0.6080    6.47361
  0.6100    6.29268
  0.6120    6.11393
  0.6140    5.94369
  0.6160    5.77458
  0.6180    5.61919
  0.6200    5.47150
  0.6220    5.34605
  0.6240    5.22986
  0.6260    5.12961
  0.6280    5.03841
  0.6300    4.95459
  0.6320    4.87405
  0.6340    4.79214
  0.6360    4.71430
  0.6380    4.63302
  0.6400    4.55499
  0.6420    4.47665
  0.6440    4.39987
  0.6460    4.32387
  0.6480    4.24752
  0.6500    4.17622
  0.6520    4.11178
  0.6540    4.04711
  0.6560    3.98349
  0.6580    3.91797
  0.6600    3.85251
  0.6620    3.78824
  0.6640    3.71682
  0.6660    3.65150
  0.6680    3.58289
  0.6700    3.52412
  0.6720    3.46939
  0.6740    3.42618
  0.6760    3.39285
  0.6780    3.36450
  0.6800    3.35760
  0.6820    3.35414
  0.6840    3.36973
  0.6860    3.39163
  0.6880    3.41182
  0.6900    3.43481
  0.6920    3.45793
  0.6940    3.47416
  0.6960    3.48074
  0.6980    3.48806
  0.7000    3.48154
  0.7020    3.46655
  0.7040    3.45569
  0.7060    3.44903
  0.7080    3.44167
  0.7100    3.43991
  0.7120    3.44558
  0.7140    3.45633
  0.7160    3.47867
  0.7180    3.50021
  0.7200    3.52561
  0.7220    3.56009
  0.7240    3.59951
  0.7260    3.63764
  0.7280    3.67509
  0.7300    3.70593
  0.7320    3.73256
  0.7340    3.76031
  0.7360    3.78088
  0.7380    3.79386
  0.7400    3.79753
  0.7420    3.79106
  0.7440    3.77878
  0.7460    3.75561
  0.7480    3.72681
  0.7500    3.70003
  0.7520    3.67233
  0.7540    3.64605
  0.7560    3.62006
  0.7580    3.59992
  0.7600    3.57657
  0.7620    3.55247
  0.7640    3.52936
  0.7660    3.50440
  0.7680    3.47036
  0.7700    3.43509
  0.7720    3.39766
  0.7740    3.35720
  0.7760    3.30279
  0.7780    3.23817
  0.7800    3.16579
  0.7820    3.08063
  0.7840    2.99315
  0.7860    2.89309
  0.7880    2.78625
  0.7900    2.66418
  0.7920    2.53669
  0.7940    2.40865
  0.7960    2.27767
  0.7980    2.15265
  0.8000    2.03589
  0.8020    1.92463
  0.8040    1.81623
  0.8060    1.71206
  0.8080    1.62121
  0.8100    1.52949
  0.8120    1.44237
  0.8140    1.35023
  0.8160    1.25874
  0.8180    1.16165
  0.8200    1.05614
  0.8220    0.94691
  0.8240    0.82985
  0.8260    0.71264
  0.8280    0.59565
  0.8300    0.48450
  0.8320    0.37481
  0.8340    0.26903
  0.8360    0.16988
  0.8380    0.08384
  0.8400    0.00477
  0.8420   -0.05836
  0.8440   -0.11642
  0.8460   -0.17012
  0.8480   -0.22195
  0.8500   -0.26956
  0.8520   -0.31725
  0.8540   -0.36376
  0.8560   -0.41647
  0.8580   -0.47140
  0.8600   -0.52706
  0.8620   -0.58038
  0.8640   -0.63708
  0.8660   -0.68745
  0.8680   -0.73398
  0.8700   -0.77341
  0.8720   -0.81226
  0.8740   -0.83895
  0.8760   -0.86317
  0.8780   -0.87896
  0.8800   -0.89800
  0.8820   -0.90906
  0.8840   -0.92809
  0.8860   -0.94653
  0.8880   -0.95883
  0.8900   -0.96297
  0.8920   -0.96431
  0.8940   -0.96720
  0.8960   -0.95739
  0.8980   -0.95574
  0.9000   -0.96127
  0.9020   -0.95973
  0.9040   -0.95399
  0.9060   -0.94457
  0.9080   -0.93537
  0.9100   -0.93104
  0.9120   -0.91912
  0.9140   -0.91133
  0.9160   -0.90158
  0.9180   -0.89028
  0.9200   -0.87963
  0.9220   -0.86605
  0.9240   -0.85054
  0.9260   -0.82817
  0.9280   -0.80362
  0.9300   -0.77370
  0.9320   -0.75020
  0.9340   -0.73059
  0.9360   -0.70066
  0.9380   -0.66958
  0.9400   -0.64021
  0.9420   -0.60595
  0.9440   -0.56653
  0.9460   -0.52927
  0.9480   -0.48975
  0.9500   -0.46033
  0.9520   -0.42927
  0.9540   -0.39892
  0.9560   -0.37410
  0.9580   -0.34184
  0.9600   -0.31853
  0.9620   -0.28762
  0.9640   -0.25561
  0.9660   -0.22323
  0.9680   -0.18790
  0.9700   -0.14877
  0.9720   -0.10752
  0.9740   -0.06971
  0.9760   -0.02696
  0.9780    0.01526
  0.9800    0.06060
  0.9820    0.09927
  0.9840    0.13688
  0.9860    0.17459
  0.9880    0.19733
  0.9900    0.21444
  0.9920    0.22166
  0.9940    0.22560
  0.9960    0.23266
  0.9980    0.23932
  1.0000    0.24502
  1.0020    0.26228
  1.0040    0.28540
  1.0060    0.31488
  1.0080    0.34844
  1.0100    0.39001
  1.0120    0.43346
  1.0140    0.47975
  1.0160    0.52613
  1.0180    0.56022
  1.0200    0.59292
  1.0220    0.62624
  1.0240    0.64824
  1.0260    0.66281
  1.0280    0.67197
  1.0300    0.66740
  1.0320    0.65875
  1.0340    0.64412
  1.0360    0.62970
  1.0380    0.61576
  1.0400    0.59965
  1.0420    0.58264
  1.0440    0.57075
  1.0460    0.55884
  1.0480    0.54428
  1.0500    0.52944
  1.0520    0.51442
  1.0540    0.50246
  1.0560    0.49497
  1.0580    0.48969
  1.0600    0.48588
  1.0620    0.48121
  1.0640    0.47724
  1.0660    0.47605
  1.0680    0.47024
  1.0700    0.46544
  1.0720    0.45649
  1.0740    0.45126
  1.0760    0.43850
  1.0780    0.42060
  1.0800    0.40202
  1.0820    0.38395
  1.0840    0.36471
  1.0860    0.34867
  1.0880    0.33394
  1.0900    0.32221
  1.0920    0.30857
  1.0940    0.29773
  1.0960    0.29240
  1.0980    0.27316
  1.1000    0.24556
  1.1020    0.22027
  1.1040    0.19506
  1.1060    0.16475
  1.1080    0.13140
  1.1100    0.09462
  1.1120    0.07059
  1.1140    0.04596
  1.1160    0.01990
  1.1180   -0.00042
  1.1200   -0.01259
  1.1220   -0.02137
  1.1240   -0.01619
  1.1260   -0.01394
  1.1280   -0.00386
  1.1300    0.01051
  1.1320    0.02586
  1.1340    0.03770
  1.1360    0.04872
  1.1380    0.05115
  1.1400    0.05261
  1.1420    0.04342
  1.1440    0.02155
  1.1460   -0.00245
  1.1480   -0.03593
  1.1500   -0.07571
  1.1520   -0.11012
  1.1540   -0.14213
  1.1560   -0.16910
  1.1580   -0.18867
  1.1600   -0.20118
  1.1620   -0.21139
  1.1640   -0.21712
  1.1660   -0.21765
  1.1680   -0.21583
  1.1700   -0.21100
  1.1720   -0.19873
  1.1740   -0.17729
  1.1760   -0.15640
  1.1780   -0.13198
  1.1800   -0.10285
  1.1820   -0.07895
  1.1840   -0.06027
  1.1860   -0.05161
  1.1880   -0.06216
  1.1900   -0.08430
  1.1920   -0.11741
  1.1940   -0.16283
  1.1960   -0.21105
  1.1980   -0.26589
  1.2000   -0.30804
