# PMF between COM of AARG and SiO2 slab.
# 
# PMF
# z (nm)   (kJ/mol)
  0.054000,316.475587
  0.058500,313.095882
  0.063000,310.369727
  0.067500,307.663219
  0.072000,305.112373
  0.076500,302.751605
  0.081000,300.318351
  0.085500,297.869655
  0.090000,295.336924
  0.094500,292.654852
  0.099000,289.782617
  0.103500,286.640052
  0.108000,283.150232
  0.112500,279.221933
  0.117000,274.757149
  0.121500,269.659332
  0.126000,263.881255
  0.130500,257.425307
  0.135000,250.301276
  0.139500,242.481772
  0.144000,233.962754
  0.148500,224.950780
  0.153000,215.812191
  0.157500,207.007521
  0.162000,198.954475
  0.166500,191.661095
  0.171000,184.641039
  0.175500,177.423371
  0.180000,170.069543
  0.184500,162.948709
  0.189000,156.193772
  0.193500,149.792483
  0.198000,143.683501
  0.202500,137.728316
  0.207000,131.825760
  0.211500,125.892242
  0.216000,119.976446
  0.220500,114.439682
  0.225000,109.461601
  0.229500,104.675459
  0.234000, 99.887443
  0.238500, 95.366628
  0.243000, 91.119729
  0.247500, 86.964502
  0.252000, 82.888994
  0.256500, 78.939761
  0.261000, 75.171867
  0.265500, 71.667421
  0.270000, 68.388136
  0.274500, 65.115483
  0.279000, 61.739924
  0.283500, 58.356914
  0.288000, 55.102982
  0.292500, 51.989866
  0.297000, 48.958598
  0.301500, 46.050081
  0.306000, 43.355471
  0.310500, 40.883907
  0.315000, 38.546694
  0.319500, 36.330396
  0.324000, 34.296809
  0.328500, 32.499834
  0.333000, 30.902220
  0.337500, 29.385904
  0.342000, 27.912474
  0.346500, 26.554332
  0.351000, 25.390859
  0.355500, 24.391663
  0.360000, 23.422262
  0.364500, 22.408025
  0.369000, 21.357923
  0.373500, 20.272084
  0.378000, 19.162118
  0.382500, 18.031643
  0.387000, 16.873080
  0.391500, 15.677601
  0.396000, 14.467502
  0.400500, 13.297513
  0.405000, 12.246362
  0.409500, 11.326443
  0.414000, 10.502462
  0.418500,  9.729150
  0.423000,  8.983328
  0.427500,  8.267225
  0.432000,  7.615989
  0.436500,  7.084576
  0.441000,  6.697782
  0.445500,  6.414884
  0.450000,  6.154367
  0.454500,  5.867231
  0.459000,  5.588405
  0.463500,  5.354382
  0.468000,  5.138387
  0.472500,  4.944265
  0.477000,  4.760191
  0.481500,  4.594212
  0.486000,  4.448733
  0.490500,  4.314340
  0.495000,  4.155099
  0.499500,  3.985318
  0.504000,  3.795746
  0.508500,  3.612944
  0.513000,  3.456649
  0.517500,  3.304083
  0.522000,  3.150304
  0.526500,  2.992926
  0.531000,  2.861544
  0.535500,  2.759296
  0.540000,  2.663114
  0.544500,  2.549820
  0.549000,  2.402110
  0.553500,  2.266389
  0.558000,  2.161318
  0.562500,  2.113455
  0.567000,  2.096577
  0.571500,  2.080559
  0.576000,  2.027804
  0.580500,  1.925250
  0.585000,  1.809180
  0.589500,  1.731223
  0.594000,  1.722575
  0.598500,  1.720268
  0.603000,  1.672199
  0.607500,  1.601859
  0.612000,  1.551223
  0.616500,  1.512899
  0.621000,  1.460570
  0.625500,  1.387271
  0.630000,  1.312002
  0.634500,  1.251782
  0.639000,  1.215079
  0.643500,  1.183499
  0.648000,  1.139014
  0.652500,  1.072428
  0.657000,  1.002224
  0.661500,  0.969378
  0.666000,  0.976604
  0.670500,  0.984020
  0.675000,  0.934349
  0.679500,  0.843411
  0.684000,  0.782796
  0.688500,  0.763194
  0.693000,  0.750858
  0.697500,  0.707106
  0.702000,  0.650826
  0.706500,  0.608289
  0.711000,  0.589072
  0.715500,  0.596252
  0.720000,  0.608413
  0.724500,  0.604390
  0.729000,  0.563623
  0.733500,  0.503111
  0.738000,  0.435475
  0.742500,  0.396625
  0.747000,  0.398056
  0.751500,  0.417967
  0.756000,  0.402627
  0.760500,  0.334605
  0.765000,  0.238253
  0.769500,  0.178309
  0.774000,  0.197575
  0.778500,  0.279142
  0.783000,  0.340205
  0.787500,  0.318465
  0.792000,  0.243216
  0.796500,  0.163454
  0.801000,  0.110951
  0.805500,  0.130689
  0.810000,  0.198735
  0.814500,  0.270793
  0.819000,  0.295000
  0.823500,  0.261842
  0.828000,  0.211794
  0.832500,  0.170180
  0.837000,  0.161741
  0.841500,  0.190733
  0.846000,  0.240676
  0.850500,  0.283308
  0.855000,  0.276271
  0.859500,  0.225933
  0.864000,  0.171982
  0.868500,  0.166212
  0.873000,  0.220208
  0.877500,  0.289267
  0.882000,  0.315122
  0.886500,  0.311143
  0.891000,  0.299356
  0.895500,  0.283368
  0.900000,  0.273525
  0.904500,  0.291216
  0.909000,  0.321029
  0.913500,  0.356070
  0.918000,  0.362500
  0.922500,  0.357800
  0.927000,  0.341685
  0.931500,  0.333289
  0.936000,  0.348291
  0.940500,  0.359461
  0.945000,  0.369344
  0.949500,  0.357518
  0.954000,  0.337206
  0.958500,  0.326281
  0.963000,  0.315966
  0.967500,  0.333068
  0.972000,  0.364967
  0.976500,  0.384526
  0.981000,  0.359569
  0.985500,  0.285271
  0.990000,  0.216460
  0.994500,  0.202486
  0.999000,  0.251091
  1.003500,  0.336164
  1.008000,  0.394693
  1.012500,  0.396229
  1.017000,  0.338147
  1.021500,  0.256234
  1.026000,  0.200711
  1.030500,  0.201666
  1.035000,  0.243269
  1.039500,  0.287147
  1.044000,  0.300151
  1.048500,  0.272243
  1.053000,  0.229627
  1.057500,  0.205471
  1.062000,  0.196711
  1.066500,  0.202504
  1.071000,  0.215846
  1.075500,  0.226598
  1.080000,  0.220985
  1.084500,  0.192062
  1.089000,  0.153926
  1.093500,  0.111199
  1.098000,  0.094218
  1.102500,  0.117520
  1.107000,  0.166909
  1.111500,  0.225389
  1.116000,  0.264852
  1.120500,  0.261321
  1.125000,  0.204819
  1.129500,  0.127388
  1.134000,  0.070922
  1.138500,  0.068053
  1.143000,  0.119012
  1.147500,  0.190706
  1.152000,  0.238723
  1.156500,  0.217020
  1.161000,  0.131592
  1.165500,  0.013172
  1.170000, -0.079424
  1.174500, -0.105059
  1.179000, -0.041932
  1.183500,  0.035603
  1.188000,  0.079374
  1.192500,  0.063444
  1.197000,  0.011089
  1.201500, -0.040481
  1.206000, -0.075586
  1.210500, -0.091603
  1.215000, -0.088939
  1.219500, -0.085100
  1.224000, -0.089299
  1.228500, -0.104211
  1.233000, -0.103676
  1.237500, -0.083789
  1.242000, -0.046472
  1.246500, -0.028299
  1.251000, -0.042128
  1.255500, -0.088359
  1.260000, -0.145483
  1.264500, -0.175567
  1.269000, -0.150602
  1.273500, -0.094956
  1.278000, -0.031564
  1.282500, -0.005594
  1.287000, -0.019494
  1.291500, -0.046646
  1.296000, -0.065158
  1.300500, -0.088894
  1.305000, -0.111999
  1.309500, -0.113567
  1.314000, -0.060686
  1.318500,  0.033777
  1.323000,  0.092918
  1.327500,  0.067354
  1.332000, -0.028643
  1.336500, -0.133284
  1.341000, -0.170661
  1.345500, -0.116439
  1.350000, -0.016104
  1.354500,  0.057401
  1.359000,  0.060385
  1.363500, -0.028146
  1.368000, -0.155650
  1.372500, -0.246916
  1.377000, -0.243590
  1.381500, -0.149983
  1.386000, -0.016453
  1.390500,  0.090223
  1.395000,  0.127644
  1.399500,  0.095640
  1.404000,  0.024980
  1.408500, -0.034401
  1.413000, -0.076785
  1.417500, -0.077794
  1.422000, -0.046615
  1.426500,  0.007020
  1.431000,  0.073361
  1.435500,  0.112107
  1.440000,  0.092857
  1.444500,  0.034274
  1.449000, -0.010585
  1.453500, -0.011980
  1.458000,  0.015118
  1.462500,  0.028453
  1.467000,  0.019240
  1.471500,  0.025077
  1.476000,  0.075402
  1.480500,  0.114378
  1.485000,  0.073407
  1.489500, -0.011538
  1.494000, -0.020476
  1.498500,  0.061343
