# #Autogenerated fromHID,HIE at pH: 7.4
# #h[nm],U[kJ/mol]
  0.022500,322.125244
  0.023500,321.551958
  0.024500,320.978672
  0.025500,320.405385
  0.026500,319.832099
  0.027500,319.273935
  0.028500,318.730893
  0.029500,318.187851
  0.030500,317.644809
  0.031500,317.101768
  0.032500,316.419337
  0.033500,315.736906
  0.034500,315.054475
  0.035500,314.372044
  0.036500,313.680995
  0.037500,312.981328
  0.038500,312.281661
  0.039500,311.581995
  0.040500,310.882328
  0.041500,310.240022
  0.042500,309.597717
  0.043500,308.955412
  0.044500,308.313106
  0.045500,307.686329
  0.046500,307.075078
  0.047500,306.463828
  0.048500,305.852578
  0.049500,305.241327
  0.050500,304.622490
  0.051500,304.003652
  0.052500,303.384815
  0.053500,302.765977
  0.054500,302.137444
  0.055500,301.499216
  0.056500,300.860987
  0.057500,300.222759
  0.058500,299.584530
  0.059500,298.912996
  0.060500,298.241462
  0.061500,297.569928
  0.062500,296.898395
  0.063500,296.205549
  0.064500,295.491393
  0.065500,294.777236
  0.066500,294.063079
  0.067500,293.348923
  0.068500,292.580520
  0.069500,291.812118
  0.070500,291.043716
  0.071500,290.275313
  0.072500,289.473175
  0.073500,288.637301
  0.074500,287.801427
  0.075500,286.965553
  0.076500,286.129679
  0.077500,285.212740
  0.078500,284.295801
  0.079500,283.378862
  0.080500,282.461923
  0.081500,281.495692
  0.082500,280.480171
  0.083500,279.464650
  0.084500,278.449129
  0.085500,277.433608
  0.086500,276.302553
  0.087500,275.171498
  0.088500,274.040442
  0.089500,272.909387
  0.090500,271.711498
  0.091500,270.446774
  0.092500,269.182050
  0.093500,267.917327
  0.094500,266.652603
  0.095500,265.237752
  0.096500,263.822902
  0.097500,262.408052
  0.098500,260.993201
  0.099500,259.496341
  0.100500,257.917472
  0.101500,256.338602
  0.102500,254.759732
  0.103500,253.180862
  0.104500,251.418507
  0.105500,249.656151
  0.106500,247.893795
  0.107500,246.131439
  0.108500,244.269058
  0.109500,242.306649
  0.110500,240.344241
  0.111500,238.381833
  0.112500,236.419425
  0.113500,234.286174
  0.114500,232.152924
  0.115500,230.019673
  0.116500,227.886422
  0.117500,225.725552
  0.118500,223.537061
  0.119500,221.348571
  0.120500,219.160080
  0.121500,216.971590
  0.122500,214.857999
  0.123500,212.744408
  0.124500,210.630817
  0.125500,208.517226
  0.126500,206.463895
  0.127500,204.470826
  0.128500,202.477757
  0.129500,200.484687
  0.130500,198.491618
  0.131500,196.615000
  0.132500,194.738381
  0.133500,192.861763
  0.134500,190.985145
  0.135500,189.165458
  0.136500,187.402701
  0.137500,185.639945
  0.138500,183.877188
  0.139500,182.114432
  0.140500,180.440308
  0.141500,178.766184
  0.142500,177.092060
  0.143500,175.417937
  0.144500,173.774499
  0.145500,172.161748
  0.146500,170.548998
  0.147500,168.936247
  0.148500,167.323496
  0.149500,165.790417
  0.150500,164.257338
  0.151500,162.724258
  0.152500,161.191179
  0.153500,159.701658
  0.154500,158.255694
  0.155500,156.809730
  0.156500,155.363767
  0.157500,153.917803
  0.158500,152.527546
  0.159500,151.137289
  0.160500,149.747032
  0.161500,148.356775
  0.162500,146.987974
  0.163500,145.640629
  0.164500,144.293285
  0.165500,142.945940
  0.166500,141.598596
  0.167500,140.303575
  0.168500,139.008553
  0.169500,137.713532
  0.170500,136.418511
  0.171500,135.151008
  0.172500,133.911023
  0.173500,132.671039
  0.174500,131.431054
  0.175500,130.191069
  0.176500,129.005916
  0.177500,127.820762
  0.178500,126.635608
  0.179500,125.450455
  0.180500,124.287360
  0.181500,123.146325
  0.182500,122.005290
  0.183500,120.864255
  0.184500,119.723220
  0.185500,118.631247
  0.186500,117.539275
  0.187500,116.447302
  0.188500,115.355330
  0.189500,114.294352
  0.190500,113.264368
  0.191500,112.234385
  0.192500,111.204401
  0.193500,110.174418
  0.194500,109.206147
  0.195500,108.237877
  0.196500,107.269606
  0.197500,106.301335
  0.198500,105.349794
  0.199500,104.414983
  0.200500,103.480172
  0.201500,102.545361
  0.202500,101.610550
  0.203500,100.682979
  0.204500, 99.755409
  0.205500, 98.827838
  0.206500, 97.900267
  0.207500, 96.988337
  0.208500, 96.092049
  0.209500, 95.195761
  0.210500, 94.299472
  0.211500, 93.403184
  0.212500, 92.585710
  0.213500, 91.768237
  0.214500, 90.950763
  0.215500, 90.133290
  0.216500, 89.359316
  0.217500, 88.628843
  0.218500, 87.898369
  0.219500, 87.167896
  0.220500, 86.437423
  0.221500, 85.751226
  0.222500, 85.065029
  0.223500, 84.378832
  0.224500, 83.692635
  0.225500, 83.010567
  0.226500, 82.332630
  0.227500, 81.654692
  0.228500, 80.976755
  0.229500, 80.298817
  0.230500, 79.639322
  0.231500, 78.979827
  0.232500, 78.320331
  0.233500, 77.660836
  0.234500, 77.024939
  0.235500, 76.412642
  0.236500, 75.800344
  0.237500, 75.188046
  0.238500, 74.575749
  0.239500, 74.031039
  0.240500, 73.486329
  0.241500, 72.941619
  0.242500, 72.396909
  0.243500, 71.882055
  0.244500, 71.397057
  0.245500, 70.912059
  0.246500, 70.427061
  0.247500, 69.942063
  0.248500, 69.493322
  0.249500, 69.044580
  0.250500, 68.595839
  0.251500, 68.147098
  0.252500, 67.707693
  0.253500, 67.277625
  0.254500, 66.847556
  0.255500, 66.417488
  0.256500, 65.987420
  0.257500, 65.583738
  0.258500, 65.180055
  0.259500, 64.776373
  0.260500, 64.372691
  0.261500, 63.981807
  0.262500, 63.603722
  0.263500, 63.225637
  0.264500, 62.847553
  0.265500, 62.469468
  0.266500, 62.100008
  0.267500, 61.730548
  0.268500, 61.361088
  0.269500, 60.991629
  0.270500, 60.624893
  0.271500, 60.260880
  0.272500, 59.896868
  0.273500, 59.532855
  0.274500, 59.168843
  0.275500, 58.829334
  0.276500, 58.489825
  0.277500, 58.150316
  0.278500, 57.810808
  0.279500, 57.481295
  0.280500, 57.161778
  0.281500, 56.842261
  0.282500, 56.522744
  0.283500, 56.203226
  0.284500, 55.885741
  0.285500, 55.568256
  0.286500, 55.250771
  0.287500, 54.933285
  0.288500, 54.614959
  0.289500, 54.295792
  0.290500, 53.976624
  0.291500, 53.657457
  0.292500, 53.338289
  0.293500, 53.018051
  0.294500, 52.697812
  0.295500, 52.377573
  0.296500, 52.057334
  0.297500, 51.730095
  0.298500, 51.395855
  0.299500, 51.061616
  0.300500, 50.727377
  0.301500, 50.393138
  0.302500, 50.035445
  0.303500, 49.677752
  0.304500, 49.320059
  0.305500, 48.962367
  0.306500, 48.590289
  0.307500, 48.203827
  0.308500, 47.817365
  0.309500, 47.430903
  0.310500, 47.044441
  0.311500, 46.630240
  0.312500, 46.216040
  0.313500, 45.801840
  0.314500, 45.387640
  0.315500, 44.959162
  0.316500, 44.516405
  0.317500, 44.073649
  0.318500, 43.630892
  0.319500, 43.188136
  0.320500, 42.706165
  0.321500, 42.224194
  0.322500, 41.742223
  0.323500, 41.260253
  0.324500, 40.763273
  0.325500, 40.251284
  0.326500, 39.739296
  0.327500, 39.227307
  0.328500, 38.715318
  0.329500, 38.186477
  0.330500, 37.657636
  0.331500, 37.128794
  0.332500, 36.599953
  0.333500, 36.064018
  0.334500, 35.520988
  0.335500, 34.977959
  0.336500, 34.434930
  0.337500, 33.891900
  0.338500, 33.328676
  0.339500, 32.765452
  0.340500, 32.202228
  0.341500, 31.639004
  0.342500, 31.070870
  0.343500, 30.497825
  0.344500, 29.924780
  0.345500, 29.351736
  0.346500, 28.778691
  0.347500, 28.214396
  0.348500, 27.650101
  0.349500, 27.085806
  0.350500, 26.521511
  0.351500, 25.973982
  0.352500, 25.443218
  0.353500, 24.912454
  0.354500, 24.381690
  0.355500, 23.850926
  0.356500, 23.366415
  0.357500, 22.881903
  0.358500, 22.397391
  0.359500, 21.912879
  0.360500, 21.451483
  0.361500, 21.013204
  0.362500, 20.574925
  0.363500, 20.136646
  0.364500, 19.698367
  0.365500, 19.299083
  0.366500, 18.899799
  0.367500, 18.500515
  0.368500, 18.101231
  0.369500, 17.718211
  0.370500, 17.351455
  0.371500, 16.984699
  0.372500, 16.617944
  0.373500, 16.251188
  0.374500, 15.911076
  0.375500, 15.570964
  0.376500, 15.230852
  0.377500, 14.890740
  0.378500, 14.565373
  0.379500, 14.254753
  0.380500, 13.944132
  0.381500, 13.633511
  0.382500, 13.322890
  0.383500, 13.044121
  0.384500, 12.765351
  0.385500, 12.486582
  0.386500, 12.207812
  0.387500, 11.946302
  0.388500, 11.702052
  0.389500, 11.457801
  0.390500, 11.213551
  0.391500, 10.969300
  0.392500, 10.753543
  0.393500, 10.537787
  0.394500, 10.322030
  0.395500, 10.106273
  0.396500,  9.901112
  0.397500,  9.706547
  0.398500,  9.511982
  0.399500,  9.317417
  0.400500,  9.122852
  0.401500,  8.943009
  0.402500,  8.763166
  0.403500,  8.583323
  0.404500,  8.403480
  0.405500,  8.229791
  0.406500,  8.062256
  0.407500,  7.894722
  0.408500,  7.727187
  0.409500,  7.559653
  0.410500,  7.404996
  0.411500,  7.250339
  0.412500,  7.095682
  0.413500,  6.941025
  0.414500,  6.793102
  0.415500,  6.651912
  0.416500,  6.510723
  0.417500,  6.369533
  0.418500,  6.228344
  0.419500,  6.100003
  0.420500,  5.971663
  0.421500,  5.843322
  0.422500,  5.714981
  0.423500,  5.590938
  0.424500,  5.471194
  0.425500,  5.351449
  0.426500,  5.231704
  0.427500,  5.111959
  0.428500,  4.996547
  0.429500,  4.881135
  0.430500,  4.765723
  0.431500,  4.650310
  0.432500,  4.537067
  0.433500,  4.425993
  0.434500,  4.314920
  0.435500,  4.203846
  0.436500,  4.092772
  0.437500,  3.993609
  0.438500,  3.894446
  0.439500,  3.795283
  0.440500,  3.696120
  0.441500,  3.603743
  0.442500,  3.518153
  0.443500,  3.432562
  0.444500,  3.346972
  0.445500,  3.261381
  0.446500,  3.186780
  0.447500,  3.112179
  0.448500,  3.037578
  0.449500,  2.962977
  0.450500,  2.889829
  0.451500,  2.818133
  0.452500,  2.746438
  0.453500,  2.674742
  0.454500,  2.603046
  0.455500,  2.531161
  0.456500,  2.459276
  0.457500,  2.387390
  0.458500,  2.315505
  0.459500,  2.244459
  0.460500,  2.174251
  0.461500,  2.104043
  0.462500,  2.033835
  0.463500,  1.963627
  0.464500,  1.898811
  0.465500,  1.833995
  0.466500,  1.769180
  0.467500,  1.704364
  0.468500,  1.641105
  0.469500,  1.579402
  0.470500,  1.517699
  0.471500,  1.455997
  0.472500,  1.394294
  0.473500,  1.334533
  0.474500,  1.274771
  0.475500,  1.215010
  0.476500,  1.155249
  0.477500,  1.097469
  0.478500,  1.041670
  0.479500,  0.985870
  0.480500,  0.930071
  0.481500,  0.874272
  0.482500,  0.828149
  0.483500,  0.782025
  0.484500,  0.735902
  0.485500,  0.689778
  0.486500,  0.650203
  0.487500,  0.617175
  0.488500,  0.584148
  0.489500,  0.551121
  0.490500,  0.518093
  0.491500,  0.495987
  0.492500,  0.473881
  0.493500,  0.451774
  0.494500,  0.429668
  0.495500,  0.409308
  0.496500,  0.390694
  0.497500,  0.372080
  0.498500,  0.353466
  0.499500,  0.334852
  0.500500,  0.308480
  0.501500,  0.282107
  0.502500,  0.255735
  0.503500,  0.229363
  0.504500,  0.199283
  0.505500,  0.165496
  0.506500,  0.131709
  0.507500,  0.097922
  0.508500,  0.064135
  0.509500,  0.031722
  0.510500, -0.000690
  0.511500, -0.033103
  0.512500, -0.065515
  0.513500, -0.093497
  0.514500, -0.117050
  0.515500, -0.140603
  0.516500, -0.164155
  0.517500, -0.187708
  0.518500, -0.196424
  0.519500, -0.205141
  0.520500, -0.213858
  0.521500, -0.222575
  0.522500, -0.222866
  0.523500, -0.214731
  0.524500, -0.206597
  0.525500, -0.198462
  0.526500, -0.190327
  0.527500, -0.174678
  0.528500, -0.159029
  0.529500, -0.143380
  0.530500, -0.127731
  0.531500, -0.112693
  0.532500, -0.098264
  0.533500, -0.083835
  0.534500, -0.069407
  0.535500, -0.054978
  0.536500, -0.050040
  0.537500, -0.045102
  0.538500, -0.040163
  0.539500, -0.035225
  0.540500, -0.033986
  0.541500, -0.036445
  0.542500, -0.038905
  0.543500, -0.041365
  0.544500, -0.043825
  0.545500, -0.051142
  0.546500, -0.058459
  0.547500, -0.065776
  0.548500, -0.073093
  0.549500, -0.078813
  0.550500, -0.082934
  0.551500, -0.087056
  0.552500, -0.091177
  0.553500, -0.095299
  0.554500, -0.091315
  0.555500, -0.087332
  0.556500, -0.083348
  0.557500, -0.079365
  0.558500, -0.071701
  0.559500, -0.060357
  0.560500, -0.049013
  0.561500, -0.037669
  0.562500, -0.026325
  0.563500, -0.012295
  0.564500,  0.001736
  0.565500,  0.015766
  0.566500,  0.029797
  0.567500,  0.042817
  0.568500,  0.054827
  0.569500,  0.066837
  0.570500,  0.078847
  0.571500,  0.090857
  0.572500,  0.098977
  0.573500,  0.107097
  0.574500,  0.115218
  0.575500,  0.123338
  0.576500,  0.129530
  0.577500,  0.133794
  0.578500,  0.138057
  0.579500,  0.142321
  0.580500,  0.146585
  0.581500,  0.149750
  0.582500,  0.152915
  0.583500,  0.156080
  0.584500,  0.159245
  0.585500,  0.162911
  0.586500,  0.167077
  0.587500,  0.171243
  0.588500,  0.175409
  0.589500,  0.179576
  0.590500,  0.184913
  0.591500,  0.190251
  0.592500,  0.195588
  0.593500,  0.200926
  0.594500,  0.205978
  0.595500,  0.210744
  0.596500,  0.215510
  0.597500,  0.220276
  0.598500,  0.225042
  0.599500,  0.227079
  0.600500,  0.229116
  0.601500,  0.231153
  0.602500,  0.233190
  0.603500,  0.234053
  0.604500,  0.233741
  0.605500,  0.233430
  0.606500,  0.233119
  0.607500,  0.232807
  0.608500,  0.233215
  0.609500,  0.233622
  0.610500,  0.234030
  0.611500,  0.234437
  0.612500,  0.236825
  0.613500,  0.241192
  0.614500,  0.245560
  0.615500,  0.249927
  0.616500,  0.254295
  0.617500,  0.262991
  0.618500,  0.271688
  0.619500,  0.280384
  0.620500,  0.289080
  0.621500,  0.299390
  0.622500,  0.311312
  0.623500,  0.323234
  0.624500,  0.335156
  0.625500,  0.347078
  0.626500,  0.359361
  0.627500,  0.371644
  0.628500,  0.383928
  0.629500,  0.396211
  0.630500,  0.406479
  0.631500,  0.414732
  0.632500,  0.422986
  0.633500,  0.431239
  0.634500,  0.439492
  0.635500,  0.440405
  0.636500,  0.441318
  0.637500,  0.442230
  0.638500,  0.443143
  0.639500,  0.441342
  0.640500,  0.436826
  0.641500,  0.432310
  0.642500,  0.427794
  0.643500,  0.423278
  0.644500,  0.414380
  0.645500,  0.405481
  0.646500,  0.396583
  0.647500,  0.387685
  0.648500,  0.377929
  0.649500,  0.367314
  0.650500,  0.356699
  0.651500,  0.346085
  0.652500,  0.335470
  0.653500,  0.329421
  0.654500,  0.323372
  0.655500,  0.317323
  0.656500,  0.311274
  0.657500,  0.305931
  0.658500,  0.301295
  0.659500,  0.296659
  0.660500,  0.292022
  0.661500,  0.287386
  0.662500,  0.283395
  0.663500,  0.279404
  0.664500,  0.275412
  0.665500,  0.271421
  0.666500,  0.267104
  0.667500,  0.262462
  0.668500,  0.257820
  0.669500,  0.253177
  0.670500,  0.248535
  0.671500,  0.242452
  0.672500,  0.236369
  0.673500,  0.230286
  0.674500,  0.224203
  0.675500,  0.217282
  0.676500,  0.209522
  0.677500,  0.201762
  0.678500,  0.194003
  0.679500,  0.186243
  0.680500,  0.180263
  0.681500,  0.174282
  0.682500,  0.168302
  0.683500,  0.162321
  0.684500,  0.157444
  0.685500,  0.153671
  0.686500,  0.149898
  0.687500,  0.146125
  0.688500,  0.142352
  0.689500,  0.137900
  0.690500,  0.133448
  0.691500,  0.128996
  0.692500,  0.124544
  0.693500,  0.119266
  0.694500,  0.113161
  0.695500,  0.107057
  0.696500,  0.100952
  0.697500,  0.094847
  0.698500,  0.084238
  0.699500,  0.073629
  0.700500,  0.063020
  0.701500,  0.052411
  0.702500,  0.041450
  0.703500,  0.030138
  0.704500,  0.018826
  0.705500,  0.007514
  0.706500, -0.003798
  0.707500, -0.014441
  0.708500, -0.025084
  0.709500, -0.035726
  0.710500, -0.046369
  0.711500, -0.055589
  0.712500, -0.063387
  0.713500, -0.071185
  0.714500, -0.078983
  0.715500, -0.086781
  0.716500, -0.091395
  0.717500, -0.096010
  0.718500, -0.100624
  0.719500, -0.105238
  0.720500, -0.108866
  0.721500, -0.111509
  0.722500, -0.114152
  0.723500, -0.116794
  0.724500, -0.119437
  0.725500, -0.120257
  0.726500, -0.121076
  0.727500, -0.121895
  0.728500, -0.122715
  0.729500, -0.124440
  0.730500, -0.127071
  0.731500, -0.129702
  0.732500, -0.132333
  0.733500, -0.134964
  0.734500, -0.142450
  0.735500, -0.149935
  0.736500, -0.157420
  0.737500, -0.164906
  0.738500, -0.174175
  0.739500, -0.185229
  0.740500, -0.196284
  0.741500, -0.207338
  0.742500, -0.218392
  0.743500, -0.229930
  0.744500, -0.241469
  0.745500, -0.253008
  0.746500, -0.264547
  0.747500, -0.274598
  0.748500, -0.283162
  0.749500, -0.291726
  0.750500, -0.300289
  0.751500, -0.308853
  0.752500, -0.313767
  0.753500, -0.318680
  0.754500, -0.323593
  0.755500, -0.328507
  0.756500, -0.331463
  0.757500, -0.332463
  0.758500, -0.333463
  0.759500, -0.334463
  0.760500, -0.335463
  0.761500, -0.332976
  0.762500, -0.330490
  0.763500, -0.328003
  0.764500, -0.325516
  0.765500, -0.322222
  0.766500, -0.318121
  0.767500, -0.314020
  0.768500, -0.309919
  0.769500, -0.305818
  0.770500, -0.304844
  0.771500, -0.303870
  0.772500, -0.302895
  0.773500, -0.301921
  0.774500, -0.303327
  0.775500, -0.307112
  0.776500, -0.310898
  0.777500, -0.314683
  0.778500, -0.318468
  0.779500, -0.326706
  0.780500, -0.334943
  0.781500, -0.343181
  0.782500, -0.351418
  0.783500, -0.358616
  0.784500, -0.364773
  0.785500, -0.370931
  0.786500, -0.377088
  0.787500, -0.383246
  0.788500, -0.385487
  0.789500, -0.387728
  0.790500, -0.389969
  0.791500, -0.392211
  0.792500, -0.391749
  0.793500, -0.388584
  0.794500, -0.385419
  0.795500, -0.382254
  0.796500, -0.379088
  0.797500, -0.373227
  0.798500, -0.367365
  0.799500, -0.361504
  0.800500, -0.355642
  0.801500, -0.349965
  0.802500, -0.344471
  0.803500, -0.338977
  0.804500, -0.333483
  0.805500, -0.327989
  0.806500, -0.326279
  0.807500, -0.324569
  0.808500, -0.322859
  0.809500, -0.321150
  0.810500, -0.322481
  0.811500, -0.326853
  0.812500, -0.331226
  0.813500, -0.335599
  0.814500, -0.339971
  0.815500, -0.346820
  0.816500, -0.353668
  0.817500, -0.360517
  0.818500, -0.367365
  0.819500, -0.373317
  0.820500, -0.378372
  0.821500, -0.383428
  0.822500, -0.388483
  0.823500, -0.393539
  0.824500, -0.394236
  0.825500, -0.394934
  0.826500, -0.395631
  0.827500, -0.396328
  0.828500, -0.393804
  0.829500, -0.388056
  0.830500, -0.382309
  0.831500, -0.376562
  0.832500, -0.370814
  0.833500, -0.364282
  0.834500, -0.357750
  0.835500, -0.351219
  0.836500, -0.344687
  0.837500, -0.338647
  0.838500, -0.333099
  0.839500, -0.327551
  0.840500, -0.322004
  0.841500, -0.316456
  0.842500, -0.312719
  0.843500, -0.308983
  0.844500, -0.305246
  0.845500, -0.301509
  0.846500, -0.297505
  0.847500, -0.293232
  0.848500, -0.288960
  0.849500, -0.284687
  0.850500, -0.280415
  0.851500, -0.275569
  0.852500, -0.270723
  0.853500, -0.265878
  0.854500, -0.261032
  0.855500, -0.256346
  0.856500, -0.251821
  0.857500, -0.247296
  0.858500, -0.242771
  0.859500, -0.238246
  0.860500, -0.237641
  0.861500, -0.237036
  0.862500, -0.236431
  0.863500, -0.235827
  0.864500, -0.237786
  0.865500, -0.242310
  0.866500, -0.246834
  0.867500, -0.251359
  0.868500, -0.255883
  0.869500, -0.259008
  0.870500, -0.262134
  0.871500, -0.265259
  0.872500, -0.268385
  0.873500, -0.269531
  0.874500, -0.268696
  0.875500, -0.267862
  0.876500, -0.267028
  0.877500, -0.266194
  0.878500, -0.259942
  0.879500, -0.253691
  0.880500, -0.247439
  0.881500, -0.241187
  0.882500, -0.233643
  0.883500, -0.224805
  0.884500, -0.215967
  0.885500, -0.207129
  0.886500, -0.198291
  0.887500, -0.193418
  0.888500, -0.188544
  0.889500, -0.183670
  0.890500, -0.178796
  0.891500, -0.176379
  0.892500, -0.176418
  0.893500, -0.176458
  0.894500, -0.176497
  0.895500, -0.176537
  0.896500, -0.180567
  0.897500, -0.184596
  0.898500, -0.188626
  0.899500, -0.192656
  0.900500, -0.196668
  0.901500, -0.200664
  0.902500, -0.204660
  0.903500, -0.208656
  0.904500, -0.212652
  0.905500, -0.213725
  0.906500, -0.214799
  0.907500, -0.215872
  0.908500, -0.216945
  0.909500, -0.216186
  0.910500, -0.213593
  0.911500, -0.211000
  0.912500, -0.208408
  0.913500, -0.205815
  0.914500, -0.200170
  0.915500, -0.194525
  0.916500, -0.188881
  0.917500, -0.183236
  0.918500, -0.178912
  0.919500, -0.175908
  0.920500, -0.172904
  0.921500, -0.169899
  0.922500, -0.166895
  0.923500, -0.164863
  0.924500, -0.162830
  0.925500, -0.160798
  0.926500, -0.158765
  0.927500, -0.157306
