# PMF between COM of AMET and SiO2 slab.
# 
# PMF
# z (nm)   (kJ/mol)
  0.004500,326.794286
  0.009000,323.386248
  0.013500,320.073260
  0.018000,317.325137
  0.022500,314.444677
  0.027000,311.744190
  0.031500,309.078625
  0.036000,306.428842
  0.040500,303.720590
  0.045000,300.884687
  0.049500,297.905482
  0.054000,294.722660
  0.058500,291.271169
  0.063000,287.468513
  0.067500,283.212618
  0.072000,278.370271
  0.076500,272.797526
  0.081000,266.378311
  0.085500,259.123282
  0.090000,251.224484
  0.094500,243.026123
  0.099000,234.907193
  0.103500,227.090580
  0.108000,219.546751
  0.112500,212.179717
  0.117000,205.073843
  0.121500,198.365858
  0.126000,192.005675
  0.130500,185.806688
  0.135000,179.658795
  0.139500,173.611990
  0.144000,167.772010
  0.148500,162.151523
  0.153000,156.699897
  0.157500,151.366947
  0.162000,146.183619
  0.166500,141.214275
  0.171000,136.491107
  0.175500,131.978525
  0.180000,127.586597
  0.184500,123.222007
  0.189000,118.876880
  0.193500,114.646442
  0.198000,110.675486
  0.202500,107.037363
  0.207000,103.677117
  0.211500,100.507618
  0.216000, 97.480779
  0.220500, 94.497627
  0.225000, 91.519719
  0.229500, 88.620989
  0.234000, 85.945477
  0.238500, 83.552450
  0.243000, 81.385517
  0.247500, 79.347242
  0.252000, 77.347493
  0.256500, 75.338984
  0.261000, 73.372469
  0.265500, 71.473086
  0.270000, 69.614454
  0.274500, 67.785872
  0.279000, 65.982775
  0.283500, 64.165773
  0.288000, 62.313048
  0.292500, 60.424655
  0.297000, 58.527378
  0.301500, 56.559466
  0.306000, 54.444503
  0.310500, 52.148454
  0.315000, 49.744146
  0.319500, 47.302109
  0.324000, 44.829984
  0.328500, 42.279966
  0.333000, 39.639018
  0.337500, 36.901444
  0.342000, 34.132920
  0.346500, 31.465175
  0.351000, 28.995315
  0.355500, 26.753288
  0.360000, 24.710397
  0.364500, 22.816782
  0.369000, 21.011958
  0.373500, 19.232200
  0.378000, 17.514012
  0.382500, 15.920232
  0.387000, 14.529046
  0.391500, 13.325706
  0.396000, 12.222829
  0.400500, 11.141544
  0.405000, 10.064948
  0.409500,  9.029120
  0.414000,  8.083101
  0.418500,  7.232105
  0.423000,  6.479008
  0.427500,  5.807893
  0.432000,  5.213957
  0.436500,  4.677865
  0.441000,  4.166604
  0.445500,  3.668412
  0.450000,  3.187403
  0.454500,  2.738669
  0.459000,  2.357572
  0.463500,  2.060519
  0.468000,  1.832304
  0.472500,  1.627556
  0.477000,  1.423237
  0.481500,  1.220043
  0.486000,  1.009825
  0.490500,  0.793601
  0.495000,  0.567108
  0.499500,  0.374465
  0.504000,  0.246401
  0.508500,  0.199656
  0.513000,  0.209101
  0.517500,  0.217769
  0.522000,  0.185924
  0.526500,  0.114573
  0.531000,  0.028151
  0.535500, -0.054450
  0.540000, -0.103592
  0.544500, -0.128993
  0.549000, -0.143625
  0.553500, -0.146492
  0.558000, -0.137258
  0.562500, -0.128383
  0.567000, -0.123454
  0.571500, -0.125981
  0.576000, -0.140579
  0.580500, -0.142367
  0.585000, -0.135935
  0.589500, -0.119698
  0.594000, -0.106684
  0.598500, -0.110847
  0.603000, -0.142455
  0.607500, -0.180524
  0.612000, -0.182243
  0.616500, -0.139558
  0.621000, -0.061959
  0.625500,  0.012279
  0.630000,  0.047747
  0.634500,  0.043509
  0.639000,  0.020053
  0.643500, -0.014071
  0.648000, -0.028977
  0.652500, -0.031108
  0.657000, -0.021591
  0.661500, -0.013580
  0.666000, -0.012481
  0.670500, -0.020516
  0.675000, -0.031708
  0.679500, -0.074676
  0.684000, -0.137148
  0.688500, -0.209179
  0.693000, -0.283579
  0.697500, -0.326816
  0.702000, -0.338904
  0.706500, -0.336967
  0.711000, -0.338244
  0.715500, -0.362332
  0.720000, -0.433066
  0.724500, -0.522390
  0.729000, -0.625603
  0.733500, -0.718015
  0.738000, -0.781882
  0.742500, -0.806539
  0.747000, -0.784729
  0.751500, -0.750296
  0.756000, -0.736973
  0.760500, -0.747488
  0.765000, -0.789254
  0.769500, -0.853689
  0.774000, -0.911265
  0.778500, -0.949332
  0.783000, -0.948295
  0.787500, -0.921620
  0.792000, -0.887658
  0.796500, -0.861511
  0.801000, -0.850517
  0.805500, -0.855602
  0.810000, -0.882006
  0.814500, -0.912553
  0.819000, -0.934166
  0.823500, -0.939105
  0.828000, -0.923651
  0.832500, -0.875756
  0.837000, -0.825191
  0.841500, -0.776802
  0.846000, -0.755181
  0.850500, -0.756175
  0.855000, -0.777995
  0.859500, -0.811024
  0.864000, -0.838522
  0.868500, -0.854803
  0.873000, -0.840517
  0.877500, -0.805254
  0.882000, -0.748366
  0.886500, -0.688338
  0.891000, -0.643162
  0.895500, -0.627410
  0.900000, -0.624570
  0.904500, -0.617567
  0.909000, -0.613549
  0.913500, -0.617243
  0.918000, -0.621881
  0.922500, -0.619770
  0.927000, -0.619111
  0.931500, -0.603717
  0.936000, -0.568765
  0.940500, -0.518619
  0.945000, -0.452193
  0.949500, -0.385022
  0.954000, -0.350756
  0.958500, -0.373323
  0.963000, -0.443597
  0.967500, -0.496653
  0.972000, -0.470088
  0.976500, -0.389731
  0.981000, -0.322208
  0.985500, -0.297973
  0.990000, -0.305560
  0.994500, -0.316087
  0.999000, -0.313904
  1.003500, -0.309099
  1.008000, -0.303498
  1.012500, -0.298637
  1.017000, -0.293718
  1.021500, -0.292671
  1.026000, -0.303015
  1.030500, -0.326885
  1.035000, -0.353657
  1.039500, -0.365848
  1.044000, -0.362150
  1.048500, -0.337215
  1.053000, -0.306695
  1.057500, -0.285411
  1.062000, -0.276889
  1.066500, -0.271180
  1.071000, -0.270378
  1.075500, -0.270088
  1.080000, -0.284306
  1.084500, -0.301936
  1.089000, -0.333184
  1.093500, -0.358498
  1.098000, -0.360092
  1.102500, -0.342956
  1.107000, -0.325161
  1.111500, -0.323434
  1.116000, -0.331334
  1.120500, -0.348903
  1.125000, -0.363915
  1.129500, -0.370147
  1.134000, -0.369810
  1.138500, -0.368514
  1.143000, -0.368975
  1.147500, -0.363627
  1.152000, -0.342893
  1.156500, -0.318360
  1.161000, -0.291640
  1.165500, -0.280879
  1.170000, -0.282107
  1.174500, -0.294441
  1.179000, -0.300013
  1.183500, -0.296599
  1.188000, -0.279622
  1.192500, -0.256629
  1.197000, -0.230447
  1.201500, -0.221526
  1.206000, -0.211947
  1.210500, -0.206419
  1.215000, -0.189420
  1.219500, -0.175244
  1.224000, -0.165326
  1.228500, -0.160614
  1.233000, -0.175491
  1.237500, -0.190224
  1.242000, -0.189922
  1.246500, -0.161226
  1.251000, -0.116028
  1.255500, -0.072116
  1.260000, -0.040343
  1.264500, -0.037758
  1.269000, -0.056029
  1.273500, -0.085622
  1.278000, -0.097763
  1.282500, -0.093537
  1.287000, -0.078290
  1.291500, -0.059730
  1.296000, -0.049421
  1.300500, -0.034536
  1.305000, -0.006168
  1.309500,  0.025580
  1.314000,  0.049968
  1.318500,  0.044625
  1.323000,  0.021089
  1.327500, -0.021653
  1.332000, -0.076861
  1.336500, -0.132480
  1.341000, -0.167440
  1.345500, -0.170790
  1.350000, -0.138091
  1.354500, -0.085761
  1.359000, -0.018431
  1.363500,  0.023808
  1.368000,  0.033283
  1.372500,  0.012067
  1.377000, -0.021525
  1.381500, -0.051267
  1.386000, -0.066056
  1.390500, -0.056920
  1.395000, -0.036474
  1.399500, -0.021356
  1.404000, -0.010117
  1.408500, -0.001443
  1.413000,  0.006274
  1.417500,  0.024902
  1.422000,  0.050192
  1.426500,  0.062553
  1.431000,  0.065824
  1.435500,  0.054254
  1.440000,  0.031204
  1.444500,  0.004931
  1.449000, -0.022861
  1.453500, -0.046507
  1.458000, -0.069158
  1.462500, -0.075540
  1.467000, -0.065306
  1.471500, -0.039917
  1.476000, -0.011920
  1.480500,  0.023116
  1.485000,  0.054478
  1.489500,  0.080539
  1.494000,  0.093648
  1.498500,  0.079485
