# z (nm)   (kJ/mol)
  0.379000, 19.411400
  0.381000, 19.070700
  0.383000, 18.748500
  0.385000, 18.444900
  0.387000, 18.111800
  0.389000, 17.763000
  0.391000, 17.421700
  0.393000, 17.072500
  0.395000, 16.712400
  0.397000, 16.347600
  0.399000, 15.970100
  0.401000, 15.588500
  0.403000, 15.205800
  0.405000, 14.820300
  0.407000, 14.438200
  0.409000, 14.051600
  0.411000, 13.657900
  0.413000, 13.262400
  0.415000, 12.871400
  0.417000, 12.476900
  0.419000, 12.079900
  0.421000, 11.684900
  0.423000, 11.286900
  0.425000, 10.892300
  0.427000, 10.508400
  0.429000, 10.128400
  0.431000,  9.747800
  0.433000,  9.370900
  0.435000,  9.001100
  0.437000,  8.634000
  0.439000,  8.273500
  0.441000,  7.922500
  0.443000,  7.578700
  0.445000,  7.243100
  0.447000,  6.914100
  0.449000,  6.591100
  0.451000,  6.280000
  0.453000,  5.977100
  0.455000,  5.680300
  0.457000,  5.395300
  0.459000,  5.120700
  0.461000,  4.852900
  0.463000,  4.588700
  0.465000,  4.329600
  0.467000,  4.080300
  0.469000,  3.841600
  0.471000,  3.610700
  0.473000,  3.384700
  0.475000,  3.165300
  0.477000,  2.954600
  0.479000,  2.751800
  0.481000,  2.555200
  0.483000,  2.367800
  0.485000,  2.190200
  0.487000,  2.019200
  0.489000,  1.854300
  0.491000,  1.697400
  0.493000,  1.549200
  0.495000,  1.408000
  0.497000,  1.272900
  0.499000,  1.144800
  0.501000,  1.023900
  0.503000,  0.909100
  0.505000,  0.800900
  0.507000,  0.699600
  0.509000,  0.604500
  0.511000,  0.515600
  0.513000,  0.433200
  0.515000,  0.357200
  0.517000,  0.286600
  0.519000,  0.221800
  0.521000,  0.162400
  0.523000,  0.108800
  0.525000,  0.060800
  0.527000,  0.017600
  0.529000, -0.021600
  0.531000, -0.056100
  0.533000, -0.086400
  0.535000, -0.113200
  0.537000, -0.136200
  0.539000, -0.156200
  0.541000, -0.173400
  0.543000, -0.188000
  0.545000, -0.199000
  0.547000, -0.207600
  0.549000, -0.215000
  0.551000, -0.220500
  0.553000, -0.223500
  0.555000, -0.224800
  0.557000, -0.225600
  0.559000, -0.225500
  0.561000, -0.224000
  0.563000, -0.221900
  0.565000, -0.219800
  0.567000, -0.217900
  0.569000, -0.216300
  0.571000, -0.214400
  0.573000, -0.212200
  0.575000, -0.210600
  0.577000, -0.209700
  0.579000, -0.209100
  0.581000, -0.209300
  0.583000, -0.210400
  0.585000, -0.211900
  0.587000, -0.214400
  0.589000, -0.218300
  0.591000, -0.222900
  0.593000, -0.228300
  0.595000, -0.234900
  0.597000, -0.242400
  0.599000, -0.250600
  0.601000, -0.259500
  0.603000, -0.269400
  0.605000, -0.280200
  0.607000, -0.291800
  0.609000, -0.303900
  0.611000, -0.316900
  0.613000, -0.330500
  0.615000, -0.344500
  0.617000, -0.358900
  0.619000, -0.373700
  0.621000, -0.388800
  0.623000, -0.404200
  0.625000, -0.419800
  0.627000, -0.435400
  0.629000, -0.451100
  0.631000, -0.466600
  0.633000, -0.482000
  0.635000, -0.497200
  0.637000, -0.512200
  0.639000, -0.526900
  0.641000, -0.541200
  0.643000, -0.555000
  0.645000, -0.568400
  0.647000, -0.581100
  0.649000, -0.593100
  0.651000, -0.604400
  0.653000, -0.615200
  0.655000, -0.625100
  0.657000, -0.634400
  0.659000, -0.643100
  0.661000, -0.650800
  0.663000, -0.657700
  0.665000, -0.663700
  0.667000, -0.668900
  0.669000, -0.673300
  0.671000, -0.677000
  0.673000, -0.679800
  0.675000, -0.681700
  0.677000, -0.683000
  0.679000, -0.683600
  0.681000, -0.683500
  0.683000, -0.682600
  0.685000, -0.681000
  0.687000, -0.678900
  0.689000, -0.676100
  0.691000, -0.672800
  0.693000, -0.669100
  0.695000, -0.665000
  0.697000, -0.660500
  0.699000, -0.655500
  0.701000, -0.650300
  0.703000, -0.645000
  0.705000, -0.639300
  0.707000, -0.633600
  0.709000, -0.627800
  0.711000, -0.621800
  0.713000, -0.615900
  0.715000, -0.610000
  0.717000, -0.604000
  0.719000, -0.598200
  0.721000, -0.592600
  0.723000, -0.587300
  0.725000, -0.582100
  0.727000, -0.577100
  0.729000, -0.572400
  0.731000, -0.567900
  0.733000, -0.563700
  0.735000, -0.559800
  0.737000, -0.556400
  0.739000, -0.553400
  0.741000, -0.550700
  0.743000, -0.548300
  0.745000, -0.546200
  0.747000, -0.544500
  0.749000, -0.543200
  0.751000, -0.542400
  0.753000, -0.541800
  0.755000, -0.541400
  0.757000, -0.541400
  0.759000, -0.541800
  0.761000, -0.542500
  0.763000, -0.543400
  0.765000, -0.544500
  0.767000, -0.545800
  0.769000, -0.547100
  0.771000, -0.548700
  0.773000, -0.550500
  0.775000, -0.552400
  0.777000, -0.554400
  0.779000, -0.556400
  0.781000, -0.558500
  0.783000, -0.560500
  0.785000, -0.562600
  0.787000, -0.564600
  0.789000, -0.566500
  0.791000, -0.568200
  0.793000, -0.569800
  0.795000, -0.571300
  0.797000, -0.572600
  0.799000, -0.573800
  0.801000, -0.574700
  0.803000, -0.575400
  0.805000, -0.575800
  0.807000, -0.575800
  0.809000, -0.575600
  0.811000, -0.575100
  0.813000, -0.574400
  0.815000, -0.573400
  0.817000, -0.572100
  0.819000, -0.570400
  0.821000, -0.568400
  0.823000, -0.566000
  0.825000, -0.563300
  0.827000, -0.560200
  0.829000, -0.556900
  0.831000, -0.553300
  0.833000, -0.549300
  0.835000, -0.545000
  0.837000, -0.540500
  0.839000, -0.535700
  0.841000, -0.530600
  0.843000, -0.525200
  0.845000, -0.519400
  0.847000, -0.513400
  0.849000, -0.507400
  0.851000, -0.501000
  0.853000, -0.494500
  0.855000, -0.487900
  0.857000, -0.481100
  0.859000, -0.474000
  0.861000, -0.466800
  0.863000, -0.459600
  0.865000, -0.452100
  0.867000, -0.444600
  0.869000, -0.437000
  0.871000, -0.429300
  0.873000, -0.421700
  0.875000, -0.414000
  0.877000, -0.406400
  0.879000, -0.398700
  0.881000, -0.390800
  0.883000, -0.383000
  0.885000, -0.375500
  0.887000, -0.367900
  0.889000, -0.360400
  0.891000, -0.352900
  0.893000, -0.345600
  0.895000, -0.338500
  0.897000, -0.331500
  0.899000, -0.324600
  0.901000, -0.317800
  0.903000, -0.311100
  0.905000, -0.304400
  0.907000, -0.298000
  0.909000, -0.291700
  0.911000, -0.285500
  0.913000, -0.279500
  0.915000, -0.273600
  0.917000, -0.267700
  0.919000, -0.262000
  0.921000, -0.256500
  0.923000, -0.251100
  0.925000, -0.245900
  0.927000, -0.240800
  0.929000, -0.235900
  0.931000, -0.231200
  0.933000, -0.226500
  0.935000, -0.222000
  0.937000, -0.217500
  0.939000, -0.213100
  0.941000, -0.208800
  0.943000, -0.204600
  0.945000, -0.200600
  0.947000, -0.196600
  0.949000, -0.192700
  0.951000, -0.188800
  0.953000, -0.184900
  0.955000, -0.181300
  0.957000, -0.177900
  0.959000, -0.174600
  0.961000, -0.171300
  0.963000, -0.168100
  0.965000, -0.164900
  0.967000, -0.161800
  0.969000, -0.159000
  0.971000, -0.156100
  0.973000, -0.153300
  0.975000, -0.150600
  0.977000, -0.147900
  0.979000, -0.145400
  0.981000, -0.143100
  0.983000, -0.140900
  0.985000, -0.139000
  0.987000, -0.137100
  0.989000, -0.135400
  0.991000, -0.133800
  0.993000, -0.132200
  0.995000, -0.130900
  0.997000, -0.129800
  0.999000, -0.128900
  1.001000, -0.128100
  1.003000, -0.127400
  1.005000, -0.126800
  1.007000, -0.126600
  1.009000, -0.126500
  1.011000, -0.126500
  1.013000, -0.126600
  1.015000, -0.127000
  1.017000, -0.127400
  1.019000, -0.128000
  1.021000, -0.128700
  1.023000, -0.129500
  1.025000, -0.130500
  1.027000, -0.131500
  1.029000, -0.132800
  1.031000, -0.134200
  1.033000, -0.135600
  1.035000, -0.137000
  1.037000, -0.138400
  1.039000, -0.139800
  1.041000, -0.141400
  1.043000, -0.142900
  1.045000, -0.144400
  1.047000, -0.145900
  1.049000, -0.147400
  1.051000, -0.148900
  1.053000, -0.150300
  1.055000, -0.151600
  1.057000, -0.152900
  1.059000, -0.154000
  1.061000, -0.154900
  1.063000, -0.155800
  1.065000, -0.156500
  1.067000, -0.157000
  1.069000, -0.157500
  1.071000, -0.157800
  1.073000, -0.158000
  1.075000, -0.157900
  1.077000, -0.157500
  1.079000, -0.156900
  1.081000, -0.156200
  1.083000, -0.155200
  1.085000, -0.154100
  1.087000, -0.152800
  1.089000, -0.151200
  1.091000, -0.149400
  1.093000, -0.147300
  1.095000, -0.145100
  1.097000, -0.142600
  1.099000, -0.140000
  1.101000, -0.137200
  1.103000, -0.134200
  1.105000, -0.131000
  1.107000, -0.127600
  1.109000, -0.124100
  1.111000, -0.120400
  1.113000, -0.116600
  1.115000, -0.112700
  1.117000, -0.108600
  1.119000, -0.104400
  1.121000, -0.100300
  1.123000, -0.095900
  1.125000, -0.091500
  1.127000, -0.087100
  1.129000, -0.082600
  1.131000, -0.077900
  1.133000, -0.073200
  1.135000, -0.068500
  1.137000, -0.063900
  1.139000, -0.059200
  1.141000, -0.054600
  1.143000, -0.050000
  1.145000, -0.045600
  1.147000, -0.041100
  1.149000, -0.036700
  1.151000, -0.032500
  1.153000, -0.028300
  1.155000, -0.024200
  1.157000, -0.020200
  1.159000, -0.016300
  1.161000, -0.012700
  1.163000, -0.009200
  1.165000, -0.005900
  1.167000, -0.002700
  1.169000,  0.000300
  1.171000,  0.003200
  1.173000,  0.005900
  1.175000,  0.008500
  1.177000,  0.010900
  1.179000,  0.013100
  1.181000,  0.015000
  1.183000,  0.016800
  1.185000,  0.018500
  1.187000,  0.020000
  1.189000,  0.021300
  1.191000,  0.022400
  1.193000,  0.023300
  1.195000,  0.024100
  1.197000,  0.024600
  1.199000,  0.025100
  1.201000,  0.025400
  1.203000,  0.025500
  1.205000,  0.025400
  1.207000,  0.025300
  1.209000,  0.025000
  1.211000,  0.024700
  1.213000,  0.024200
  1.215000,  0.023500
  1.217000,  0.022800
  1.219000,  0.021900
  1.221000,  0.020900
  1.223000,  0.020000
  1.225000,  0.019100
  1.227000,  0.017900
  1.229000,  0.016600
  1.231000,  0.015300
  1.233000,  0.014000
  1.235000,  0.012600
  1.237000,  0.011200
  1.239000,  0.009700
  1.241000,  0.008100
  1.243000,  0.006700
  1.245000,  0.005300
  1.247000,  0.003900
  1.249000,  0.002500
  1.251000,  0.001000
  1.253000, -0.000500
  1.255000, -0.001800
  1.257000, -0.003200
  1.259000, -0.004500
  1.261000, -0.005700
  1.263000, -0.007100
  1.265000, -0.008300
  1.267000, -0.009400
  1.269000, -0.010500
  1.271000, -0.011700
  1.273000, -0.012800
  1.275000, -0.013700
  1.277000, -0.014600
  1.279000, -0.015600
  1.281000, -0.016400
  1.283000, -0.017100
  1.285000, -0.017900
  1.287000, -0.018700
  1.289000, -0.019500
  1.291000, -0.020300
  1.293000, -0.020900
  1.295000, -0.021500
  1.297000, -0.022200
  1.299000, -0.022700
  1.301000, -0.023200
  1.303000, -0.023600
  1.305000, -0.024000
  1.307000, -0.024300
  1.309000, -0.024600
  1.311000, -0.024900
  1.313000, -0.025100
  1.315000, -0.025200
  1.317000, -0.025300
  1.319000, -0.025400
  1.321000, -0.025500
  1.323000, -0.025400
  1.325000, -0.025100
  1.327000, -0.024800
  1.329000, -0.024400
  1.331000, -0.023800
  1.333000, -0.023100
  1.335000, -0.022400
  1.337000, -0.021600
  1.339000, -0.020800
  1.341000, -0.019700
  1.343000, -0.018500
  1.345000, -0.017300
  1.347000, -0.015900
  1.349000, -0.014300
  1.351000, -0.012600
  1.353000, -0.010900
  1.355000, -0.009000
  1.357000, -0.007000
  1.359000, -0.004800
  1.361000, -0.002500
  1.363000, -0.000100
  1.365000,  0.002500
  1.367000,  0.005200
  1.369000,  0.008200
  1.371000,  0.011300
  1.373000,  0.014400
  1.375000,  0.017500
  1.377000,  0.020700
  1.379000,  0.023900
  1.381000,  0.027300
  1.383000,  0.030800
  1.385000,  0.034100
  1.387000,  0.037300
  1.389000,  0.040500
  1.391000,  0.043600
  1.393000,  0.046600
  1.395000,  0.049300
  1.397000,  0.051700
  1.399000,  0.053700
