# z (nm)   (kJ/mol)
  0.381000, 18.011700
  0.385000, 17.308900
  0.387000, 16.983100
  0.389000, 16.595900
  0.391000, 16.205000
  0.393000, 15.817900
  0.395000, 15.446600
  0.397000, 15.095400
  0.399000, 14.720300
  0.401000, 14.332800
  0.403000, 13.942800
  0.405000, 13.544300
  0.407000, 13.153800
  0.409000, 12.771200
  0.411000, 12.391200
  0.413000, 12.014300
  0.415000, 11.634800
  0.417000, 11.254100
  0.419000, 10.882400
  0.421000, 10.520500
  0.423000, 10.164300
  0.425000,  9.807800
  0.427000,  9.459600
  0.429000,  9.118500
  0.431000,  8.781900
  0.433000,  8.455500
  0.435000,  8.135100
  0.437000,  7.820500
  0.439000,  7.513400
  0.441000,  7.211900
  0.443000,  6.916700
  0.445000,  6.629000
  0.447000,  6.352200
  0.449000,  6.082300
  0.451000,  5.816800
  0.453000,  5.559500
  0.455000,  5.312100
  0.457000,  5.069100
  0.459000,  4.828400
  0.461000,  4.596500
  0.463000,  4.372700
  0.465000,  4.153800
  0.467000,  3.943300
  0.469000,  3.740300
  0.471000,  3.541800
  0.473000,  3.349100
  0.475000,  3.161400
  0.477000,  2.979600
  0.479000,  2.804600
  0.481000,  2.634500
  0.483000,  2.469400
  0.485000,  2.310800
  0.487000,  2.156600
  0.489000,  2.007500
  0.491000,  1.865000
  0.493000,  1.727000
  0.495000,  1.593400
  0.497000,  1.464400
  0.499000,  1.340500
  0.501000,  1.221400
  0.503000,  1.107100
  0.505000,  0.998000
  0.507000,  0.893400
  0.509000,  0.792500
  0.511000,  0.696800
  0.513000,  0.605600
  0.515000,  0.518400
  0.517000,  0.435900
  0.519000,  0.357600
  0.521000,  0.283000
  0.523000,  0.211900
  0.525000,  0.145300
  0.527000,  0.082300
  0.529000,  0.022800
  0.531000, -0.033200
  0.533000, -0.085600
  0.535000, -0.133700
  0.537000, -0.178400
  0.539000, -0.219600
  0.541000, -0.257500
  0.543000, -0.293000
  0.545000, -0.325800
  0.547000, -0.355800
  0.549000, -0.382800
  0.551000, -0.406500
  0.553000, -0.427100
  0.555000, -0.445500
  0.557000, -0.461800
  0.559000, -0.475000
  0.561000, -0.486100
  0.563000, -0.495200
  0.565000, -0.502400
  0.567000, -0.507600
  0.569000, -0.510800
  0.571000, -0.511900
  0.573000, -0.511100
  0.575000, -0.508800
  0.577000, -0.504900
  0.579000, -0.499800
  0.581000, -0.493400
  0.583000, -0.485400
  0.585000, -0.476100
  0.587000, -0.465900
  0.589000, -0.455000
  0.591000, -0.443200
  0.593000, -0.430500
  0.595000, -0.416800
  0.597000, -0.402100
  0.599000, -0.386800
  0.601000, -0.371200
  0.603000, -0.355100
  0.605000, -0.338400
  0.607000, -0.321300
  0.609000, -0.304100
  0.611000, -0.286600
  0.613000, -0.269100
  0.615000, -0.251800
  0.617000, -0.234200
  0.619000, -0.216800
  0.621000, -0.199700
  0.623000, -0.182500
  0.625000, -0.165500
  0.627000, -0.148800
  0.629000, -0.132400
  0.631000, -0.116400
  0.633000, -0.100700
  0.635000, -0.085400
  0.637000, -0.070500
  0.639000, -0.055900
  0.641000, -0.042000
  0.643000, -0.028600
  0.645000, -0.015700
  0.647000, -0.003300
  0.649000,  0.008500
  0.651000,  0.019800
  0.653000,  0.030600
  0.655000,  0.040900
  0.657000,  0.050400
  0.659000,  0.059300
  0.661000,  0.067600
  0.663000,  0.075400
  0.665000,  0.082800
  0.667000,  0.089700
  0.669000,  0.095900
  0.671000,  0.101600
  0.673000,  0.106600
  0.675000,  0.111100
  0.677000,  0.115200
  0.679000,  0.118800
  0.681000,  0.121900
  0.683000,  0.124500
  0.685000,  0.126600
  0.687000,  0.128000
  0.689000,  0.129000
  0.691000,  0.129600
  0.693000,  0.129800
  0.695000,  0.129500
  0.697000,  0.128900
  0.699000,  0.127900
  0.701000,  0.126400
  0.703000,  0.124700
  0.705000,  0.122700
  0.707000,  0.120400
  0.709000,  0.117800
  0.711000,  0.114700
  0.713000,  0.111400
  0.715000,  0.107900
  0.717000,  0.104200
  0.719000,  0.100400
  0.721000,  0.096300
  0.723000,  0.092000
  0.725000,  0.087600
  0.727000,  0.083100
  0.729000,  0.078400
  0.731000,  0.073600
  0.733000,  0.068700
  0.735000,  0.063800
  0.737000,  0.058800
  0.739000,  0.053800
  0.741000,  0.048700
  0.743000,  0.043800
  0.745000,  0.038900
  0.747000,  0.033900
  0.749000,  0.028900
  0.751000,  0.024000
  0.753000,  0.019200
  0.755000,  0.014700
  0.757000,  0.010100
  0.759000,  0.005700
  0.761000,  0.001400
  0.763000, -0.002800
  0.765000, -0.006700
  0.767000, -0.010400
  0.769000, -0.013900
  0.771000, -0.017200
  0.773000, -0.020300
  0.775000, -0.023200
  0.777000, -0.025800
  0.779000, -0.028100
  0.781000, -0.030200
  0.783000, -0.032100
  0.785000, -0.033800
  0.787000, -0.035000
  0.789000, -0.036100
  0.791000, -0.036800
  0.793000, -0.037100
  0.795000, -0.037200
  0.797000, -0.037100
  0.799000, -0.036800
  0.801000, -0.036200
  0.803000, -0.035300
  0.805000, -0.034100
  0.807000, -0.032800
  0.809000, -0.031200
  0.811000, -0.029300
  0.813000, -0.027200
  0.815000, -0.024900
  0.817000, -0.022500
  0.819000, -0.019900
  0.821000, -0.016900
  0.823000, -0.013800
  0.825000, -0.010700
  0.827000, -0.007200
  0.829000, -0.003700
  0.831000, -0.000300
  0.833000,  0.003400
  0.835000,  0.007200
  0.837000,  0.010900
  0.839000,  0.014700
  0.841000,  0.018600
  0.843000,  0.022400
  0.845000,  0.026200
  0.847000,  0.030000
  0.849000,  0.034000
  0.851000,  0.038000
  0.853000,  0.041700
  0.855000,  0.045400
  0.857000,  0.048900
  0.859000,  0.052400
  0.861000,  0.055900
  0.863000,  0.059100
  0.865000,  0.062200
  0.867000,  0.065100
  0.869000,  0.067900
  0.871000,  0.070500
  0.873000,  0.072900
  0.875000,  0.075200
  0.877000,  0.077300
  0.879000,  0.079300
  0.881000,  0.081100
  0.883000,  0.082900
  0.885000,  0.084400
  0.887000,  0.085700
  0.889000,  0.086900
  0.891000,  0.088000
  0.893000,  0.089000
  0.895000,  0.089600
  0.897000,  0.090000
  0.899000,  0.090400
  0.901000,  0.090600
  0.903000,  0.090700
  0.905000,  0.090600
  0.907000,  0.090400
  0.909000,  0.090000
  0.911000,  0.089700
  0.913000,  0.089300
  0.915000,  0.088700
  0.917000,  0.088100
  0.919000,  0.087300
  0.921000,  0.086500
  0.923000,  0.085600
  0.925000,  0.084700
  0.927000,  0.083900
  0.929000,  0.082900
  0.931000,  0.081800
  0.933000,  0.080800
  0.935000,  0.079800
  0.937000,  0.078700
  0.939000,  0.077500
  0.941000,  0.076500
  0.943000,  0.075400
  0.945000,  0.074400
  0.947000,  0.073400
  0.949000,  0.072400
  0.951000,  0.071400
  0.953000,  0.070500
  0.955000,  0.069800
  0.957000,  0.069000
  0.959000,  0.068300
  0.961000,  0.067600
  0.963000,  0.067000
  0.965000,  0.066500
  0.967000,  0.066100
  0.969000,  0.065700
  0.971000,  0.065400
  0.973000,  0.065100
  0.975000,  0.065100
  0.977000,  0.065100
  0.979000,  0.065200
  0.981000,  0.065400
  0.983000,  0.065600
  0.985000,  0.065900
  0.987000,  0.066400
  0.989000,  0.066900
  0.991000,  0.067400
  0.993000,  0.068000
  0.995000,  0.068700
  0.997000,  0.069500
  0.999000,  0.070400
  1.001000,  0.071400
  1.003000,  0.072400
  1.005000,  0.073500
  1.007000,  0.074700
  1.009000,  0.075900
  1.011000,  0.077200
  1.013000,  0.078600
  1.015000,  0.080000
  1.017000,  0.081600
  1.019000,  0.083100
  1.021000,  0.084800
  1.023000,  0.086500
  1.025000,  0.088200
  1.027000,  0.089900
  1.029000,  0.091800
  1.031000,  0.093700
  1.033000,  0.095600
  1.035000,  0.097600
  1.037000,  0.099600
  1.039000,  0.101600
  1.041000,  0.103600
  1.043000,  0.105700
  1.045000,  0.107900
  1.047000,  0.110100
  1.049000,  0.112300
  1.051000,  0.114600
  1.053000,  0.116800
  1.055000,  0.119100
  1.057000,  0.121400
  1.059000,  0.123700
  1.061000,  0.126000
  1.063000,  0.128300
  1.065000,  0.130500
  1.067000,  0.132600
  1.069000,  0.134700
  1.071000,  0.136900
  1.073000,  0.139100
  1.075000,  0.141200
  1.077000,  0.143300
  1.079000,  0.145300
  1.081000,  0.147200
  1.083000,  0.149100
  1.085000,  0.151000
  1.087000,  0.152800
  1.089000,  0.154400
  1.091000,  0.155900
  1.093000,  0.157200
  1.095000,  0.158500
  1.097000,  0.159700
  1.099000,  0.160800
  1.101000,  0.161600
  1.103000,  0.162300
  1.105000,  0.163000
  1.107000,  0.163500
  1.109000,  0.163900
  1.111000,  0.164100
  1.113000,  0.164100
  1.115000,  0.163900
  1.117000,  0.163600
  1.119000,  0.163100
  1.121000,  0.162400
  1.123000,  0.161500
  1.125000,  0.160500
  1.127000,  0.159300
  1.129000,  0.157900
  1.131000,  0.156300
  1.133000,  0.154600
  1.135000,  0.152800
  1.137000,  0.150800
  1.139000,  0.148700
  1.141000,  0.146500
  1.143000,  0.144200
  1.145000,  0.141700
  1.147000,  0.139100
  1.149000,  0.136500
  1.151000,  0.133800
  1.153000,  0.131000
  1.155000,  0.128200
  1.157000,  0.125300
  1.159000,  0.122300
  1.161000,  0.119200
  1.163000,  0.116000
  1.165000,  0.113000
  1.167000,  0.109900
  1.169000,  0.106800
  1.171000,  0.103800
  1.173000,  0.100800
  1.175000,  0.097900
  1.177000,  0.095100
  1.179000,  0.092200
  1.181000,  0.089400
  1.183000,  0.086800
  1.185000,  0.084200
  1.187000,  0.081500
  1.189000,  0.078900
  1.191000,  0.076500
  1.193000,  0.074200
  1.195000,  0.072000
  1.197000,  0.069800
  1.199000,  0.067700
  1.201000,  0.065700
  1.203000,  0.063800
  1.205000,  0.062000
  1.207000,  0.060300
  1.209000,  0.058600
  1.211000,  0.057000
  1.213000,  0.055300
  1.215000,  0.053800
  1.217000,  0.052400
  1.219000,  0.050900
  1.221000,  0.049500
  1.223000,  0.048300
  1.225000,  0.047000
  1.227000,  0.045800
  1.229000,  0.044600
  1.231000,  0.043300
  1.233000,  0.042100
  1.235000,  0.040700
  1.237000,  0.039300
  1.239000,  0.037900
  1.241000,  0.036400
  1.243000,  0.035000
  1.245000,  0.033500
  1.247000,  0.032000
  1.249000,  0.030400
  1.251000,  0.028800
  1.253000,  0.027100
  1.255000,  0.025400
  1.257000,  0.023700
  1.259000,  0.021900
  1.261000,  0.020200
  1.263000,  0.018400
  1.265000,  0.016500
  1.267000,  0.014500
  1.269000,  0.012600
  1.271000,  0.010700
  1.273000,  0.008800
  1.275000,  0.006800
  1.277000,  0.004800
  1.279000,  0.002800
  1.281000,  0.000800
  1.283000, -0.001200
  1.285000, -0.003300
  1.287000, -0.005400
  1.289000, -0.007400
  1.291000, -0.009300
  1.293000, -0.011300
  1.295000, -0.013400
  1.297000, -0.015500
  1.299000, -0.017500
  1.301000, -0.019500
  1.303000, -0.021400
  1.305000, -0.023200
  1.307000, -0.025000
  1.309000, -0.026900
  1.311000, -0.028600
  1.313000, -0.030300
  1.315000, -0.031800
  1.317000, -0.033200
  1.319000, -0.034500
  1.321000, -0.035900
  1.323000, -0.037100
  1.325000, -0.038200
  1.327000, -0.039200
  1.329000, -0.040100
  1.331000, -0.040900
  1.333000, -0.041500
  1.335000, -0.042000
  1.337000, -0.042300
  1.339000, -0.042500
  1.341000, -0.042600
  1.343000, -0.042600
  1.345000, -0.042500
  1.347000, -0.042200
  1.349000, -0.041700
  1.351000, -0.041100
  1.353000, -0.040400
  1.355000, -0.039500
  1.357000, -0.038500
  1.359000, -0.037200
  1.361000, -0.035800
  1.363000, -0.034300
  1.365000, -0.032600
  1.367000, -0.030700
  1.369000, -0.028800
  1.371000, -0.026600
  1.373000, -0.024400
  1.375000, -0.021900
  1.377000, -0.019400
  1.379000, -0.016800
  1.381000, -0.014200
  1.383000, -0.011500
  1.385000, -0.008800
  1.387000, -0.006200
  1.389000, -0.003500
  1.391000, -0.000400
  1.393000,  0.002500
  1.395000,  0.005200
  1.397000,  0.007600
  1.399000,  0.009500
