# z (nm)   (kJ/mol)
  0.435000, 12.650800
  0.439000, 10.975400
  0.441000, 10.132000
  0.443000,  9.272700
  0.445000,  8.434200
  0.447000,  7.605100
  0.449000,  6.778600
  0.451000,  5.965600
  0.453000,  5.169000
  0.455000,  4.383100
  0.457000,  3.616900
  0.459000,  2.875800
  0.461000,  2.154000
  0.463000,  1.452900
  0.465000,  0.771700
  0.467000,  0.114300
  0.469000, -0.516600
  0.471000, -1.121800
  0.473000, -1.702000
  0.475000, -2.257100
  0.477000, -2.784500
  0.479000, -3.286900
  0.481000, -3.768400
  0.483000, -4.228500
  0.485000, -4.665300
  0.487000, -5.082500
  0.489000, -5.479800
  0.491000, -5.855700
  0.493000, -6.213000
  0.495000, -6.551800
  0.497000, -6.871200
  0.499000, -7.175000
  0.501000, -7.461100
  0.503000, -7.726200
  0.505000, -7.976100
  0.507000, -8.210000
  0.509000, -8.427600
  0.511000, -8.633900
  0.513000, -8.829200
  0.515000, -9.013700
  0.517000, -9.187200
  0.519000, -9.351400
  0.521000, -9.508800
  0.523000, -9.657200
  0.525000, -9.794900
  0.527000, -9.920200
  0.529000,-10.037200
  0.531000,-10.146200
  0.533000,-10.242100
  0.535000,-10.322400
  0.537000,-10.388900
  0.539000,-10.445300
  0.541000,-10.489700
  0.543000,-10.521000
  0.545000,-10.538900
  0.547000,-10.543600
  0.549000,-10.532300
  0.551000,-10.509700
  0.553000,-10.472400
  0.555000,-10.424900
  0.557000,-10.368000
  0.559000,-10.297200
  0.561000,-10.214500
  0.563000,-10.123500
  0.565000,-10.033300
  0.567000, -9.937900
  0.569000, -9.836100
  0.571000, -9.728500
  0.573000, -9.612400
  0.575000, -9.491900
  0.577000, -9.373200
  0.579000, -9.253200
  0.581000, -9.127700
  0.583000, -9.002500
  0.585000, -8.876900
  0.587000, -8.749000
  0.589000, -8.622300
  0.591000, -8.496400
  0.593000, -8.370800
  0.595000, -8.246400
  0.597000, -8.123100
  0.599000, -8.000100
  0.601000, -7.878200
  0.603000, -7.756900
  0.605000, -7.636800
  0.607000, -7.520500
  0.609000, -7.406300
  0.611000, -7.292100
  0.613000, -7.178700
  0.615000, -7.068000
  0.617000, -6.959700
  0.619000, -6.852700
  0.621000, -6.747400
  0.623000, -6.644700
  0.625000, -6.544800
  0.627000, -6.448200
  0.629000, -6.353800
  0.631000, -6.260200
  0.633000, -6.167900
  0.635000, -6.077600
  0.637000, -5.990400
  0.639000, -5.906100
  0.641000, -5.823300
  0.643000, -5.743400
  0.645000, -5.666400
  0.647000, -5.590900
  0.649000, -5.516300
  0.651000, -5.442100
  0.653000, -5.370100
  0.655000, -5.299600
  0.657000, -5.230600
  0.659000, -5.163600
  0.661000, -5.098000
  0.663000, -5.034200
  0.665000, -4.971700
  0.667000, -4.909600
  0.669000, -4.849300
  0.671000, -4.791300
  0.673000, -4.735000
  0.675000, -4.680300
  0.677000, -4.626600
  0.679000, -4.574500
  0.681000, -4.523700
  0.683000, -4.474200
  0.685000, -4.426200
  0.687000, -4.379500
  0.689000, -4.333800
  0.691000, -4.289100
  0.693000, -4.245900
  0.695000, -4.204500
  0.697000, -4.164400
  0.699000, -4.125200
  0.701000, -4.087100
  0.703000, -4.050300
  0.705000, -4.014200
  0.707000, -3.979200
  0.709000, -3.945500
  0.711000, -3.912700
  0.713000, -3.881000
  0.715000, -3.850600
  0.717000, -3.821100
  0.719000, -3.792300
  0.721000, -3.764600
  0.723000, -3.737700
  0.725000, -3.711300
  0.727000, -3.685600
  0.729000, -3.660500
  0.731000, -3.635700
  0.733000, -3.611800
  0.735000, -3.588500
  0.737000, -3.565600
  0.739000, -3.543400
  0.741000, -3.521700
  0.743000, -3.501000
  0.745000, -3.480800
  0.747000, -3.461100
  0.749000, -3.441300
  0.751000, -3.421400
  0.753000, -3.402000
  0.755000, -3.382800
  0.757000, -3.363500
  0.759000, -3.344500
  0.761000, -3.325700
  0.763000, -3.306800
  0.765000, -3.287800
  0.767000, -3.268800
  0.769000, -3.249600
  0.771000, -3.230600
  0.773000, -3.211300
  0.775000, -3.191600
  0.777000, -3.171700
  0.779000, -3.151900
  0.781000, -3.131800
  0.783000, -3.111100
  0.785000, -3.090500
  0.787000, -3.069800
  0.789000, -3.048800
  0.791000, -3.027400
  0.793000, -3.006300
  0.795000, -2.984600
  0.797000, -2.961900
  0.799000, -2.938800
  0.801000, -2.915400
  0.803000, -2.891600
  0.805000, -2.867400
  0.807000, -2.842700
  0.809000, -2.817800
  0.811000, -2.792800
  0.813000, -2.767100
  0.815000, -2.740700
  0.817000, -2.714200
  0.819000, -2.687700
  0.821000, -2.661100
  0.823000, -2.634000
  0.825000, -2.606400
  0.827000, -2.578500
  0.829000, -2.550200
  0.831000, -2.521700
  0.833000, -2.493200
  0.835000, -2.464500
  0.837000, -2.435300
  0.839000, -2.406000
  0.841000, -2.376400
  0.843000, -2.347000
  0.845000, -2.317700
  0.847000, -2.288000
  0.849000, -2.258200
  0.851000, -2.228600
  0.853000, -2.198900
  0.855000, -2.169100
  0.857000, -2.139400
  0.859000, -2.109900
  0.861000, -2.080600
  0.863000, -2.051300
  0.865000, -2.022100
  0.867000, -1.993100
  0.869000, -1.964600
  0.871000, -1.936200
  0.873000, -1.907900
  0.875000, -1.879800
  0.877000, -1.852000
  0.879000, -1.824700
  0.881000, -1.797600
  0.883000, -1.770800
  0.885000, -1.744400
  0.887000, -1.718300
  0.889000, -1.692600
  0.891000, -1.667400
  0.893000, -1.642900
  0.895000, -1.618600
  0.897000, -1.594700
  0.899000, -1.571300
  0.901000, -1.548500
  0.903000, -1.526100
  0.905000, -1.504100
  0.907000, -1.482800
  0.909000, -1.462000
  0.911000, -1.441700
  0.913000, -1.422100
  0.915000, -1.403100
  0.917000, -1.384600
  0.919000, -1.366700
  0.921000, -1.349300
  0.923000, -1.332400
  0.925000, -1.316200
  0.927000, -1.300500
  0.929000, -1.285300
  0.931000, -1.270700
  0.933000, -1.256600
  0.935000, -1.242800
  0.937000, -1.229600
  0.939000, -1.217100
  0.941000, -1.205300
  0.943000, -1.193500
  0.945000, -1.182300
  0.947000, -1.171800
  0.949000, -1.161500
  0.951000, -1.151500
  0.953000, -1.142000
  0.955000, -1.132900
  0.957000, -1.124100
  0.959000, -1.115600
  0.961000, -1.107400
  0.963000, -1.099400
  0.965000, -1.091800
  0.967000, -1.084300
  0.969000, -1.076900
  0.971000, -1.069900
  0.973000, -1.063000
  0.975000, -1.056100
  0.977000, -1.049500
  0.979000, -1.042900
  0.981000, -1.036500
  0.983000, -1.030200
  0.985000, -1.023700
  0.987000, -1.017200
  0.989000, -1.010800
  0.991000, -1.004300
  0.993000, -0.997900
  0.995000, -0.991600
  0.997000, -0.985300
  0.999000, -0.978700
  1.001000, -0.972000
  1.003000, -0.965300
  1.005000, -0.958300
  1.007000, -0.951100
  1.009000, -0.943900
  1.011000, -0.936600
  1.013000, -0.929100
  1.015000, -0.921400
  1.017000, -0.913500
  1.019000, -0.905500
  1.021000, -0.897200
  1.023000, -0.888700
  1.025000, -0.879900
  1.027000, -0.871000
  1.029000, -0.862100
  1.031000, -0.852900
  1.033000, -0.843300
  1.035000, -0.833700
  1.037000, -0.823900
  1.039000, -0.814000
  1.041000, -0.803800
  1.043000, -0.793600
  1.045000, -0.783300
  1.047000, -0.772800
  1.049000, -0.762300
  1.051000, -0.751400
  1.053000, -0.740400
  1.055000, -0.729500
  1.057000, -0.718500
  1.059000, -0.707600
  1.061000, -0.696300
  1.063000, -0.684800
  1.065000, -0.673300
  1.067000, -0.662100
  1.069000, -0.650800
  1.071000, -0.639200
  1.073000, -0.627800
  1.075000, -0.616500
  1.077000, -0.604900
  1.079000, -0.593400
  1.081000, -0.582100
  1.083000, -0.570700
  1.085000, -0.559400
  1.087000, -0.548100
  1.089000, -0.537000
  1.091000, -0.526100
  1.093000, -0.515400
  1.095000, -0.504800
  1.097000, -0.494300
  1.099000, -0.483800
  1.101000, -0.473500
  1.103000, -0.463300
  1.105000, -0.453300
  1.107000, -0.443500
  1.109000, -0.434000
  1.111000, -0.424800
  1.113000, -0.415800
  1.115000, -0.406900
  1.117000, -0.398200
  1.119000, -0.389900
  1.121000, -0.381700
  1.123000, -0.373700
  1.125000, -0.365900
  1.127000, -0.358200
  1.129000, -0.351000
  1.131000, -0.344000
  1.133000, -0.337100
  1.135000, -0.330400
  1.137000, -0.324000
  1.139000, -0.317900
  1.141000, -0.312000
  1.143000, -0.306500
  1.145000, -0.301100
  1.147000, -0.296000
  1.149000, -0.291100
  1.151000, -0.286400
  1.153000, -0.282000
  1.155000, -0.277700
  1.157000, -0.273400
  1.159000, -0.269400
  1.161000, -0.265400
  1.163000, -0.261600
  1.165000, -0.258100
  1.167000, -0.254700
  1.169000, -0.251300
  1.171000, -0.248000
  1.173000, -0.244900
  1.175000, -0.241700
  1.177000, -0.238700
  1.179000, -0.235900
  1.181000, -0.233000
  1.183000, -0.230000
  1.185000, -0.227100
  1.187000, -0.224100
  1.189000, -0.221000
  1.191000, -0.218100
  1.193000, -0.215300
  1.195000, -0.212400
  1.197000, -0.209400
  1.199000, -0.206500
  1.201000, -0.203400
  1.203000, -0.200300
  1.205000, -0.197200
  1.207000, -0.194000
  1.209000, -0.190700
  1.211000, -0.187400
  1.213000, -0.184100
  1.215000, -0.180800
  1.217000, -0.177200
  1.219000, -0.173300
  1.221000, -0.169400
  1.223000, -0.165400
  1.225000, -0.161400
  1.227000, -0.157400
  1.229000, -0.153200
  1.231000, -0.149000
  1.233000, -0.144700
  1.235000, -0.140300
  1.237000, -0.135700
  1.239000, -0.131000
  1.241000, -0.126300
  1.243000, -0.121500
  1.245000, -0.116600
  1.247000, -0.111700
  1.249000, -0.106600
  1.251000, -0.101600
  1.253000, -0.096400
  1.255000, -0.091200
  1.257000, -0.085900
  1.259000, -0.080800
  1.261000, -0.075600
  1.263000, -0.070200
  1.265000, -0.064900
  1.267000, -0.059600
  1.269000, -0.054300
  1.271000, -0.049000
  1.273000, -0.043700
  1.275000, -0.038500
  1.277000, -0.033200
  1.279000, -0.027900
  1.281000, -0.022800
  1.283000, -0.017700
  1.285000, -0.012600
  1.287000, -0.007700
  1.289000, -0.002900
  1.291000,  0.001900
  1.293000,  0.006600
  1.295000,  0.011100
  1.297000,  0.015500
  1.299000,  0.019900
  1.301000,  0.024100
  1.303000,  0.028000
  1.305000,  0.031800
  1.307000,  0.035500
  1.309000,  0.039300
  1.311000,  0.042900
  1.313000,  0.046400
  1.315000,  0.049700
  1.317000,  0.053100
  1.319000,  0.056300
  1.321000,  0.059400
  1.323000,  0.062300
  1.325000,  0.065200
  1.327000,  0.068100
  1.329000,  0.070800
  1.331000,  0.073400
  1.333000,  0.076000
  1.335000,  0.078600
  1.337000,  0.081000
  1.339000,  0.083600
  1.341000,  0.086300
  1.343000,  0.089100
  1.345000,  0.091800
  1.347000,  0.094500
  1.349000,  0.097400
  1.351000,  0.100300
  1.353000,  0.103200
  1.355000,  0.106200
  1.357000,  0.109300
  1.359000,  0.112400
  1.361000,  0.115700
  1.363000,  0.119000
  1.365000,  0.122300
  1.367000,  0.125900
  1.369000,  0.129600
  1.371000,  0.133500
  1.373000,  0.137400
  1.375000,  0.141400
  1.377000,  0.145400
  1.379000,  0.149600
  1.381000,  0.153800
  1.383000,  0.158000
  1.385000,  0.162200
  1.387000,  0.166400
  1.389000,  0.170500
  1.391000,  0.174600
  1.393000,  0.178700
  1.395000,  0.182700
  1.397000,  0.186100
  1.399000,  0.189500
