# z (nm)   (kJ/mol)
  0.403000, 20.906200
  0.407000, 20.645500
  0.409000, 20.333100
  0.411000, 20.012100
  0.413000, 19.706000
  0.415000, 19.407700
  0.417000, 19.094300
  0.419000, 18.775900
  0.421000, 18.459500
  0.423000, 18.132600
  0.425000, 17.804100
  0.427000, 17.469300
  0.429000, 17.129000
  0.431000, 16.791300
  0.433000, 16.452900
  0.435000, 16.105900
  0.437000, 15.758500
  0.439000, 15.410300
  0.441000, 15.058500
  0.443000, 14.704900
  0.445000, 14.351400
  0.447000, 13.996300
  0.449000, 13.639300
  0.451000, 13.286100
  0.453000, 12.931600
  0.455000, 12.575500
  0.457000, 12.220500
  0.459000, 11.867400
  0.461000, 11.522100
  0.463000, 11.181000
  0.465000, 10.843100
  0.467000, 10.503900
  0.469000, 10.168100
  0.471000,  9.840900
  0.473000,  9.516600
  0.475000,  9.200500
  0.477000,  8.888800
  0.479000,  8.576600
  0.481000,  8.269000
  0.483000,  7.969900
  0.485000,  7.675400
  0.487000,  7.388100
  0.489000,  7.107300
  0.491000,  6.831800
  0.493000,  6.563800
  0.495000,  6.300700
  0.497000,  6.043900
  0.499000,  5.793800
  0.501000,  5.548400
  0.503000,  5.308500
  0.505000,  5.078200
  0.507000,  4.856200
  0.509000,  4.640100
  0.511000,  4.430300
  0.513000,  4.225800
  0.515000,  4.028100
  0.517000,  3.836400
  0.519000,  3.650500
  0.521000,  3.470600
  0.523000,  3.298100
  0.525000,  3.134700
  0.527000,  2.977800
  0.529000,  2.825000
  0.531000,  2.678300
  0.533000,  2.537400
  0.535000,  2.401400
  0.537000,  2.270700
  0.539000,  2.145400
  0.541000,  2.026900
  0.543000,  1.914800
  0.545000,  1.808400
  0.547000,  1.707600
  0.549000,  1.611900
  0.551000,  1.520700
  0.553000,  1.434700
  0.555000,  1.353500
  0.557000,  1.276600
  0.559000,  1.204000
  0.561000,  1.136000
  0.563000,  1.072300
  0.565000,  1.012600
  0.567000,  0.956500
  0.569000,  0.903900
  0.571000,  0.854900
  0.573000,  0.809400
  0.575000,  0.766300
  0.577000,  0.725600
  0.579000,  0.687800
  0.581000,  0.652900
  0.583000,  0.620400
  0.585000,  0.590200
  0.587000,  0.562100
  0.589000,  0.535200
  0.591000,  0.510100
  0.593000,  0.486200
  0.595000,  0.463100
  0.597000,  0.441000
  0.599000,  0.420400
  0.601000,  0.401000
  0.603000,  0.381900
  0.605000,  0.363200
  0.607000,  0.345400
  0.609000,  0.327500
  0.611000,  0.309600
  0.613000,  0.291600
  0.615000,  0.274000
  0.617000,  0.256700
  0.619000,  0.239400
  0.621000,  0.222100
  0.623000,  0.204800
  0.625000,  0.187200
  0.627000,  0.169300
  0.629000,  0.151600
  0.631000,  0.133900
  0.633000,  0.115900
  0.635000,  0.098000
  0.637000,  0.079900
  0.639000,  0.061700
  0.641000,  0.043400
  0.643000,  0.025100
  0.645000,  0.007200
  0.647000, -0.010500
  0.649000, -0.028100
  0.651000, -0.045500
  0.653000, -0.063000
  0.655000, -0.080100
  0.657000, -0.096800
  0.659000, -0.113100
  0.661000, -0.128900
  0.663000, -0.144400
  0.665000, -0.159300
  0.667000, -0.173500
  0.669000, -0.187200
  0.671000, -0.200500
  0.673000, -0.213100
  0.675000, -0.225000
  0.677000, -0.236100
  0.679000, -0.246600
  0.681000, -0.256200
  0.683000, -0.264900
  0.685000, -0.272900
  0.687000, -0.280100
  0.689000, -0.286500
  0.691000, -0.292200
  0.693000, -0.297100
  0.695000, -0.301400
  0.697000, -0.304900
  0.699000, -0.307800
  0.701000, -0.310200
  0.703000, -0.312000
  0.705000, -0.312900
  0.707000, -0.313000
  0.709000, -0.312400
  0.711000, -0.311200
  0.713000, -0.309600
  0.715000, -0.307300
  0.717000, -0.304600
  0.719000, -0.301500
  0.721000, -0.298100
  0.723000, -0.294400
  0.725000, -0.290400
  0.727000, -0.286300
  0.729000, -0.281900
  0.731000, -0.277000
  0.733000, -0.272100
  0.735000, -0.267000
  0.737000, -0.262000
  0.739000, -0.257100
  0.741000, -0.252100
  0.743000, -0.247200
  0.745000, -0.242500
  0.747000, -0.237900
  0.749000, -0.233700
  0.751000, -0.229700
  0.753000, -0.225900
  0.755000, -0.222300
  0.757000, -0.219100
  0.759000, -0.216300
  0.761000, -0.213900
  0.763000, -0.211600
  0.765000, -0.209700
  0.767000, -0.208300
  0.769000, -0.207200
  0.771000, -0.206600
  0.773000, -0.206500
  0.775000, -0.206700
  0.777000, -0.207400
  0.779000, -0.208400
  0.781000, -0.209900
  0.783000, -0.211800
  0.785000, -0.214100
  0.787000, -0.216700
  0.789000, -0.219600
  0.791000, -0.222700
  0.793000, -0.226400
  0.795000, -0.230500
  0.797000, -0.234900
  0.799000, -0.239300
  0.801000, -0.243900
  0.803000, -0.249000
  0.805000, -0.254100
  0.807000, -0.259200
  0.809000, -0.264500
  0.811000, -0.269800
  0.813000, -0.275200
  0.815000, -0.280500
  0.817000, -0.285900
  0.819000, -0.291200
  0.821000, -0.296500
  0.823000, -0.301700
  0.825000, -0.306700
  0.827000, -0.311500
  0.829000, -0.316400
  0.831000, -0.321000
  0.833000, -0.325100
  0.835000, -0.329000
  0.837000, -0.332700
  0.839000, -0.336100
  0.841000, -0.339000
  0.843000, -0.341700
  0.845000, -0.344100
  0.847000, -0.346000
  0.849000, -0.347600
  0.851000, -0.348700
  0.853000, -0.349500
  0.855000, -0.349800
  0.857000, -0.349800
  0.859000, -0.349200
  0.861000, -0.348100
  0.863000, -0.346700
  0.865000, -0.344800
  0.867000, -0.342500
  0.869000, -0.339800
  0.871000, -0.336800
  0.873000, -0.333300
  0.875000, -0.329500
  0.877000, -0.325300
  0.879000, -0.320800
  0.881000, -0.316000
  0.883000, -0.310800
  0.885000, -0.305200
  0.887000, -0.299300
  0.889000, -0.293400
  0.891000, -0.287500
  0.893000, -0.281000
  0.895000, -0.274200
  0.897000, -0.267500
  0.899000, -0.260400
  0.901000, -0.253100
  0.903000, -0.245800
  0.905000, -0.238400
  0.907000, -0.231000
  0.909000, -0.223500
  0.911000, -0.215800
  0.913000, -0.208300
  0.915000, -0.200800
  0.917000, -0.193200
  0.919000, -0.185900
  0.921000, -0.178700
  0.923000, -0.171500
  0.925000, -0.164400
  0.927000, -0.157400
  0.929000, -0.150700
  0.931000, -0.144300
  0.933000, -0.138000
  0.935000, -0.131800
  0.937000, -0.125900
  0.939000, -0.120000
  0.941000, -0.114000
  0.943000, -0.108400
  0.945000, -0.103100
  0.947000, -0.098000
  0.949000, -0.093000
  0.951000, -0.088300
  0.953000, -0.083800
  0.955000, -0.079500
  0.957000, -0.075400
  0.959000, -0.071300
  0.961000, -0.067500
  0.963000, -0.063900
  0.965000, -0.060500
  0.967000, -0.057300
  0.969000, -0.054300
  0.971000, -0.051400
  0.973000, -0.048600
  0.975000, -0.046000
  0.977000, -0.043400
  0.979000, -0.040900
  0.981000, -0.038500
  0.983000, -0.036200
  0.985000, -0.034100
  0.987000, -0.032100
  0.989000, -0.030100
  0.991000, -0.028300
  0.993000, -0.026500
  0.995000, -0.025000
  0.997000, -0.023500
  0.999000, -0.022100
  1.001000, -0.020900
  1.003000, -0.019800
  1.005000, -0.018800
  1.007000, -0.017900
  1.009000, -0.017100
  1.011000, -0.016400
  1.013000, -0.015700
  1.015000, -0.015100
  1.017000, -0.014600
  1.019000, -0.014300
  1.021000, -0.014100
  1.023000, -0.014100
  1.025000, -0.014200
  1.027000, -0.014400
  1.029000, -0.014800
  1.031000, -0.015200
  1.033000, -0.015700
  1.035000, -0.016400
  1.037000, -0.017200
  1.039000, -0.018200
  1.041000, -0.019300
  1.043000, -0.020500
  1.045000, -0.021900
  1.047000, -0.023300
  1.049000, -0.024900
  1.051000, -0.026600
  1.053000, -0.028400
  1.055000, -0.030200
  1.057000, -0.032200
  1.059000, -0.034400
  1.061000, -0.036600
  1.063000, -0.038800
  1.065000, -0.041100
  1.067000, -0.043400
  1.069000, -0.046000
  1.071000, -0.048600
  1.073000, -0.051200
  1.075000, -0.053700
  1.077000, -0.056100
  1.079000, -0.058500
  1.081000, -0.060900
  1.083000, -0.063500
  1.085000, -0.066000
  1.087000, -0.068400
  1.089000, -0.070800
  1.091000, -0.073000
  1.093000, -0.075000
  1.095000, -0.077100
  1.097000, -0.079200
  1.099000, -0.081300
  1.101000, -0.083200
  1.103000, -0.084900
  1.105000, -0.086700
  1.107000, -0.088500
  1.109000, -0.089900
  1.111000, -0.091300
  1.113000, -0.092600
  1.115000, -0.093600
  1.117000, -0.094400
  1.119000, -0.095100
  1.121000, -0.095600
  1.123000, -0.095900
  1.125000, -0.096100
  1.127000, -0.096100
  1.129000, -0.095900
  1.131000, -0.095600
  1.133000, -0.095100
  1.135000, -0.094600
  1.137000, -0.093900
  1.139000, -0.093200
  1.141000, -0.092600
  1.143000, -0.091800
  1.145000, -0.091000
  1.147000, -0.089900
  1.149000, -0.088600
  1.151000, -0.087200
  1.153000, -0.085800
  1.155000, -0.084400
  1.157000, -0.083000
  1.159000, -0.081600
  1.161000, -0.080200
  1.163000, -0.078700
  1.165000, -0.077300
  1.167000, -0.075800
  1.169000, -0.074300
  1.171000, -0.072800
  1.173000, -0.071400
  1.175000, -0.070000
  1.177000, -0.068700
  1.179000, -0.067500
  1.181000, -0.066400
  1.183000, -0.065200
  1.185000, -0.064100
  1.187000, -0.062900
  1.189000, -0.061700
  1.191000, -0.060500
  1.193000, -0.059300
  1.195000, -0.058400
  1.197000, -0.057500
  1.199000, -0.056700
  1.201000, -0.055800
  1.203000, -0.054900
  1.205000, -0.054200
  1.207000, -0.053400
  1.209000, -0.052500
  1.211000, -0.051600
  1.213000, -0.051000
  1.215000, -0.050400
  1.217000, -0.049700
  1.219000, -0.049200
  1.221000, -0.048500
  1.223000, -0.047700
  1.225000, -0.047000
  1.227000, -0.046300
  1.229000, -0.045700
  1.231000, -0.045200
  1.233000, -0.044600
  1.235000, -0.044100
  1.237000, -0.043400
  1.239000, -0.042800
  1.241000, -0.042100
  1.243000, -0.041300
  1.245000, -0.040600
  1.247000, -0.039800
  1.249000, -0.039100
  1.251000, -0.038300
  1.253000, -0.037500
  1.255000, -0.036700
  1.257000, -0.035900
  1.259000, -0.035000
  1.261000, -0.034100
  1.263000, -0.033200
  1.265000, -0.032200
  1.267000, -0.031100
  1.269000, -0.030000
  1.271000, -0.029000
  1.273000, -0.028000
  1.275000, -0.026800
  1.277000, -0.025600
  1.279000, -0.024500
  1.281000, -0.023300
  1.283000, -0.022200
  1.285000, -0.020900
  1.287000, -0.019700
  1.289000, -0.018400
  1.291000, -0.017100
  1.293000, -0.015800
  1.295000, -0.014500
  1.297000, -0.013200
  1.299000, -0.011900
  1.301000, -0.010600
  1.303000, -0.009100
  1.305000, -0.007800
  1.307000, -0.006400
  1.309000, -0.005200
  1.311000, -0.003900
  1.313000, -0.002600
  1.315000, -0.001100
  1.317000,  0.000400
  1.319000,  0.001800
  1.321000,  0.003200
  1.323000,  0.004700
  1.325000,  0.006200
  1.327000,  0.007700
  1.329000,  0.009300
  1.331000,  0.010900
  1.333000,  0.012500
  1.335000,  0.014200
  1.337000,  0.016000
  1.339000,  0.017800
  1.341000,  0.019700
  1.343000,  0.021600
  1.345000,  0.023600
  1.347000,  0.025800
  1.349000,  0.028200
  1.351000,  0.030600
  1.353000,  0.032900
  1.355000,  0.035500
  1.357000,  0.038100
  1.359000,  0.040900
  1.361000,  0.043800
  1.363000,  0.046900
  1.365000,  0.050200
  1.367000,  0.053600
  1.369000,  0.057100
  1.371000,  0.060500
  1.373000,  0.064100
  1.375000,  0.067700
  1.377000,  0.071500
  1.379000,  0.075400
  1.381000,  0.079200
  1.383000,  0.083200
  1.385000,  0.087500
  1.387000,  0.091700
  1.389000,  0.095800
  1.391000,  0.099800
  1.393000,  0.103800
  1.395000,  0.108100
  1.397000,  0.112100
  1.399000,  0.115300
