# z (nm)   (kJ/mol)
  0.399000, 21.035000
  0.403000, 20.417300
  0.405000, 20.104600
  0.407000, 19.775600
  0.409000, 19.418100
  0.411000, 19.049600
  0.413000, 18.680800
  0.415000, 18.306000
  0.417000, 17.924500
  0.419000, 17.543700
  0.421000, 17.159600
  0.423000, 16.769500
  0.425000, 16.376400
  0.427000, 15.976600
  0.429000, 15.572200
  0.431000, 15.168600
  0.433000, 14.758500
  0.435000, 14.346300
  0.437000, 13.939100
  0.439000, 13.536500
  0.441000, 13.132800
  0.443000, 12.727300
  0.445000, 12.323800
  0.447000, 11.920000
  0.449000, 11.520900
  0.451000, 11.128000
  0.453000, 10.736100
  0.455000, 10.349700
  0.457000,  9.975100
  0.459000,  9.605200
  0.461000,  9.239400
  0.463000,  8.882100
  0.465000,  8.531100
  0.467000,  8.180600
  0.469000,  7.835200
  0.471000,  7.501300
  0.473000,  7.175900
  0.475000,  6.857200
  0.477000,  6.543400
  0.479000,  6.239400
  0.481000,  5.944000
  0.483000,  5.656400
  0.485000,  5.378600
  0.487000,  5.107900
  0.489000,  4.845000
  0.491000,  4.589000
  0.493000,  4.340200
  0.495000,  4.102500
  0.497000,  3.874000
  0.499000,  3.651200
  0.501000,  3.437300
  0.503000,  3.231400
  0.505000,  3.032600
  0.507000,  2.842000
  0.509000,  2.657800
  0.511000,  2.483400
  0.513000,  2.319000
  0.515000,  2.161800
  0.517000,  2.011600
  0.519000,  1.867400
  0.521000,  1.730500
  0.523000,  1.602100
  0.525000,  1.480200
  0.527000,  1.364700
  0.529000,  1.256600
  0.531000,  1.154700
  0.533000,  1.059000
  0.535000,  0.969800
  0.537000,  0.886200
  0.539000,  0.809300
  0.541000,  0.738800
  0.543000,  0.673000
  0.545000,  0.611700
  0.547000,  0.555800
  0.549000,  0.504800
  0.551000,  0.456800
  0.553000,  0.413100
  0.555000,  0.375300
  0.557000,  0.341800
  0.559000,  0.310800
  0.561000,  0.281700
  0.563000,  0.256300
  0.565000,  0.233100
  0.567000,  0.212200
  0.569000,  0.194300
  0.571000,  0.179300
  0.573000,  0.166300
  0.575000,  0.153800
  0.577000,  0.142200
  0.579000,  0.132100
  0.581000,  0.122800
  0.583000,  0.113900
  0.585000,  0.105800
  0.587000,  0.097300
  0.589000,  0.089000
  0.591000,  0.081900
  0.593000,  0.074900
  0.595000,  0.067500
  0.597000,  0.059500
  0.599000,  0.051100
  0.601000,  0.042700
  0.603000,  0.033700
  0.605000,  0.023900
  0.607000,  0.013700
  0.609000,  0.002900
  0.611000, -0.008600
  0.613000, -0.020800
  0.615000, -0.033600
  0.617000, -0.046700
  0.619000, -0.060100
  0.621000, -0.074000
  0.623000, -0.088700
  0.625000, -0.103600
  0.627000, -0.118500
  0.629000, -0.133700
  0.631000, -0.149000
  0.633000, -0.164700
  0.635000, -0.180300
  0.637000, -0.195700
  0.639000, -0.211000
  0.641000, -0.226200
  0.643000, -0.241100
  0.645000, -0.255600
  0.647000, -0.269900
  0.649000, -0.283900
  0.651000, -0.297400
  0.653000, -0.310400
  0.655000, -0.322800
  0.657000, -0.334800
  0.659000, -0.346200
  0.661000, -0.356900
  0.663000, -0.367200
  0.665000, -0.376700
  0.667000, -0.385700
  0.669000, -0.394100
  0.671000, -0.401800
  0.673000, -0.408700
  0.675000, -0.414800
  0.677000, -0.420300
  0.679000, -0.425300
  0.681000, -0.429600
  0.683000, -0.433300
  0.685000, -0.436500
  0.687000, -0.439100
  0.689000, -0.441100
  0.691000, -0.442600
  0.693000, -0.443500
  0.695000, -0.444100
  0.697000, -0.444000
  0.699000, -0.443600
  0.701000, -0.442900
  0.703000, -0.441800
  0.705000, -0.440300
  0.707000, -0.438600
  0.709000, -0.436500
  0.711000, -0.434300
  0.713000, -0.432000
  0.715000, -0.429400
  0.717000, -0.426600
  0.719000, -0.423600
  0.721000, -0.420500
  0.723000, -0.417500
  0.725000, -0.414500
  0.727000, -0.411500
  0.729000, -0.408500
  0.731000, -0.405500
  0.733000, -0.402800
  0.735000, -0.400200
  0.737000, -0.397600
  0.739000, -0.395000
  0.741000, -0.392700
  0.743000, -0.390600
  0.745000, -0.388700
  0.747000, -0.386800
  0.749000, -0.385200
  0.751000, -0.383700
  0.753000, -0.382200
  0.755000, -0.381000
  0.757000, -0.380000
  0.759000, -0.379200
  0.761000, -0.378400
  0.763000, -0.377700
  0.765000, -0.377400
  0.767000, -0.377300
  0.769000, -0.377200
  0.771000, -0.377300
  0.773000, -0.377500
  0.775000, -0.377800
  0.777000, -0.378200
  0.779000, -0.378700
  0.781000, -0.379400
  0.783000, -0.380200
  0.785000, -0.380800
  0.787000, -0.381700
  0.789000, -0.382700
  0.791000, -0.383500
  0.793000, -0.384200
  0.795000, -0.385000
  0.797000, -0.385800
  0.799000, -0.386600
  0.801000, -0.387500
  0.803000, -0.388300
  0.805000, -0.389000
  0.807000, -0.389600
  0.809000, -0.389900
  0.811000, -0.390200
  0.813000, -0.390300
  0.815000, -0.390300
  0.817000, -0.390300
  0.819000, -0.390200
  0.821000, -0.389900
  0.823000, -0.389300
  0.825000, -0.388600
  0.827000, -0.387800
  0.829000, -0.386900
  0.831000, -0.385900
  0.833000, -0.384800
  0.835000, -0.383400
  0.837000, -0.381900
  0.839000, -0.380100
  0.841000, -0.378100
  0.843000, -0.376100
  0.845000, -0.374000
  0.847000, -0.371600
  0.849000, -0.369100
  0.851000, -0.366300
  0.853000, -0.363300
  0.855000, -0.360400
  0.857000, -0.357400
  0.859000, -0.354200
  0.861000, -0.350800
  0.863000, -0.347300
  0.865000, -0.343600
  0.867000, -0.339900
  0.869000, -0.336200
  0.871000, -0.332300
  0.873000, -0.328300
  0.875000, -0.324200
  0.877000, -0.320200
  0.879000, -0.316100
  0.881000, -0.312000
  0.883000, -0.307900
  0.885000, -0.303700
  0.887000, -0.299400
  0.889000, -0.295100
  0.891000, -0.290800
  0.893000, -0.286600
  0.895000, -0.282300
  0.897000, -0.278200
  0.899000, -0.274100
  0.901000, -0.270000
  0.903000, -0.265900
  0.905000, -0.261900
  0.907000, -0.257900
  0.909000, -0.253900
  0.911000, -0.250100
  0.913000, -0.246400
  0.915000, -0.242700
  0.917000, -0.239000
  0.919000, -0.235400
  0.921000, -0.231600
  0.923000, -0.228000
  0.925000, -0.224700
  0.927000, -0.221400
  0.929000, -0.218200
  0.931000, -0.215100
  0.933000, -0.212100
  0.935000, -0.209100
  0.937000, -0.206000
  0.939000, -0.202700
  0.941000, -0.199700
  0.943000, -0.196800
  0.945000, -0.193900
  0.947000, -0.191100
  0.949000, -0.188400
  0.951000, -0.185700
  0.953000, -0.183100
  0.955000, -0.180600
  0.957000, -0.178000
  0.959000, -0.175400
  0.961000, -0.172900
  0.963000, -0.170500
  0.965000, -0.167900
  0.967000, -0.165400
  0.969000, -0.162900
  0.971000, -0.160400
  0.973000, -0.158200
  0.975000, -0.156000
  0.977000, -0.153700
  0.979000, -0.151600
  0.981000, -0.149400
  0.983000, -0.147300
  0.985000, -0.145200
  0.987000, -0.143100
  0.989000, -0.141000
  0.991000, -0.139100
  0.993000, -0.137300
  0.995000, -0.135500
  0.997000, -0.133600
  0.999000, -0.131900
  1.001000, -0.130200
  1.003000, -0.128600
  1.005000, -0.127100
  1.007000, -0.125600
  1.009000, -0.124200
  1.011000, -0.122800
  1.013000, -0.121500
  1.015000, -0.120300
  1.017000, -0.119300
  1.019000, -0.118400
  1.021000, -0.117700
  1.023000, -0.116900
  1.025000, -0.116200
  1.027000, -0.115600
  1.029000, -0.115100
  1.031000, -0.114700
  1.033000, -0.114300
  1.035000, -0.114000
  1.037000, -0.113700
  1.039000, -0.113500
  1.041000, -0.113500
  1.043000, -0.113600
  1.045000, -0.113500
  1.047000, -0.113500
  1.049000, -0.113600
  1.051000, -0.113800
  1.053000, -0.114000
  1.055000, -0.114200
  1.057000, -0.114400
  1.059000, -0.114700
  1.061000, -0.115000
  1.063000, -0.115400
  1.065000, -0.115900
  1.067000, -0.116300
  1.069000, -0.116600
  1.071000, -0.117000
  1.073000, -0.117300
  1.075000, -0.117700
  1.077000, -0.118100
  1.079000, -0.118300
  1.081000, -0.118500
  1.083000, -0.118600
  1.085000, -0.118600
  1.087000, -0.118600
  1.089000, -0.118400
  1.091000, -0.118200
  1.093000, -0.118000
  1.095000, -0.117600
  1.097000, -0.117200
  1.099000, -0.116700
  1.101000, -0.116100
  1.103000, -0.115400
  1.105000, -0.114600
  1.107000, -0.113800
  1.109000, -0.112800
  1.111000, -0.112000
  1.113000, -0.111000
  1.115000, -0.109900
  1.117000, -0.108900
  1.119000, -0.107700
  1.121000, -0.106400
  1.123000, -0.104900
  1.125000, -0.103500
  1.127000, -0.102000
  1.129000, -0.100400
  1.131000, -0.098800
  1.133000, -0.097200
  1.135000, -0.095500
  1.137000, -0.093800
  1.139000, -0.092000
  1.141000, -0.090100
  1.143000, -0.088100
  1.145000, -0.086200
  1.147000, -0.084300
  1.149000, -0.082300
  1.151000, -0.080400
  1.153000, -0.078400
  1.155000, -0.076300
  1.157000, -0.074300
  1.159000, -0.072300
  1.161000, -0.070400
  1.163000, -0.068400
  1.165000, -0.066500
  1.167000, -0.064400
  1.169000, -0.062400
  1.171000, -0.060300
  1.173000, -0.058400
  1.175000, -0.056500
  1.177000, -0.054500
  1.179000, -0.052600
  1.181000, -0.050600
  1.183000, -0.048600
  1.185000, -0.046800
  1.187000, -0.044900
  1.189000, -0.042900
  1.191000, -0.041100
  1.193000, -0.039300
  1.195000, -0.037600
  1.197000, -0.035900
  1.199000, -0.034100
  1.201000, -0.032300
  1.203000, -0.030400
  1.205000, -0.028700
  1.207000, -0.026900
  1.209000, -0.025100
  1.211000, -0.023300
  1.213000, -0.021600
  1.215000, -0.020100
  1.217000, -0.018600
  1.219000, -0.017100
  1.221000, -0.015600
  1.223000, -0.014100
  1.225000, -0.012700
  1.227000, -0.011500
  1.229000, -0.010100
  1.231000, -0.008700
  1.233000, -0.007400
  1.235000, -0.006300
  1.237000, -0.005300
  1.239000, -0.004300
  1.241000, -0.003200
  1.243000, -0.002100
  1.245000, -0.001200
  1.247000, -0.000500
  1.249000,  0.000200
  1.251000,  0.001000
  1.253000,  0.001600
  1.255000,  0.002000
  1.257000,  0.002300
  1.259000,  0.002500
  1.261000,  0.002700
  1.263000,  0.002800
  1.265000,  0.002700
  1.267000,  0.002500
  1.269000,  0.002300
  1.271000,  0.002100
  1.273000,  0.001700
  1.275000,  0.001300
  1.277000,  0.000700
  1.279000, -0.000100
  1.281000, -0.000800
  1.283000, -0.001500
  1.285000, -0.002300
  1.287000, -0.003200
  1.289000, -0.004200
  1.291000, -0.005200
  1.293000, -0.006400
  1.295000, -0.007500
  1.297000, -0.008600
  1.299000, -0.009900
  1.301000, -0.011100
  1.303000, -0.012200
  1.305000, -0.013400
  1.307000, -0.014600
  1.309000, -0.015700
  1.311000, -0.016600
  1.313000, -0.017600
  1.315000, -0.018400
  1.317000, -0.019200
  1.319000, -0.019800
  1.321000, -0.020400
  1.323000, -0.020700
  1.325000, -0.020900
  1.327000, -0.021100
  1.329000, -0.021100
  1.331000, -0.020900
  1.333000, -0.020500
  1.335000, -0.019800
  1.337000, -0.019100
  1.339000, -0.018100
  1.341000, -0.017100
  1.343000, -0.015800
  1.345000, -0.014200
  1.347000, -0.012400
  1.349000, -0.010500
  1.351000, -0.008400
  1.353000, -0.006000
  1.355000, -0.003300
  1.357000, -0.000400
  1.359000,  0.002600
  1.361000,  0.005700
  1.363000,  0.009000
  1.365000,  0.012400
  1.367000,  0.016000
  1.369000,  0.019900
  1.371000,  0.023900
  1.373000,  0.028100
  1.375000,  0.032300
  1.377000,  0.036600
  1.379000,  0.040900
  1.381000,  0.045500
  1.383000,  0.050300
  1.385000,  0.054900
  1.387000,  0.059000
  1.389000,  0.063400
  1.391000,  0.067900
  1.393000,  0.072000
  1.395000,  0.075500
  1.397000,  0.078300
  1.399000,  0.081000
