# z (nm)   (kJ/mol)
  0.411000, 20.337300
  0.415000, 20.129200
  0.419000, 19.563800
  0.421000, 19.229400
  0.423000, 18.924800
  0.425000, 18.613600
  0.427000, 18.306000
  0.429000, 17.991600
  0.431000, 17.668300
  0.433000, 17.336400
  0.435000, 17.006700
  0.437000, 16.670900
  0.439000, 16.315100
  0.441000, 15.950200
  0.443000, 15.581400
  0.445000, 15.202500
  0.447000, 14.810400
  0.449000, 14.418200
  0.451000, 14.020100
  0.453000, 13.618800
  0.455000, 13.221700
  0.457000, 12.812600
  0.459000, 12.394400
  0.461000, 11.978000
  0.463000, 11.565200
  0.465000, 11.156000
  0.467000, 10.746700
  0.469000, 10.337900
  0.471000,  9.934200
  0.473000,  9.536100
  0.475000,  9.142600
  0.477000,  8.755500
  0.479000,  8.377300
  0.481000,  8.005700
  0.483000,  7.637600
  0.485000,  7.276700
  0.487000,  6.927200
  0.489000,  6.587800
  0.491000,  6.257900
  0.493000,  5.936900
  0.495000,  5.625400
  0.497000,  5.323700
  0.499000,  5.032500
  0.501000,  4.750200
  0.503000,  4.476100
  0.505000,  4.213200
  0.507000,  3.958400
  0.509000,  3.714000
  0.511000,  3.479600
  0.513000,  3.251900
  0.515000,  3.033400
  0.517000,  2.824700
  0.519000,  2.625800
  0.521000,  2.436100
  0.523000,  2.255800
  0.525000,  2.084500
  0.527000,  1.920000
  0.529000,  1.763900
  0.531000,  1.617700
  0.533000,  1.479900
  0.535000,  1.349300
  0.537000,  1.225900
  0.539000,  1.110300
  0.541000,  1.001700
  0.543000,  0.900600
  0.545000,  0.806700
  0.547000,  0.719300
  0.549000,  0.638300
  0.551000,  0.563900
  0.553000,  0.496000
  0.555000,  0.432900
  0.557000,  0.376000
  0.559000,  0.324400
  0.561000,  0.277400
  0.563000,  0.235300
  0.565000,  0.197400
  0.567000,  0.163500
  0.569000,  0.133400
  0.571000,  0.107300
  0.573000,  0.084900
  0.575000,  0.065700
  0.577000,  0.050000
  0.579000,  0.036700
  0.581000,  0.024400
  0.583000,  0.013700
  0.585000,  0.004300
  0.587000, -0.004000
  0.589000, -0.011400
  0.591000, -0.017700
  0.593000, -0.022900
  0.595000, -0.028100
  0.597000, -0.033000
  0.599000, -0.037300
  0.601000, -0.041800
  0.603000, -0.046900
  0.605000, -0.052400
  0.607000, -0.058300
  0.609000, -0.064600
  0.611000, -0.071200
  0.613000, -0.078500
  0.615000, -0.086200
  0.617000, -0.094400
  0.619000, -0.102900
  0.621000, -0.112000
  0.623000, -0.121700
  0.625000, -0.132000
  0.627000, -0.142800
  0.629000, -0.153700
  0.631000, -0.164800
  0.633000, -0.176000
  0.635000, -0.187500
  0.637000, -0.199000
  0.639000, -0.210200
  0.641000, -0.221500
  0.643000, -0.233000
  0.645000, -0.244200
  0.647000, -0.255400
  0.649000, -0.266400
  0.651000, -0.277100
  0.653000, -0.287200
  0.655000, -0.296900
  0.657000, -0.306300
  0.659000, -0.315300
  0.661000, -0.323600
  0.663000, -0.331400
  0.665000, -0.338700
  0.667000, -0.345500
  0.669000, -0.351600
  0.671000, -0.357100
  0.673000, -0.362000
  0.675000, -0.366200
  0.677000, -0.370100
  0.679000, -0.373300
  0.681000, -0.376000
  0.683000, -0.378400
  0.685000, -0.380400
  0.687000, -0.381900
  0.689000, -0.383000
  0.691000, -0.383800
  0.693000, -0.384200
  0.695000, -0.384200
  0.697000, -0.384200
  0.699000, -0.384100
  0.701000, -0.383700
  0.703000, -0.383400
  0.705000, -0.383100
  0.707000, -0.382600
  0.709000, -0.382100
  0.711000, -0.381700
  0.713000, -0.381300
  0.715000, -0.381100
  0.717000, -0.381000
  0.719000, -0.380900
  0.721000, -0.381100
  0.723000, -0.381600
  0.725000, -0.382300
  0.727000, -0.383400
  0.729000, -0.384800
  0.731000, -0.386200
  0.733000, -0.387900
  0.735000, -0.389900
  0.737000, -0.392400
  0.739000, -0.395200
  0.741000, -0.398400
  0.743000, -0.401800
  0.745000, -0.405500
  0.747000, -0.409500
  0.749000, -0.413600
  0.751000, -0.418100
  0.753000, -0.422800
  0.755000, -0.427600
  0.757000, -0.432700
  0.759000, -0.437700
  0.761000, -0.442900
  0.763000, -0.448300
  0.765000, -0.453700
  0.767000, -0.459100
  0.769000, -0.464600
  0.771000, -0.470100
  0.773000, -0.475600
  0.775000, -0.481100
  0.777000, -0.486400
  0.779000, -0.491400
  0.781000, -0.496100
  0.783000, -0.500600
  0.785000, -0.504800
  0.787000, -0.508700
  0.789000, -0.512100
  0.791000, -0.515200
  0.793000, -0.518000
  0.795000, -0.520300
  0.797000, -0.522100
  0.799000, -0.523400
  0.801000, -0.524200
  0.803000, -0.524600
  0.805000, -0.524400
  0.807000, -0.523500
  0.809000, -0.522000
  0.811000, -0.520100
  0.813000, -0.517500
  0.815000, -0.514300
  0.817000, -0.510400
  0.819000, -0.505900
  0.821000, -0.500600
  0.823000, -0.494800
  0.825000, -0.488500
  0.827000, -0.481600
  0.829000, -0.474200
  0.831000, -0.466000
  0.833000, -0.457200
  0.835000, -0.447900
  0.837000, -0.438400
  0.839000, -0.428200
  0.841000, -0.417600
  0.843000, -0.406400
  0.845000, -0.394600
  0.847000, -0.382600
  0.849000, -0.370200
  0.851000, -0.357400
  0.853000, -0.344500
  0.855000, -0.331400
  0.857000, -0.318100
  0.859000, -0.304600
  0.861000, -0.290900
  0.863000, -0.277200
  0.865000, -0.263500
  0.867000, -0.249800
  0.869000, -0.236000
  0.871000, -0.222300
  0.873000, -0.208600
  0.875000, -0.194800
  0.877000, -0.181200
  0.879000, -0.167600
  0.881000, -0.154400
  0.883000, -0.141300
  0.885000, -0.128600
  0.887000, -0.116100
  0.889000, -0.104000
  0.891000, -0.092200
  0.893000, -0.080600
  0.895000, -0.069500
  0.897000, -0.058800
  0.899000, -0.048500
  0.901000, -0.038500
  0.903000, -0.028700
  0.905000, -0.019300
  0.907000, -0.010400
  0.909000, -0.002000
  0.911000,  0.006000
  0.913000,  0.013500
  0.915000,  0.020400
  0.917000,  0.026900
  0.919000,  0.033000
  0.921000,  0.038800
  0.923000,  0.044300
  0.925000,  0.049200
  0.927000,  0.053900
  0.929000,  0.058100
  0.931000,  0.061800
  0.933000,  0.065300
  0.935000,  0.068200
  0.937000,  0.070800
  0.939000,  0.073100
  0.941000,  0.075000
  0.943000,  0.076700
  0.945000,  0.078000
  0.947000,  0.079000
  0.949000,  0.079800
  0.951000,  0.080200
  0.953000,  0.080500
  0.955000,  0.080500
  0.957000,  0.080300
  0.959000,  0.079700
  0.961000,  0.079000
  0.963000,  0.078000
  0.965000,  0.077000
  0.967000,  0.075700
  0.969000,  0.074100
  0.971000,  0.072500
  0.973000,  0.070800
  0.975000,  0.068900
  0.977000,  0.066900
  0.979000,  0.064600
  0.981000,  0.062300
  0.983000,  0.060100
  0.985000,  0.057600
  0.987000,  0.055100
  0.989000,  0.052700
  0.991000,  0.050000
  0.993000,  0.047200
  0.995000,  0.044500
  0.997000,  0.041700
  0.999000,  0.038900
  1.001000,  0.036100
  1.003000,  0.033100
  1.005000,  0.030300
  1.007000,  0.027500
  1.009000,  0.024600
  1.011000,  0.021900
  1.013000,  0.019200
  1.015000,  0.016400
  1.017000,  0.013600
  1.019000,  0.010900
  1.021000,  0.008100
  1.023000,  0.005400
  1.025000,  0.002800
  1.027000,  0.000100
  1.029000, -0.002400
  1.031000, -0.004900
  1.033000, -0.007300
  1.035000, -0.009600
  1.037000, -0.011800
  1.039000, -0.014000
  1.041000, -0.016300
  1.043000, -0.018500
  1.045000, -0.020600
  1.047000, -0.022500
  1.049000, -0.024500
  1.051000, -0.026400
  1.053000, -0.028200
  1.055000, -0.029900
  1.057000, -0.031500
  1.059000, -0.033000
  1.061000, -0.034500
  1.063000, -0.035800
  1.065000, -0.037100
  1.067000, -0.038300
  1.069000, -0.039500
  1.071000, -0.040500
  1.073000, -0.041500
  1.075000, -0.042400
  1.077000, -0.043100
  1.079000, -0.043800
  1.081000, -0.044500
  1.083000, -0.045100
  1.085000, -0.045600
  1.087000, -0.046100
  1.089000, -0.046300
  1.091000, -0.046500
  1.093000, -0.046600
  1.095000, -0.046700
  1.097000, -0.046800
  1.099000, -0.046700
  1.101000, -0.046400
  1.103000, -0.046300
  1.105000, -0.046000
  1.107000, -0.045600
  1.109000, -0.045200
  1.111000, -0.044700
  1.113000, -0.044100
  1.115000, -0.043400
  1.117000, -0.042800
  1.119000, -0.042000
  1.121000, -0.041300
  1.123000, -0.040600
  1.125000, -0.039900
  1.127000, -0.039000
  1.129000, -0.038100
  1.131000, -0.037200
  1.133000, -0.036400
  1.135000, -0.035600
  1.137000, -0.034800
  1.139000, -0.034000
  1.141000, -0.033200
  1.143000, -0.032400
  1.145000, -0.031600
  1.147000, -0.030800
  1.149000, -0.030000
  1.151000, -0.029300
  1.153000, -0.028600
  1.155000, -0.028000
  1.157000, -0.027400
  1.159000, -0.026800
  1.161000, -0.026200
  1.163000, -0.025700
  1.165000, -0.025100
  1.167000, -0.024700
  1.169000, -0.024300
  1.171000, -0.024000
  1.173000, -0.023600
  1.175000, -0.023300
  1.177000, -0.023000
  1.179000, -0.022700
  1.181000, -0.022400
  1.183000, -0.022100
  1.185000, -0.021900
  1.187000, -0.021600
  1.189000, -0.021300
  1.191000, -0.021100
  1.193000, -0.020800
  1.195000, -0.020600
  1.197000, -0.020400
  1.199000, -0.020200
  1.201000, -0.020100
  1.203000, -0.019900
  1.205000, -0.019800
  1.207000, -0.019600
  1.209000, -0.019400
  1.211000, -0.019200
  1.213000, -0.019000
  1.215000, -0.018800
  1.217000, -0.018600
  1.219000, -0.018500
  1.221000, -0.018300
  1.223000, -0.018100
  1.225000, -0.018000
  1.227000, -0.017900
  1.229000, -0.017700
  1.231000, -0.017600
  1.233000, -0.017500
  1.235000, -0.017300
  1.237000, -0.017200
  1.239000, -0.017100
  1.241000, -0.017000
  1.243000, -0.016800
  1.245000, -0.016600
  1.247000, -0.016500
  1.249000, -0.016500
  1.251000, -0.016400
  1.253000, -0.016400
  1.255000, -0.016400
  1.257000, -0.016400
  1.259000, -0.016400
  1.261000, -0.016500
  1.263000, -0.016500
  1.265000, -0.016500
  1.267000, -0.016600
  1.269000, -0.016800
  1.271000, -0.017000
  1.273000, -0.017100
  1.275000, -0.017300
  1.277000, -0.017400
  1.279000, -0.017600
  1.281000, -0.017700
  1.283000, -0.018000
  1.285000, -0.018200
  1.287000, -0.018300
  1.289000, -0.018400
  1.291000, -0.018600
  1.293000, -0.018800
  1.295000, -0.018900
  1.297000, -0.018800
  1.299000, -0.018800
  1.301000, -0.018700
  1.303000, -0.018600
  1.305000, -0.018500
  1.307000, -0.018400
  1.309000, -0.018100
  1.311000, -0.017900
  1.313000, -0.017500
  1.315000, -0.017100
  1.317000, -0.016500
  1.319000, -0.015900
  1.321000, -0.015200
  1.323000, -0.014300
  1.325000, -0.013300
  1.327000, -0.012300
  1.329000, -0.011200
  1.331000, -0.010000
  1.333000, -0.008600
  1.335000, -0.007200
  1.337000, -0.005700
  1.339000, -0.004100
  1.341000, -0.002300
  1.343000, -0.000400
  1.345000,  0.001700
  1.347000,  0.003800
  1.349000,  0.006200
  1.351000,  0.008700
  1.353000,  0.011300
  1.355000,  0.014100
  1.357000,  0.016800
  1.359000,  0.019700
  1.361000,  0.022900
  1.363000,  0.026100
  1.365000,  0.029400
  1.367000,  0.032800
  1.369000,  0.036300
  1.371000,  0.039900
  1.373000,  0.043600
  1.375000,  0.047400
  1.377000,  0.051300
  1.379000,  0.055200
  1.381000,  0.059200
  1.383000,  0.063200
  1.385000,  0.067100
  1.387000,  0.071000
  1.389000,  0.074800
  1.391000,  0.078500
  1.393000,  0.081900
  1.395000,  0.085100
  1.397000,  0.088000
  1.399000,  0.090600
