# z (nm)   (kJ/mol)
  0.411000, 16.535800
  0.415000, 15.567000
  0.417000, 15.070300
  0.419000, 14.575400
  0.421000, 14.077700
  0.423000, 13.566400
  0.425000, 13.045500
  0.427000, 12.519800
  0.429000, 11.982100
  0.431000, 11.421900
  0.433000, 10.853700
  0.435000, 10.297500
  0.437000,  9.743300
  0.439000,  9.182300
  0.441000,  8.614900
  0.443000,  8.051800
  0.445000,  7.498100
  0.447000,  6.945500
  0.449000,  6.396900
  0.451000,  5.848100
  0.453000,  5.298500
  0.455000,  4.749900
  0.457000,  4.206700
  0.459000,  3.675400
  0.461000,  3.155200
  0.463000,  2.644100
  0.465000,  2.139500
  0.467000,  1.650700
  0.469000,  1.176900
  0.471000,  0.710500
  0.473000,  0.254100
  0.475000, -0.187900
  0.477000, -0.616600
  0.479000, -1.029500
  0.481000, -1.426700
  0.483000, -1.808800
  0.485000, -2.177300
  0.487000, -2.534300
  0.489000, -2.875200
  0.491000, -3.198800
  0.493000, -3.506000
  0.495000, -3.798000
  0.497000, -4.071900
  0.499000, -4.329600
  0.501000, -4.576000
  0.503000, -4.808300
  0.505000, -5.022000
  0.507000, -5.218200
  0.509000, -5.398500
  0.511000, -5.561600
  0.513000, -5.709700
  0.515000, -5.843700
  0.517000, -5.962500
  0.519000, -6.066900
  0.521000, -6.157900
  0.523000, -6.234200
  0.525000, -6.296100
  0.527000, -6.345700
  0.529000, -6.382600
  0.531000, -6.407100
  0.533000, -6.419400
  0.535000, -6.419400
  0.537000, -6.409000
  0.539000, -6.389400
  0.541000, -6.359100
  0.543000, -6.319500
  0.545000, -6.270700
  0.547000, -6.213100
  0.549000, -6.147500
  0.551000, -6.073700
  0.553000, -5.993300
  0.555000, -5.908700
  0.557000, -5.818800
  0.559000, -5.723100
  0.561000, -5.624000
  0.563000, -5.522700
  0.565000, -5.419100
  0.567000, -5.312500
  0.569000, -5.204100
  0.571000, -5.095200
  0.573000, -4.986200
  0.575000, -4.877400
  0.577000, -4.769800
  0.579000, -4.664100
  0.581000, -4.560500
  0.583000, -4.458800
  0.585000, -4.360000
  0.587000, -4.264800
  0.589000, -4.172600
  0.591000, -4.084300
  0.593000, -4.000800
  0.595000, -3.921400
  0.597000, -3.846400
  0.599000, -3.775500
  0.601000, -3.709100
  0.603000, -3.647500
  0.605000, -3.590400
  0.607000, -3.537700
  0.609000, -3.489700
  0.611000, -3.446200
  0.613000, -3.406500
  0.615000, -3.371100
  0.617000, -3.339900
  0.619000, -3.313200
  0.621000, -3.290100
  0.623000, -3.270700
  0.625000, -3.254700
  0.627000, -3.241900
  0.629000, -3.231900
  0.631000, -3.225000
  0.633000, -3.220800
  0.635000, -3.218600
  0.637000, -3.218600
  0.639000, -3.221600
  0.641000, -3.226600
  0.643000, -3.232900
  0.645000, -3.240400
  0.647000, -3.249400
  0.649000, -3.259800
  0.651000, -3.271300
  0.653000, -3.283600
  0.655000, -3.296600
  0.657000, -3.310300
  0.659000, -3.324600
  0.661000, -3.339100
  0.663000, -3.354100
  0.665000, -3.369200
  0.667000, -3.384100
  0.669000, -3.399100
  0.671000, -3.414100
  0.673000, -3.429000
  0.675000, -3.443400
  0.677000, -3.457600
  0.679000, -3.471500
  0.681000, -3.485000
  0.683000, -3.498200
  0.685000, -3.511100
  0.687000, -3.523300
  0.689000, -3.534800
  0.691000, -3.545900
  0.693000, -3.556400
  0.695000, -3.566200
  0.697000, -3.575600
  0.699000, -3.584500
  0.701000, -3.592600
  0.703000, -3.600100
  0.705000, -3.607100
  0.707000, -3.613500
  0.709000, -3.619000
  0.711000, -3.623900
  0.713000, -3.628300
  0.715000, -3.631900
  0.717000, -3.634700
  0.719000, -3.636900
  0.721000, -3.638200
  0.723000, -3.638700
  0.725000, -3.638300
  0.727000, -3.637100
  0.729000, -3.635300
  0.731000, -3.632600
  0.733000, -3.629100
  0.735000, -3.624800
  0.737000, -3.619400
  0.739000, -3.613100
  0.741000, -3.605600
  0.743000, -3.597100
  0.745000, -3.587600
  0.747000, -3.577000
  0.749000, -3.565500
  0.751000, -3.553000
  0.753000, -3.539400
  0.755000, -3.524400
  0.757000, -3.508100
  0.759000, -3.490800
  0.761000, -3.472400
  0.763000, -3.452800
  0.765000, -3.432000
  0.767000, -3.410100
  0.769000, -3.387000
  0.771000, -3.362700
  0.773000, -3.337400
  0.775000, -3.311100
  0.777000, -3.283600
  0.779000, -3.255100
  0.781000, -3.225600
  0.783000, -3.195200
  0.785000, -3.163900
  0.787000, -3.131800
  0.789000, -3.099100
  0.791000, -3.065600
  0.793000, -3.031300
  0.795000, -2.996500
  0.797000, -2.961300
  0.799000, -2.925700
  0.801000, -2.889600
  0.803000, -2.853100
  0.805000, -2.816700
  0.807000, -2.779900
  0.809000, -2.742800
  0.811000, -2.705600
  0.813000, -2.668400
  0.815000, -2.631400
  0.817000, -2.594700
  0.819000, -2.558100
  0.821000, -2.521800
  0.823000, -2.485800
  0.825000, -2.450100
  0.827000, -2.414900
  0.829000, -2.380200
  0.831000, -2.346000
  0.833000, -2.312500
  0.835000, -2.279900
  0.837000, -2.248100
  0.839000, -2.217100
  0.841000, -2.186900
  0.843000, -2.157300
  0.845000, -2.128800
  0.847000, -2.101000
  0.849000, -2.074300
  0.851000, -2.048500
  0.853000, -2.023900
  0.855000, -2.000100
  0.857000, -1.976900
  0.859000, -1.954800
  0.861000, -1.933800
  0.863000, -1.913900
  0.865000, -1.895000
  0.867000, -1.877000
  0.869000, -1.859800
  0.871000, -1.843500
  0.873000, -1.828200
  0.875000, -1.813600
  0.877000, -1.799900
  0.879000, -1.787100
  0.881000, -1.774900
  0.883000, -1.763500
  0.885000, -1.753000
  0.887000, -1.743100
  0.889000, -1.733800
  0.891000, -1.725200
  0.893000, -1.716900
  0.895000, -1.709200
  0.897000, -1.701900
  0.899000, -1.695000
  0.901000, -1.688300
  0.903000, -1.682000
  0.905000, -1.676200
  0.907000, -1.670600
  0.909000, -1.665100
  0.911000, -1.659900
  0.913000, -1.654700
  0.915000, -1.649500
  0.917000, -1.644400
  0.919000, -1.639300
  0.921000, -1.634200
  0.923000, -1.629000
  0.925000, -1.623700
  0.927000, -1.618200
  0.929000, -1.612500
  0.931000, -1.606500
  0.933000, -1.600500
  0.935000, -1.594300
  0.937000, -1.587800
  0.939000, -1.580900
  0.941000, -1.573700
  0.943000, -1.566200
  0.945000, -1.558400
  0.947000, -1.550300
  0.949000, -1.542000
  0.951000, -1.533100
  0.953000, -1.523900
  0.955000, -1.514400
  0.957000, -1.504600
  0.959000, -1.494600
  0.961000, -1.484400
  0.963000, -1.473700
  0.965000, -1.462500
  0.967000, -1.451000
  0.969000, -1.439000
  0.971000, -1.426700
  0.973000, -1.414200
  0.975000, -1.401500
  0.977000, -1.388500
  0.979000, -1.375200
  0.981000, -1.361600
  0.983000, -1.347700
  0.985000, -1.333700
  0.987000, -1.319400
  0.989000, -1.304800
  0.991000, -1.290000
  0.993000, -1.275100
  0.995000, -1.260100
  0.997000, -1.245000
  0.999000, -1.229600
  1.001000, -1.214300
  1.003000, -1.198900
  1.005000, -1.183500
  1.007000, -1.168300
  1.009000, -1.152900
  1.011000, -1.137400
  1.013000, -1.122200
  1.015000, -1.107100
  1.017000, -1.091900
  1.019000, -1.076700
  1.021000, -1.061600
  1.023000, -1.046600
  1.025000, -1.031600
  1.027000, -1.016700
  1.029000, -1.002200
  1.031000, -0.987800
  1.033000, -0.973600
  1.035000, -0.959600
  1.037000, -0.945800
  1.039000, -0.932300
  1.041000, -0.919000
  1.043000, -0.905900
  1.045000, -0.893200
  1.047000, -0.880700
  1.049000, -0.868400
  1.051000, -0.856300
  1.053000, -0.844500
  1.055000, -0.833000
  1.057000, -0.821800
  1.059000, -0.810800
  1.061000, -0.800100
  1.063000, -0.789800
  1.065000, -0.779700
  1.067000, -0.769700
  1.069000, -0.760100
  1.071000, -0.750900
  1.073000, -0.741800
  1.075000, -0.733000
  1.077000, -0.724400
  1.079000, -0.716000
  1.081000, -0.708000
  1.083000, -0.700100
  1.085000, -0.692300
  1.087000, -0.684700
  1.089000, -0.677300
  1.091000, -0.670100
  1.093000, -0.663000
  1.095000, -0.656200
  1.097000, -0.649400
  1.099000, -0.642600
  1.101000, -0.636200
  1.103000, -0.629800
  1.105000, -0.623400
  1.107000, -0.617200
  1.109000, -0.611100
  1.111000, -0.604900
  1.113000, -0.598800
  1.115000, -0.592700
  1.117000, -0.586600
  1.119000, -0.580300
  1.121000, -0.574000
  1.123000, -0.567900
  1.125000, -0.561700
  1.127000, -0.555500
  1.129000, -0.549100
  1.131000, -0.542800
  1.133000, -0.536500
  1.135000, -0.530100
  1.137000, -0.523700
  1.139000, -0.517200
  1.141000, -0.510700
  1.143000, -0.504000
  1.145000, -0.497300
  1.147000, -0.490500
  1.149000, -0.483600
  1.151000, -0.476800
  1.153000, -0.469900
  1.155000, -0.462900
  1.157000, -0.455900
  1.159000, -0.448900
  1.161000, -0.441700
  1.163000, -0.434600
  1.165000, -0.427500
  1.167000, -0.420400
  1.169000, -0.413100
  1.171000, -0.405900
  1.173000, -0.398600
  1.175000, -0.391400
  1.177000, -0.384200
  1.179000, -0.376900
  1.181000, -0.369700
  1.183000, -0.362400
  1.185000, -0.355200
  1.187000, -0.347900
  1.189000, -0.340500
  1.191000, -0.333300
  1.193000, -0.326100
  1.195000, -0.319000
  1.197000, -0.311900
  1.199000, -0.304800
  1.201000, -0.297700
  1.203000, -0.290700
  1.205000, -0.283600
  1.207000, -0.276500
  1.209000, -0.269600
  1.211000, -0.262600
  1.213000, -0.255700
  1.215000, -0.248800
  1.217000, -0.242100
  1.219000, -0.235300
  1.221000, -0.228700
  1.223000, -0.222100
  1.225000, -0.215400
  1.227000, -0.208900
  1.229000, -0.202400
  1.231000, -0.196000
  1.233000, -0.189500
  1.235000, -0.183100
  1.237000, -0.176700
  1.239000, -0.170400
  1.241000, -0.164100
  1.243000, -0.157900
  1.245000, -0.151800
  1.247000, -0.145700
  1.249000, -0.139700
  1.251000, -0.133600
  1.253000, -0.127600
  1.255000, -0.121700
  1.257000, -0.115900
  1.259000, -0.110100
  1.261000, -0.104200
  1.263000, -0.098400
  1.265000, -0.092800
  1.267000, -0.087300
  1.269000, -0.081800
  1.271000, -0.076500
  1.273000, -0.071100
  1.275000, -0.065700
  1.277000, -0.060400
  1.279000, -0.055200
  1.281000, -0.050100
  1.283000, -0.045000
  1.285000, -0.040000
  1.287000, -0.034900
  1.289000, -0.029900
  1.291000, -0.024900
  1.293000, -0.020000
  1.295000, -0.015200
  1.297000, -0.010200
  1.299000, -0.005400
  1.301000, -0.000600
  1.303000,  0.004200
  1.305000,  0.009000
  1.307000,  0.013800
  1.309000,  0.018700
  1.311000,  0.023500
  1.313000,  0.028300
  1.315000,  0.033200
  1.317000,  0.038200
  1.319000,  0.043200
  1.321000,  0.048200
  1.323000,  0.053300
  1.325000,  0.058500
  1.327000,  0.063800
  1.329000,  0.069200
  1.331000,  0.074700
  1.333000,  0.080300
  1.335000,  0.086100
  1.337000,  0.092000
  1.339000,  0.098100
  1.341000,  0.104200
  1.343000,  0.110600
  1.345000,  0.117200
  1.347000,  0.123900
  1.349000,  0.130900
  1.351000,  0.138000
  1.353000,  0.145100
  1.355000,  0.152500
  1.357000,  0.160000
  1.359000,  0.167700
  1.361000,  0.175500
  1.363000,  0.183500
  1.365000,  0.191700
  1.367000,  0.200000
  1.369000,  0.208600
  1.371000,  0.217100
  1.373000,  0.225600
  1.375000,  0.234300
  1.377000,  0.242900
  1.379000,  0.251500
  1.381000,  0.260300
  1.383000,  0.269300
  1.385000,  0.278200
  1.387000,  0.287200
  1.389000,  0.296200
  1.391000,  0.304700
  1.393000,  0.313200
  1.395000,  0.321700
  1.397000,  0.329600
  1.399000,  0.337000
