# z (nm)   (kJ/mol)
  0.431000, 22.927000
  0.435000, 22.261000
  0.437000, 21.933600
  0.439000, 21.616000
  0.441000, 21.309800
  0.443000, 20.999800
  0.445000, 20.667200
  0.447000, 20.310500
  0.449000, 19.946400
  0.451000, 19.585300
  0.453000, 19.219600
  0.455000, 18.855600
  0.457000, 18.488000
  0.459000, 18.104800
  0.461000, 17.711900
  0.463000, 17.313800
  0.465000, 16.915900
  0.467000, 16.518000
  0.469000, 16.123000
  0.471000, 15.726200
  0.473000, 15.327800
  0.475000, 14.929700
  0.477000, 14.534500
  0.479000, 14.146300
  0.481000, 13.761700
  0.483000, 13.379300
  0.485000, 13.001000
  0.487000, 12.626300
  0.489000, 12.250400
  0.491000, 11.878600
  0.493000, 11.515200
  0.495000, 11.156000
  0.497000, 10.800900
  0.499000, 10.455200
  0.501000, 10.117200
  0.503000,  9.781000
  0.505000,  9.450000
  0.507000,  9.127400
  0.509000,  8.810000
  0.511000,  8.498300
  0.513000,  8.191900
  0.515000,  7.890900
  0.517000,  7.600300
  0.519000,  7.316800
  0.521000,  7.038100
  0.523000,  6.767400
  0.525000,  6.502200
  0.527000,  6.243700
  0.529000,  5.993100
  0.531000,  5.749300
  0.533000,  5.511400
  0.535000,  5.278800
  0.537000,  5.053500
  0.539000,  4.834400
  0.541000,  4.619300
  0.543000,  4.410900
  0.545000,  4.210200
  0.547000,  4.014300
  0.549000,  3.822100
  0.551000,  3.634800
  0.553000,  3.453700
  0.555000,  3.278500
  0.557000,  3.108400
  0.559000,  2.943400
  0.561000,  2.783200
  0.563000,  2.628200
  0.565000,  2.479400
  0.567000,  2.335900
  0.569000,  2.197300
  0.571000,  2.063900
  0.573000,  1.934700
  0.575000,  1.809900
  0.577000,  1.689900
  0.579000,  1.574700
  0.581000,  1.464100
  0.583000,  1.358200
  0.585000,  1.256200
  0.587000,  1.157900
  0.589000,  1.063700
  0.591000,  0.972600
  0.593000,  0.885400
  0.595000,  0.803100
  0.597000,  0.724600
  0.599000,  0.649400
  0.601000,  0.577000
  0.603000,  0.507600
  0.605000,  0.442000
  0.607000,  0.379600
  0.609000,  0.319800
  0.611000,  0.262800
  0.613000,  0.208500
  0.615000,  0.157100
  0.617000,  0.108400
  0.619000,  0.062300
  0.621000,  0.018900
  0.623000, -0.021900
  0.625000, -0.060400
  0.627000, -0.096900
  0.629000, -0.131600
  0.631000, -0.164100
  0.633000, -0.194400
  0.635000, -0.222900
  0.637000, -0.249200
  0.639000, -0.274000
  0.641000, -0.296900
  0.643000, -0.317900
  0.645000, -0.337300
  0.647000, -0.355200
  0.649000, -0.371400
  0.651000, -0.386000
  0.653000, -0.399300
  0.655000, -0.411200
  0.657000, -0.421600
  0.659000, -0.430400
  0.661000, -0.437900
  0.663000, -0.444000
  0.665000, -0.448800
  0.667000, -0.452500
  0.669000, -0.455000
  0.671000, -0.456500
  0.673000, -0.456700
  0.675000, -0.455600
  0.677000, -0.453400
  0.679000, -0.450200
  0.681000, -0.446300
  0.683000, -0.441400
  0.685000, -0.435500
  0.687000, -0.428700
  0.689000, -0.421000
  0.691000, -0.412500
  0.693000, -0.403100
  0.695000, -0.393300
  0.697000, -0.382800
  0.699000, -0.371500
  0.701000, -0.359700
  0.703000, -0.347300
  0.705000, -0.334400
  0.707000, -0.321200
  0.709000, -0.307500
  0.711000, -0.293200
  0.713000, -0.278800
  0.715000, -0.264000
  0.717000, -0.249100
  0.719000, -0.234300
  0.721000, -0.219100
  0.723000, -0.204100
  0.725000, -0.189100
  0.727000, -0.174100
  0.729000, -0.159400
  0.731000, -0.144600
  0.733000, -0.130000
  0.735000, -0.115600
  0.737000, -0.101700
  0.739000, -0.088200
  0.741000, -0.075100
  0.743000, -0.062400
  0.745000, -0.050000
  0.747000, -0.038000
  0.749000, -0.026800
  0.751000, -0.016200
  0.753000, -0.006000
  0.755000,  0.003600
  0.757000,  0.012500
  0.759000,  0.020900
  0.761000,  0.028600
  0.763000,  0.035600
  0.765000,  0.041900
  0.767000,  0.047500
  0.769000,  0.052500
  0.771000,  0.056800
  0.773000,  0.060300
  0.775000,  0.063300
  0.777000,  0.065800
  0.779000,  0.067500
  0.781000,  0.068700
  0.783000,  0.069300
  0.785000,  0.069200
  0.787000,  0.068600
  0.789000,  0.067600
  0.791000,  0.066200
  0.793000,  0.064300
  0.795000,  0.062000
  0.797000,  0.059200
  0.799000,  0.056200
  0.801000,  0.052900
  0.803000,  0.049300
  0.805000,  0.045600
  0.807000,  0.041700
  0.809000,  0.037600
  0.811000,  0.033300
  0.813000,  0.029000
  0.815000,  0.024600
  0.817000,  0.020300
  0.819000,  0.015900
  0.821000,  0.011500
  0.823000,  0.007200
  0.825000,  0.003000
  0.827000, -0.000900
  0.829000, -0.004700
  0.831000, -0.008200
  0.833000, -0.011500
  0.835000, -0.014700
  0.837000, -0.017600
  0.839000, -0.020200
  0.841000, -0.022500
  0.843000, -0.024500
  0.845000, -0.026200
  0.847000, -0.027500
  0.849000, -0.028500
  0.851000, -0.029200
  0.853000, -0.029600
  0.855000, -0.029700
  0.857000, -0.029400
  0.859000, -0.028900
  0.861000, -0.027900
  0.863000, -0.026700
  0.865000, -0.025000
  0.867000, -0.023200
  0.869000, -0.021000
  0.871000, -0.018600
  0.873000, -0.016000
  0.875000, -0.013100
  0.877000, -0.010000
  0.879000, -0.006800
  0.881000, -0.003400
  0.883000,  0.000300
  0.885000,  0.004100
  0.887000,  0.008000
  0.889000,  0.011900
  0.891000,  0.015800
  0.893000,  0.019800
  0.895000,  0.023900
  0.897000,  0.028100
  0.899000,  0.032100
  0.901000,  0.036000
  0.903000,  0.039900
  0.905000,  0.043800
  0.907000,  0.047500
  0.909000,  0.051100
  0.911000,  0.054500
  0.913000,  0.057700
  0.915000,  0.060700
  0.917000,  0.063400
  0.919000,  0.065900
  0.921000,  0.068000
  0.923000,  0.070000
  0.925000,  0.071700
  0.927000,  0.073100
  0.929000,  0.074300
  0.931000,  0.075100
  0.933000,  0.075500
  0.935000,  0.075800
  0.937000,  0.075700
  0.939000,  0.075300
  0.941000,  0.074700
  0.943000,  0.073700
  0.945000,  0.072500
  0.947000,  0.071000
  0.949000,  0.069200
  0.951000,  0.066900
  0.953000,  0.064300
  0.955000,  0.061500
  0.957000,  0.058400
  0.959000,  0.055200
  0.961000,  0.051900
  0.963000,  0.048300
  0.965000,  0.044400
  0.967000,  0.040500
  0.969000,  0.036400
  0.971000,  0.032300
  0.973000,  0.028100
  0.975000,  0.023700
  0.977000,  0.019300
  0.979000,  0.014900
  0.981000,  0.010300
  0.983000,  0.005800
  0.985000,  0.001300
  0.987000, -0.003100
  0.989000, -0.007500
  0.991000, -0.012000
  0.993000, -0.016300
  0.995000, -0.020400
  0.997000, -0.024400
  0.999000, -0.028200
  1.001000, -0.031700
  1.003000, -0.035100
  1.005000, -0.038300
  1.007000, -0.041300
  1.009000, -0.044100
  1.011000, -0.046800
  1.013000, -0.049300
  1.015000, -0.051600
  1.017000, -0.053600
  1.019000, -0.055400
  1.021000, -0.057000
  1.023000, -0.058400
  1.025000, -0.059600
  1.027000, -0.060600
  1.029000, -0.061400
  1.031000, -0.062000
  1.033000, -0.062300
  1.035000, -0.062500
  1.037000, -0.062600
  1.039000, -0.062500
  1.041000, -0.062300
  1.043000, -0.061800
  1.045000, -0.061100
  1.047000, -0.060400
  1.049000, -0.059500
  1.051000, -0.058500
  1.053000, -0.057600
  1.055000, -0.056700
  1.057000, -0.055800
  1.059000, -0.054800
  1.061000, -0.053600
  1.063000, -0.052400
  1.065000, -0.051200
  1.067000, -0.049900
  1.069000, -0.048600
  1.071000, -0.047500
  1.073000, -0.046400
  1.075000, -0.045200
  1.077000, -0.044000
  1.079000, -0.042900
  1.081000, -0.041900
  1.083000, -0.040800
  1.085000, -0.039600
  1.087000, -0.038600
  1.089000, -0.037600
  1.091000, -0.036600
  1.093000, -0.035600
  1.095000, -0.034700
  1.097000, -0.033700
  1.099000, -0.032800
  1.101000, -0.032000
  1.103000, -0.031000
  1.105000, -0.030000
  1.107000, -0.029200
  1.109000, -0.028300
  1.111000, -0.027300
  1.113000, -0.026200
  1.115000, -0.025200
  1.117000, -0.024000
  1.119000, -0.022900
  1.121000, -0.021800
  1.123000, -0.020600
  1.125000, -0.019400
  1.127000, -0.018200
  1.129000, -0.016900
  1.131000, -0.015700
  1.133000, -0.014400
  1.135000, -0.013000
  1.137000, -0.011600
  1.139000, -0.010100
  1.141000, -0.008700
  1.143000, -0.007200
  1.145000, -0.005600
  1.147000, -0.004100
  1.149000, -0.002500
  1.151000, -0.000900
  1.153000,  0.000700
  1.155000,  0.002200
  1.157000,  0.003800
  1.159000,  0.005400
  1.161000,  0.007000
  1.163000,  0.008500
  1.165000,  0.010000
  1.167000,  0.011400
  1.169000,  0.012700
  1.171000,  0.014100
  1.173000,  0.015400
  1.175000,  0.016700
  1.177000,  0.017800
  1.179000,  0.018900
  1.181000,  0.020000
  1.183000,  0.021000
  1.185000,  0.021900
  1.187000,  0.022700
  1.189000,  0.023400
  1.191000,  0.024000
  1.193000,  0.024500
  1.195000,  0.025000
  1.197000,  0.025500
  1.199000,  0.025800
  1.201000,  0.026100
  1.203000,  0.026200
  1.205000,  0.026200
  1.207000,  0.026200
  1.209000,  0.026200
  1.211000,  0.026000
  1.213000,  0.025800
  1.215000,  0.025600
  1.217000,  0.025300
  1.219000,  0.024800
  1.221000,  0.024200
  1.223000,  0.023600
  1.225000,  0.022900
  1.227000,  0.022100
  1.229000,  0.021300
  1.231000,  0.020600
  1.233000,  0.019800
  1.235000,  0.018800
  1.237000,  0.017800
  1.239000,  0.016800
  1.241000,  0.015800
  1.243000,  0.014600
  1.245000,  0.013500
  1.247000,  0.012200
  1.249000,  0.011000
  1.251000,  0.009700
  1.253000,  0.008400
  1.255000,  0.007100
  1.257000,  0.005800
  1.259000,  0.004400
  1.261000,  0.003000
  1.263000,  0.001500
  1.265000,  0.000100
  1.267000, -0.001400
  1.269000, -0.002900
  1.271000, -0.004400
  1.273000, -0.005900
  1.275000, -0.007300
  1.277000, -0.008800
  1.279000, -0.010200
  1.281000, -0.011600
  1.283000, -0.013100
  1.285000, -0.014600
  1.287000, -0.016100
  1.289000, -0.017600
  1.291000, -0.019100
  1.293000, -0.020500
  1.295000, -0.021900
  1.297000, -0.023100
  1.299000, -0.024300
  1.301000, -0.025500
  1.303000, -0.026800
  1.305000, -0.028000
  1.307000, -0.029000
  1.309000, -0.030000
  1.311000, -0.030800
  1.313000, -0.031600
  1.315000, -0.032300
  1.317000, -0.033000
  1.319000, -0.033500
  1.321000, -0.033900
  1.323000, -0.034100
  1.325000, -0.034300
  1.327000, -0.034300
  1.329000, -0.034300
  1.331000, -0.034000
  1.333000, -0.033600
  1.335000, -0.033000
  1.337000, -0.032400
  1.339000, -0.031500
  1.341000, -0.030500
  1.343000, -0.029400
  1.345000, -0.028000
  1.347000, -0.026400
  1.349000, -0.024600
  1.351000, -0.022600
  1.353000, -0.020300
  1.355000, -0.018000
  1.357000, -0.015400
  1.359000, -0.012700
  1.361000, -0.009900
  1.363000, -0.006800
  1.365000, -0.003700
  1.367000, -0.000300
  1.369000,  0.003300
  1.371000,  0.007200
  1.373000,  0.011200
  1.375000,  0.015300
  1.377000,  0.019400
  1.379000,  0.023500
  1.381000,  0.027900
  1.383000,  0.032300
  1.385000,  0.037000
  1.387000,  0.041500
  1.389000,  0.045700
  1.391000,  0.049800
  1.393000,  0.054100
  1.395000,  0.058400
  1.397000,  0.062100
  1.399000,  0.065500
