# z (nm)   (kJ/mol)
  0.4310   22.92700
  0.4350   22.26100
  0.4370   21.93360
  0.4390   21.61600
  0.4410   21.30980
  0.4430   20.99980
  0.4450   20.66720
  0.4470   20.31050
  0.4490   19.94640
  0.4510   19.58530
  0.4530   19.21960
  0.4550   18.85560
  0.4570   18.48800
  0.4590   18.10480
  0.4610   17.71190
  0.4630   17.31380
  0.4650   16.91590
  0.4670   16.51800
  0.4690   16.12300
  0.4710   15.72620
  0.4730   15.32780
  0.4750   14.92970
  0.4770   14.53450
  0.4790   14.14630
  0.4810   13.76170
  0.4830   13.37930
  0.4850   13.00100
  0.4870   12.62630
  0.4890   12.25040
  0.4910   11.87860
  0.4930   11.51520
  0.4950   11.15600
  0.4970   10.80090
  0.4990   10.45520
  0.5010   10.11720
  0.5030    9.78100
  0.5050    9.45000
  0.5070    9.12740
  0.5090    8.81000
  0.5110    8.49830
  0.5130    8.19190
  0.5150    7.89090
  0.5170    7.60030
  0.5190    7.31680
  0.5210    7.03810
  0.5230    6.76740
  0.5250    6.50220
  0.5270    6.24370
  0.5290    5.99310
  0.5310    5.74930
  0.5330    5.51140
  0.5350    5.27880
  0.5370    5.05350
  0.5390    4.83440
  0.5410    4.61930
  0.5430    4.41090
  0.5450    4.21020
  0.5470    4.01430
  0.5490    3.82210
  0.5510    3.63480
  0.5530    3.45370
  0.5550    3.27850
  0.5570    3.10840
  0.5590    2.94340
  0.5610    2.78320
  0.5630    2.62820
  0.5650    2.47940
  0.5670    2.33590
  0.5690    2.19730
  0.5710    2.06390
  0.5730    1.93470
  0.5750    1.80990
  0.5770    1.68990
  0.5790    1.57470
  0.5810    1.46410
  0.5830    1.35820
  0.5850    1.25620
  0.5870    1.15790
  0.5890    1.06370
  0.5910    0.97260
  0.5930    0.88540
  0.5950    0.80310
  0.5970    0.72460
  0.5990    0.64940
  0.6010    0.57700
  0.6030    0.50760
  0.6050    0.44200
  0.6070    0.37960
  0.6090    0.31980
  0.6110    0.26280
  0.6130    0.20850
  0.6150    0.15710
  0.6170    0.10840
  0.6190    0.06230
  0.6210    0.01890
  0.6230   -0.02190
  0.6250   -0.06040
  0.6270   -0.09690
  0.6290   -0.13160
  0.6310   -0.16410
  0.6330   -0.19440
  0.6350   -0.22290
  0.6370   -0.24920
  0.6390   -0.27400
  0.6410   -0.29690
  0.6430   -0.31790
  0.6450   -0.33730
  0.6470   -0.35520
  0.6490   -0.37140
  0.6510   -0.38600
  0.6530   -0.39930
  0.6550   -0.41120
  0.6570   -0.42160
  0.6590   -0.43040
  0.6610   -0.43790
  0.6630   -0.44400
  0.6650   -0.44880
  0.6670   -0.45250
  0.6690   -0.45500
  0.6710   -0.45650
  0.6730   -0.45670
  0.6750   -0.45560
  0.6770   -0.45340
  0.6790   -0.45020
  0.6810   -0.44630
  0.6830   -0.44140
  0.6850   -0.43550
  0.6870   -0.42870
  0.6890   -0.42100
  0.6910   -0.41250
  0.6930   -0.40310
  0.6950   -0.39330
  0.6970   -0.38280
  0.6990   -0.37150
  0.7010   -0.35970
  0.7030   -0.34730
  0.7050   -0.33440
  0.7070   -0.32120
  0.7090   -0.30750
  0.7110   -0.29320
  0.7130   -0.27880
  0.7150   -0.26400
  0.7170   -0.24910
  0.7190   -0.23430
  0.7210   -0.21910
  0.7230   -0.20410
  0.7250   -0.18910
  0.7270   -0.17410
  0.7290   -0.15940
  0.7310   -0.14460
  0.7330   -0.13000
  0.7350   -0.11560
  0.7370   -0.10170
  0.7390   -0.08820
  0.7410   -0.07510
  0.7430   -0.06240
  0.7450   -0.05000
  0.7470   -0.03800
  0.7490   -0.02680
  0.7510   -0.01620
  0.7530   -0.00600
  0.7550    0.00360
  0.7570    0.01250
  0.7590    0.02090
  0.7610    0.02860
  0.7630    0.03560
  0.7650    0.04190
  0.7670    0.04750
  0.7690    0.05250
  0.7710    0.05680
  0.7730    0.06030
  0.7750    0.06330
  0.7770    0.06580
  0.7790    0.06750
  0.7810    0.06870
  0.7830    0.06930
  0.7850    0.06920
  0.7870    0.06860
  0.7890    0.06760
  0.7910    0.06620
  0.7930    0.06430
  0.7950    0.06200
  0.7970    0.05920
  0.7990    0.05620
  0.8010    0.05290
  0.8030    0.04930
  0.8050    0.04560
  0.8070    0.04170
  0.8090    0.03760
  0.8110    0.03330
  0.8130    0.02900
  0.8150    0.02460
  0.8170    0.02030
  0.8190    0.01590
  0.8210    0.01150
  0.8230    0.00720
  0.8250    0.00300
  0.8270   -0.00090
  0.8290   -0.00470
  0.8310   -0.00820
  0.8330   -0.01150
  0.8350   -0.01470
  0.8370   -0.01760
  0.8390   -0.02020
  0.8410   -0.02250
  0.8430   -0.02450
  0.8450   -0.02620
  0.8470   -0.02750
  0.8490   -0.02850
  0.8510   -0.02920
  0.8530   -0.02960
  0.8550   -0.02970
  0.8570   -0.02940
  0.8590   -0.02890
  0.8610   -0.02790
  0.8630   -0.02670
  0.8650   -0.02500
  0.8670   -0.02320
  0.8690   -0.02100
  0.8710   -0.01860
  0.8730   -0.01600
  0.8750   -0.01310
  0.8770   -0.01000
  0.8790   -0.00680
  0.8810   -0.00340
  0.8830    0.00030
  0.8850    0.00410
  0.8870    0.00800
  0.8890    0.01190
  0.8910    0.01580
  0.8930    0.01980
  0.8950    0.02390
  0.8970    0.02810
  0.8990    0.03210
  0.9010    0.03600
  0.9030    0.03990
  0.9050    0.04380
  0.9070    0.04750
  0.9090    0.05110
  0.9110    0.05450
  0.9130    0.05770
  0.9150    0.06070
  0.9170    0.06340
  0.9190    0.06590
  0.9210    0.06800
  0.9230    0.07000
  0.9250    0.07170
  0.9270    0.07310
  0.9290    0.07430
  0.9310    0.07510
  0.9330    0.07550
  0.9350    0.07580
  0.9370    0.07570
  0.9390    0.07530
  0.9410    0.07470
  0.9430    0.07370
  0.9450    0.07250
  0.9470    0.07100
  0.9490    0.06920
  0.9510    0.06690
  0.9530    0.06430
  0.9550    0.06150
  0.9570    0.05840
  0.9590    0.05520
  0.9610    0.05190
  0.9630    0.04830
  0.9650    0.04440
  0.9670    0.04050
  0.9690    0.03640
  0.9710    0.03230
  0.9730    0.02810
  0.9750    0.02370
  0.9770    0.01930
  0.9790    0.01490
  0.9810    0.01030
  0.9830    0.00580
  0.9850    0.00130
  0.9870   -0.00310
  0.9890   -0.00750
  0.9910   -0.01200
  0.9930   -0.01630
  0.9950   -0.02040
  0.9970   -0.02440
  0.9990   -0.02820
  1.0010   -0.03170
  1.0030   -0.03510
  1.0050   -0.03830
  1.0070   -0.04130
  1.0090   -0.04410
  1.0110   -0.04680
  1.0130   -0.04930
  1.0150   -0.05160
  1.0170   -0.05360
  1.0190   -0.05540
  1.0210   -0.05700
  1.0230   -0.05840
  1.0250   -0.05960
  1.0270   -0.06060
  1.0290   -0.06140
  1.0310   -0.06200
  1.0330   -0.06230
  1.0350   -0.06250
  1.0370   -0.06260
  1.0390   -0.06250
  1.0410   -0.06230
  1.0430   -0.06180
  1.0450   -0.06110
  1.0470   -0.06040
  1.0490   -0.05950
  1.0510   -0.05850
  1.0530   -0.05760
  1.0550   -0.05670
  1.0570   -0.05580
  1.0590   -0.05480
  1.0610   -0.05360
  1.0630   -0.05240
  1.0650   -0.05120
  1.0670   -0.04990
  1.0690   -0.04860
  1.0710   -0.04750
  1.0730   -0.04640
  1.0750   -0.04520
  1.0770   -0.04400
  1.0790   -0.04290
  1.0810   -0.04190
  1.0830   -0.04080
  1.0850   -0.03960
  1.0870   -0.03860
  1.0890   -0.03760
  1.0910   -0.03660
  1.0930   -0.03560
  1.0950   -0.03470
  1.0970   -0.03370
  1.0990   -0.03280
  1.1010   -0.03200
  1.1030   -0.03100
  1.1050   -0.03000
  1.1070   -0.02920
  1.1090   -0.02830
  1.1110   -0.02730
  1.1130   -0.02620
  1.1150   -0.02520
  1.1170   -0.02400
  1.1190   -0.02290
  1.1210   -0.02180
  1.1230   -0.02060
  1.1250   -0.01940
  1.1270   -0.01820
  1.1290   -0.01690
  1.1310   -0.01570
  1.1330   -0.01440
  1.1350   -0.01300
  1.1370   -0.01160
  1.1390   -0.01010
  1.1410   -0.00870
  1.1430   -0.00720
  1.1450   -0.00560
  1.1470   -0.00410
  1.1490   -0.00250
  1.1510   -0.00090
  1.1530    0.00070
  1.1550    0.00220
  1.1570    0.00380
  1.1590    0.00540
  1.1610    0.00700
  1.1630    0.00850
  1.1650    0.01000
  1.1670    0.01140
  1.1690    0.01270
  1.1710    0.01410
  1.1730    0.01540
  1.1750    0.01670
  1.1770    0.01780
  1.1790    0.01890
  1.1810    0.02000
  1.1830    0.02100
  1.1850    0.02190
  1.1870    0.02270
  1.1890    0.02340
  1.1910    0.02400
  1.1930    0.02450
  1.1950    0.02500
  1.1970    0.02550
  1.1990    0.02580
  1.2010    0.02610
  1.2030    0.02620
  1.2050    0.02620
  1.2070    0.02620
  1.2090    0.02620
  1.2110    0.02600
  1.2130    0.02580
  1.2150    0.02560
  1.2170    0.02530
  1.2190    0.02480
  1.2210    0.02420
  1.2230    0.02360
  1.2250    0.02290
  1.2270    0.02210
  1.2290    0.02130
  1.2310    0.02060
  1.2330    0.01980
  1.2350    0.01880
  1.2370    0.01780
  1.2390    0.01680
  1.2410    0.01580
  1.2430    0.01460
  1.2450    0.01350
  1.2470    0.01220
  1.2490    0.01100
  1.2510    0.00970
  1.2530    0.00840
  1.2550    0.00710
  1.2570    0.00580
  1.2590    0.00440
  1.2610    0.00300
  1.2630    0.00150
  1.2650    0.00010
  1.2670   -0.00140
  1.2690   -0.00290
  1.2710   -0.00440
  1.2730   -0.00590
  1.2750   -0.00730
  1.2770   -0.00880
  1.2790   -0.01020
  1.2810   -0.01160
  1.2830   -0.01310
  1.2850   -0.01460
  1.2870   -0.01610
  1.2890   -0.01760
  1.2910   -0.01910
  1.2930   -0.02050
  1.2950   -0.02190
  1.2970   -0.02310
  1.2990   -0.02430
  1.3010   -0.02550
  1.3030   -0.02680
  1.3050   -0.02800
  1.3070   -0.02900
  1.3090   -0.03000
  1.3110   -0.03080
  1.3130   -0.03160
  1.3150   -0.03230
  1.3170   -0.03300
  1.3190   -0.03350
  1.3210   -0.03390
  1.3230   -0.03410
  1.3250   -0.03430
  1.3270   -0.03430
  1.3290   -0.03430
  1.3310   -0.03400
  1.3330   -0.03360
  1.3350   -0.03300
  1.3370   -0.03240
  1.3390   -0.03150
  1.3410   -0.03050
  1.3430   -0.02940
  1.3450   -0.02800
  1.3470   -0.02640
  1.3490   -0.02460
  1.3510   -0.02260
  1.3530   -0.02030
  1.3550   -0.01800
  1.3570   -0.01540
  1.3590   -0.01270
  1.3610   -0.00990
  1.3630   -0.00680
  1.3650   -0.00370
  1.3670   -0.00030
  1.3690    0.00330
  1.3710    0.00720
  1.3730    0.01120
  1.3750    0.01530
  1.3770    0.01940
  1.3790    0.02350
  1.3810    0.02790
  1.3830    0.03230
  1.3850    0.03700
  1.3870    0.04150
  1.3890    0.04570
  1.3910    0.04980
  1.3930    0.05410
  1.3950    0.05840
  1.3970    0.06210
  1.3990    0.06550
