# z (nm)   (kJ/mol)
  0.4090   12.99920
  0.4110   12.48010
  0.4150   11.31140
  0.4170   10.75620
  0.4190   10.18300
  0.4210    9.59520
  0.4230    9.00380
  0.4250    8.41110
  0.4270    7.82060
  0.4290    7.23630
  0.4310    6.64830
  0.4330    6.06510
  0.4350    5.49670
  0.4370    4.92940
  0.4390    4.36570
  0.4410    3.81490
  0.4430    3.27150
  0.4450    2.73600
  0.4470    2.21320
  0.4490    1.70270
  0.4510    1.20250
  0.4530    0.71590
  0.4550    0.24670
  0.4570   -0.20780
  0.4590   -0.64950
  0.4610   -1.07540
  0.4630   -1.48520
  0.4650   -1.88350
  0.4670   -2.26680
  0.4690   -2.63380
  0.4710   -2.98540
  0.4730   -3.32060
  0.4750   -3.64110
  0.4770   -3.94830
  0.4790   -4.24160
  0.4810   -4.51930
  0.4830   -4.78260
  0.4850   -5.03200
  0.4870   -5.26690
  0.4890   -5.48770
  0.4910   -5.69670
  0.4930   -5.89350
  0.4950   -6.07750
  0.4970   -6.24910
  0.4990   -6.40850
  0.5010   -6.55590
  0.5030   -6.69100
  0.5050   -6.81470
  0.5070   -6.92740
  0.5090   -7.02920
  0.5110   -7.12170
  0.5130   -7.20430
  0.5150   -7.27680
  0.5170   -7.33850
  0.5190   -7.39030
  0.5210   -7.43400
  0.5230   -7.46820
  0.5250   -7.49330
  0.5270   -7.51010
  0.5290   -7.51910
  0.5310   -7.52220
  0.5330   -7.51820
  0.5350   -7.50710
  0.5370   -7.49080
  0.5390   -7.46890
  0.5410   -7.44210
  0.5430   -7.41140
  0.5450   -7.37590
  0.5470   -7.33590
  0.5490   -7.29240
  0.5510   -7.24490
  0.5530   -7.19500
  0.5550   -7.14360
  0.5570   -7.08990
  0.5590   -7.03440
  0.5610   -6.97670
  0.5630   -6.91640
  0.5650   -6.85500
  0.5670   -6.79240
  0.5690   -6.72790
  0.5710   -6.66210
  0.5730   -6.59550
  0.5750   -6.52830
  0.5770   -6.46050
  0.5790   -6.39180
  0.5810   -6.32260
  0.5830   -6.25240
  0.5850   -6.18110
  0.5870   -6.10980
  0.5890   -6.03800
  0.5910   -5.96560
  0.5930   -5.89250
  0.5950   -5.81930
  0.5970   -5.74620
  0.5990   -5.67290
  0.6010   -5.59960
  0.6030   -5.52640
  0.6050   -5.45260
  0.6070   -5.37880
  0.6090   -5.30510
  0.6110   -5.23160
  0.6130   -5.15860
  0.6150   -5.08610
  0.6170   -5.01450
  0.6190   -4.94360
  0.6210   -4.87260
  0.6230   -4.80160
  0.6250   -4.73170
  0.6270   -4.66300
  0.6290   -4.59530
  0.6310   -4.52890
  0.6330   -4.46390
  0.6350   -4.40020
  0.6370   -4.33800
  0.6390   -4.27760
  0.6410   -4.21880
  0.6430   -4.16130
  0.6450   -4.10580
  0.6470   -4.05240
  0.6490   -4.00100
  0.6510   -3.95140
  0.6530   -3.90350
  0.6550   -3.85730
  0.6570   -3.81390
  0.6590   -3.77290
  0.6610   -3.73400
  0.6630   -3.69700
  0.6650   -3.66210
  0.6670   -3.62990
  0.6690   -3.60020
  0.6710   -3.57200
  0.6730   -3.54570
  0.6750   -3.52130
  0.6770   -3.49930
  0.6790   -3.47940
  0.6810   -3.46110
  0.6830   -3.44460
  0.6850   -3.42990
  0.6870   -3.41700
  0.6890   -3.40560
  0.6910   -3.39570
  0.6930   -3.38720
  0.6950   -3.38010
  0.6970   -3.37440
  0.6990   -3.36990
  0.7010   -3.36660
  0.7030   -3.36410
  0.7050   -3.36210
  0.7070   -3.36120
  0.7090   -3.36090
  0.7110   -3.36090
  0.7130   -3.36160
  0.7150   -3.36270
  0.7170   -3.36430
  0.7190   -3.36610
  0.7210   -3.36790
  0.7230   -3.36980
  0.7250   -3.37210
  0.7270   -3.37420
  0.7290   -3.37620
  0.7310   -3.37810
  0.7330   -3.37980
  0.7350   -3.38130
  0.7370   -3.38250
  0.7390   -3.38340
  0.7410   -3.38390
  0.7430   -3.38400
  0.7450   -3.38360
  0.7470   -3.38250
  0.7490   -3.38080
  0.7510   -3.37860
  0.7530   -3.37590
  0.7550   -3.37250
  0.7570   -3.36850
  0.7590   -3.36370
  0.7610   -3.35820
  0.7630   -3.35230
  0.7650   -3.34550
  0.7670   -3.33780
  0.7690   -3.32940
  0.7710   -3.32040
  0.7730   -3.31050
  0.7750   -3.29970
  0.7770   -3.28810
  0.7790   -3.27570
  0.7810   -3.26270
  0.7830   -3.24890
  0.7850   -3.23410
  0.7870   -3.21830
  0.7890   -3.20190
  0.7910   -3.18460
  0.7930   -3.16640
  0.7950   -3.14730
  0.7970   -3.12710
  0.7990   -3.10610
  0.8010   -3.08440
  0.8030   -3.06190
  0.8050   -3.03860
  0.8070   -3.01440
  0.8090   -2.98940
  0.8110   -2.96370
  0.8130   -2.93720
  0.8150   -2.91020
  0.8170   -2.88250
  0.8190   -2.85400
  0.8210   -2.82490
  0.8230   -2.79510
  0.8250   -2.76510
  0.8270   -2.73430
  0.8290   -2.70300
  0.8310   -2.67130
  0.8330   -2.63930
  0.8350   -2.60710
  0.8370   -2.57450
  0.8390   -2.54150
  0.8410   -2.50830
  0.8430   -2.47490
  0.8450   -2.44140
  0.8470   -2.40780
  0.8490   -2.37420
  0.8510   -2.34060
  0.8530   -2.30710
  0.8550   -2.27410
  0.8570   -2.24130
  0.8590   -2.20880
  0.8610   -2.17650
  0.8630   -2.14450
  0.8650   -2.11310
  0.8670   -2.08230
  0.8690   -2.05200
  0.8710   -2.02220
  0.8730   -1.99290
  0.8750   -1.96430
  0.8770   -1.93640
  0.8790   -1.90910
  0.8810   -1.88260
  0.8830   -1.85690
  0.8850   -1.83170
  0.8870   -1.80750
  0.8890   -1.78430
  0.8910   -1.76190
  0.8930   -1.74040
  0.8950   -1.71950
  0.8970   -1.69940
  0.8990   -1.68030
  0.9010   -1.66190
  0.9030   -1.64430
  0.9050   -1.62760
  0.9070   -1.61170
  0.9090   -1.59660
  0.9110   -1.58220
  0.9130   -1.56870
  0.9150   -1.55590
  0.9170   -1.54400
  0.9190   -1.53260
  0.9210   -1.52200
  0.9230   -1.51180
  0.9250   -1.50220
  0.9270   -1.49320
  0.9290   -1.48460
  0.9310   -1.47660
  0.9330   -1.46900
  0.9350   -1.46180
  0.9370   -1.45490
  0.9390   -1.44850
  0.9410   -1.44230
  0.9430   -1.43650
  0.9450   -1.43090
  0.9470   -1.42550
  0.9490   -1.42020
  0.9510   -1.41490
  0.9530   -1.40960
  0.9550   -1.40430
  0.9570   -1.39910
  0.9590   -1.39390
  0.9610   -1.38860
  0.9630   -1.38320
  0.9650   -1.37780
  0.9670   -1.37230
  0.9690   -1.36670
  0.9710   -1.36070
  0.9730   -1.35460
  0.9750   -1.34820
  0.9770   -1.34170
  0.9790   -1.33500
  0.9810   -1.32790
  0.9830   -1.32060
  0.9850   -1.31320
  0.9870   -1.30530
  0.9890   -1.29730
  0.9910   -1.28890
  0.9930   -1.28010
  0.9950   -1.27120
  0.9970   -1.26210
  0.9990   -1.25250
  1.0010   -1.24270
  1.0030   -1.23270
  1.0050   -1.22240
  1.0070   -1.21180
  1.0090   -1.20100
  1.0110   -1.19000
  1.0130   -1.17870
  1.0150   -1.16740
  1.0170   -1.15600
  1.0190   -1.14440
  1.0210   -1.13250
  1.0230   -1.12060
  1.0250   -1.10860
  1.0270   -1.09640
  1.0290   -1.08390
  1.0310   -1.07150
  1.0330   -1.05910
  1.0350   -1.04650
  1.0370   -1.03390
  1.0390   -1.02110
  1.0410   -1.00850
  1.0430   -0.99570
  1.0450   -0.98290
  1.0470   -0.97000
  1.0490   -0.95730
  1.0510   -0.94460
  1.0530   -0.93190
  1.0550   -0.91940
  1.0570   -0.90690
  1.0590   -0.89440
  1.0610   -0.88200
  1.0630   -0.86960
  1.0650   -0.85740
  1.0670   -0.84520
  1.0690   -0.83320
  1.0710   -0.82140
  1.0730   -0.80970
  1.0750   -0.79810
  1.0770   -0.78660
  1.0790   -0.77530
  1.0810   -0.76410
  1.0830   -0.75300
  1.0850   -0.74200
  1.0870   -0.73110
  1.0890   -0.72040
  1.0910   -0.70980
  1.0930   -0.69950
  1.0950   -0.68930
  1.0970   -0.67930
  1.0990   -0.66950
  1.1010   -0.65980
  1.1030   -0.65020
  1.1050   -0.64090
  1.1070   -0.63180
  1.1090   -0.62280
  1.1110   -0.61380
  1.1130   -0.60500
  1.1150   -0.59640
  1.1170   -0.58800
  1.1190   -0.57970
  1.1210   -0.57150
  1.1230   -0.56350
  1.1250   -0.55550
  1.1270   -0.54770
  1.1290   -0.54000
  1.1310   -0.53230
  1.1330   -0.52480
  1.1350   -0.51730
  1.1370   -0.50990
  1.1390   -0.50250
  1.1410   -0.49530
  1.1430   -0.48820
  1.1450   -0.48110
  1.1470   -0.47410
  1.1490   -0.46710
  1.1510   -0.46000
  1.1530   -0.45300
  1.1550   -0.44610
  1.1570   -0.43920
  1.1590   -0.43220
  1.1610   -0.42540
  1.1630   -0.41870
  1.1650   -0.41190
  1.1670   -0.40500
  1.1690   -0.39820
  1.1710   -0.39120
  1.1730   -0.38410
  1.1750   -0.37710
  1.1770   -0.36990
  1.1790   -0.36280
  1.1810   -0.35570
  1.1830   -0.34850
  1.1850   -0.34140
  1.1870   -0.33430
  1.1890   -0.32710
  1.1910   -0.31980
  1.1930   -0.31250
  1.1950   -0.30520
  1.1970   -0.29800
  1.1990   -0.29080
  1.2010   -0.28350
  1.2030   -0.27610
  1.2050   -0.26870
  1.2070   -0.26140
  1.2090   -0.25410
  1.2110   -0.24680
  1.2130   -0.23950
  1.2150   -0.23230
  1.2170   -0.22510
  1.2190   -0.21780
  1.2210   -0.21050
  1.2230   -0.20330
  1.2250   -0.19610
  1.2270   -0.18910
  1.2290   -0.18210
  1.2310   -0.17500
  1.2330   -0.16800
  1.2350   -0.16120
  1.2370   -0.15430
  1.2390   -0.14760
  1.2410   -0.14080
  1.2430   -0.13410
  1.2450   -0.12740
  1.2470   -0.12080
  1.2490   -0.11430
  1.2510   -0.10780
  1.2530   -0.10140
  1.2550   -0.09510
  1.2570   -0.08890
  1.2590   -0.08260
  1.2610   -0.07650
  1.2630   -0.07040
  1.2650   -0.06440
  1.2670   -0.05850
  1.2690   -0.05270
  1.2710   -0.04690
  1.2730   -0.04120
  1.2750   -0.03550
  1.2770   -0.02990
  1.2790   -0.02450
  1.2810   -0.01920
  1.2830   -0.01390
  1.2850   -0.00880
  1.2870   -0.00370
  1.2890    0.00120
  1.2910    0.00610
  1.2930    0.01080
  1.2950    0.01540
  1.2970    0.01990
  1.2990    0.02420
  1.3010    0.02850
  1.3030    0.03260
  1.3050    0.03660
  1.3070    0.04040
  1.3090    0.04420
  1.3110    0.04810
  1.3130    0.05180
  1.3150    0.05560
  1.3170    0.05920
  1.3190    0.06260
  1.3210    0.06590
  1.3230    0.06930
  1.3250    0.07250
  1.3270    0.07580
  1.3290    0.07910
  1.3310    0.08230
  1.3330    0.08550
  1.3350    0.08870
  1.3370    0.09190
  1.3390    0.09520
  1.3410    0.09850
  1.3430    0.10190
  1.3450    0.10530
  1.3470    0.10880
  1.3490    0.11240
  1.3510    0.11620
  1.3530    0.12010
  1.3550    0.12410
  1.3570    0.12830
  1.3590    0.13260
  1.3610    0.13710
  1.3630    0.14160
  1.3650    0.14630
  1.3670    0.15110
  1.3690    0.15610
  1.3710    0.16120
  1.3730    0.16650
  1.3750    0.17190
  1.3770    0.17730
  1.3790    0.18270
  1.3810    0.18840
  1.3830    0.19400
  1.3850    0.19960
  1.3870    0.20520
  1.3890    0.21070
  1.3910    0.21620
  1.3930    0.22170
  1.3950    0.22700
  1.3970    0.23200
  1.3990    0.23670
