# z (nm)   (kJ/mol)
  0.4210   22.29000
  0.4230   22.01600
  0.4270   21.70270
  0.4290   21.37470
  0.4310   21.05960
  0.4330   20.73400
  0.4350   20.42980
  0.4370   20.09030
  0.4390   19.71870
  0.4410   19.35740
  0.4430   18.98890
  0.4450   18.62410
  0.4470   18.25270
  0.4490   17.87260
  0.4510   17.49280
  0.4530   17.11000
  0.4550   16.72980
  0.4570   16.34360
  0.4590   15.95540
  0.4610   15.57000
  0.4630   15.18420
  0.4650   14.80130
  0.4670   14.41670
  0.4690   14.02980
  0.4710   13.64050
  0.4730   13.25310
  0.4750   12.87010
  0.4770   12.48760
  0.4790   12.11280
  0.4810   11.74490
  0.4830   11.38030
  0.4850   11.02300
  0.4870   10.67360
  0.4890   10.32930
  0.4910    9.98920
  0.4930    9.65310
  0.4950    9.32320
  0.4970    8.99730
  0.4990    8.67820
  0.5010    8.36910
  0.5030    8.06730
  0.5050    7.77330
  0.5070    7.48650
  0.5090    7.20620
  0.5110    6.93290
  0.5130    6.66750
  0.5150    6.41180
  0.5170    6.16480
  0.5190    5.92340
  0.5210    5.68860
  0.5230    5.45950
  0.5250    5.23790
  0.5270    5.02460
  0.5290    4.81830
  0.5310    4.61850
  0.5330    4.42510
  0.5350    4.23800
  0.5370    4.05840
  0.5390    3.88570
  0.5410    3.71990
  0.5430    3.56060
  0.5450    3.40720
  0.5470    3.26050
  0.5490    3.11960
  0.5510    2.98460
  0.5530    2.85500
  0.5550    2.73070
  0.5570    2.61310
  0.5590    2.50140
  0.5610    2.39510
  0.5630    2.29410
  0.5650    2.19840
  0.5670    2.10780
  0.5690    2.02150
  0.5710    1.93990
  0.5730    1.86390
  0.5750    1.79190
  0.5770    1.72350
  0.5790    1.65950
  0.5810    1.59960
  0.5830    1.54360
  0.5850    1.49130
  0.5870    1.44210
  0.5890    1.39600
  0.5910    1.35310
  0.5930    1.31270
  0.5950    1.27450
  0.5970    1.23840
  0.5990    1.20480
  0.6010    1.17350
  0.6030    1.14400
  0.6050    1.11640
  0.6070    1.09070
  0.6090    1.06620
  0.6110    1.04310
  0.6130    1.02120
  0.6150    1.00040
  0.6170    0.98060
  0.6190    0.96120
  0.6210    0.94240
  0.6230    0.92420
  0.6250    0.90670
  0.6270    0.88940
  0.6290    0.87220
  0.6310    0.85560
  0.6330    0.83920
  0.6350    0.82270
  0.6370    0.80640
  0.6390    0.79030
  0.6410    0.77410
  0.6430    0.75780
  0.6450    0.74160
  0.6470    0.72550
  0.6490    0.70950
  0.6510    0.69350
  0.6530    0.67770
  0.6550    0.66200
  0.6570    0.64640
  0.6590    0.63100
  0.6610    0.61560
  0.6630    0.60020
  0.6650    0.58510
  0.6670    0.57030
  0.6690    0.55560
  0.6710    0.54110
  0.6730    0.52690
  0.6750    0.51310
  0.6770    0.49970
  0.6790    0.48670
  0.6810    0.47400
  0.6830    0.46200
  0.6850    0.45030
  0.6870    0.43920
  0.6890    0.42860
  0.6910    0.41850
  0.6930    0.40890
  0.6950    0.39980
  0.6970    0.39130
  0.6990    0.38330
  0.7010    0.37590
  0.7030    0.36910
  0.7050    0.36270
  0.7070    0.35690
  0.7090    0.35160
  0.7110    0.34680
  0.7130    0.34250
  0.7150    0.33870
  0.7170    0.33520
  0.7190    0.33220
  0.7210    0.32950
  0.7230    0.32720
  0.7250    0.32530
  0.7270    0.32360
  0.7290    0.32220
  0.7310    0.32100
  0.7330    0.31980
  0.7350    0.31890
  0.7370    0.31820
  0.7390    0.31750
  0.7410    0.31680
  0.7430    0.31620
  0.7450    0.31560
  0.7470    0.31480
  0.7490    0.31400
  0.7510    0.31320
  0.7530    0.31220
  0.7550    0.31100
  0.7570    0.30970
  0.7590    0.30820
  0.7610    0.30650
  0.7630    0.30450
  0.7650    0.30220
  0.7670    0.29960
  0.7690    0.29680
  0.7710    0.29370
  0.7730    0.29030
  0.7750    0.28670
  0.7770    0.28270
  0.7790    0.27830
  0.7810    0.27360
  0.7830    0.26870
  0.7850    0.26370
  0.7870    0.25850
  0.7890    0.25300
  0.7910    0.24730
  0.7930    0.24140
  0.7950    0.23540
  0.7970    0.22930
  0.7990    0.22290
  0.8010    0.21650
  0.8030    0.20990
  0.8050    0.20320
  0.8070    0.19670
  0.8090    0.19010
  0.8110    0.18350
  0.8130    0.17700
  0.8150    0.17050
  0.8170    0.16420
  0.8190    0.15800
  0.8210    0.15190
  0.8230    0.14600
  0.8250    0.14030
  0.8270    0.13500
  0.8290    0.12970
  0.8310    0.12480
  0.8330    0.12020
  0.8350    0.11600
  0.8370    0.11200
  0.8390    0.10830
  0.8410    0.10490
  0.8430    0.10180
  0.8450    0.09920
  0.8470    0.09700
  0.8490    0.09510
  0.8510    0.09360
  0.8530    0.09250
  0.8550    0.09160
  0.8570    0.09120
  0.8590    0.09120
  0.8610    0.09160
  0.8630    0.09230
  0.8650    0.09330
  0.8670    0.09480
  0.8690    0.09660
  0.8710    0.09870
  0.8730    0.10120
  0.8750    0.10400
  0.8770    0.10720
  0.8790    0.11080
  0.8810    0.11470
  0.8830    0.11880
  0.8850    0.12300
  0.8870    0.12760
  0.8890    0.13240
  0.8910    0.13740
  0.8930    0.14260
  0.8950    0.14780
  0.8970    0.15340
  0.8990    0.15920
  0.9010    0.16500
  0.9030    0.17110
  0.9050    0.17730
  0.9070    0.18350
  0.9090    0.18970
  0.9110    0.19610
  0.9130    0.20230
  0.9150    0.20850
  0.9170    0.21490
  0.9190    0.22130
  0.9210    0.22750
  0.9230    0.23360
  0.9250    0.23970
  0.9270    0.24580
  0.9290    0.25160
  0.9310    0.25730
  0.9330    0.26290
  0.9350    0.26830
  0.9370    0.27350
  0.9390    0.27850
  0.9410    0.28330
  0.9430    0.28790
  0.9450    0.29220
  0.9470    0.29630
  0.9490    0.30020
  0.9510    0.30380
  0.9530    0.30710
  0.9550    0.31030
  0.9570    0.31300
  0.9590    0.31540
  0.9610    0.31760
  0.9630    0.31950
  0.9650    0.32100
  0.9670    0.32240
  0.9690    0.32340
  0.9710    0.32410
  0.9730    0.32440
  0.9750    0.32450
  0.9770    0.32420
  0.9790    0.32360
  0.9810    0.32280
  0.9830    0.32170
  0.9850    0.32040
  0.9870    0.31870
  0.9890    0.31680
  0.9910    0.31460
  0.9930    0.31220
  0.9950    0.30960
  0.9970    0.30670
  0.9990    0.30360
  1.0010    0.30030
  1.0030    0.29680
  1.0050    0.29310
  1.0070    0.28920
  1.0090    0.28520
  1.0110    0.28100
  1.0130    0.27650
  1.0150    0.27190
  1.0170    0.26730
  1.0190    0.26250
  1.0210    0.25760
  1.0230    0.25260
  1.0250    0.24760
  1.0270    0.24250
  1.0290    0.23730
  1.0310    0.23210
  1.0330    0.22680
  1.0350    0.22150
  1.0370    0.21630
  1.0390    0.21110
  1.0410    0.20600
  1.0430    0.20090
  1.0450    0.19590
  1.0470    0.19090
  1.0490    0.18590
  1.0510    0.18110
  1.0530    0.17640
  1.0550    0.17170
  1.0570    0.16720
  1.0590    0.16280
  1.0610    0.15870
  1.0630    0.15460
  1.0650    0.15070
  1.0670    0.14690
  1.0690    0.14340
  1.0710    0.14010
  1.0730    0.13690
  1.0750    0.13390
  1.0770    0.13100
  1.0790    0.12830
  1.0810    0.12590
  1.0830    0.12370
  1.0850    0.12170
  1.0870    0.11990
  1.0890    0.11820
  1.0910    0.11670
  1.0930    0.11540
  1.0950    0.11410
  1.0970    0.11320
  1.0990    0.11240
  1.1010    0.11160
  1.1030    0.11100
  1.1050    0.11050
  1.1070    0.11010
  1.1090    0.10990
  1.1110    0.10970
  1.1130    0.10970
  1.1150    0.10980
  1.1170    0.10990
  1.1190    0.10990
  1.1210    0.11000
  1.1230    0.11020
  1.1250    0.11040
  1.1270    0.11050
  1.1290    0.11070
  1.1310    0.11070
  1.1330    0.11060
  1.1350    0.11050
  1.1370    0.11040
  1.1390    0.11030
  1.1410    0.11000
  1.1430    0.10970
  1.1450    0.10940
  1.1470    0.10900
  1.1490    0.10840
  1.1510    0.10790
  1.1530    0.10720
  1.1550    0.10630
  1.1570    0.10530
  1.1590    0.10410
  1.1610    0.10290
  1.1630    0.10150
  1.1650    0.10010
  1.1670    0.09850
  1.1690    0.09680
  1.1710    0.09490
  1.1730    0.09290
  1.1750    0.09080
  1.1770    0.08870
  1.1790    0.08640
  1.1810    0.08400
  1.1830    0.08160
  1.1850    0.07930
  1.1870    0.07680
  1.1890    0.07420
  1.1910    0.07150
  1.1930    0.06880
  1.1950    0.06620
  1.1970    0.06330
  1.1990    0.06040
  1.2010    0.05760
  1.2030    0.05480
  1.2050    0.05200
  1.2070    0.04910
  1.2090    0.04620
  1.2110    0.04330
  1.2130    0.04040
  1.2150    0.03750
  1.2170    0.03480
  1.2190    0.03210
  1.2210    0.02940
  1.2230    0.02670
  1.2250    0.02400
  1.2270    0.02140
  1.2290    0.01880
  1.2310    0.01640
  1.2330    0.01390
  1.2350    0.01160
  1.2370    0.00930
  1.2390    0.00700
  1.2410    0.00470
  1.2430    0.00260
  1.2450    0.00050
  1.2470   -0.00160
  1.2490   -0.00340
  1.2510   -0.00530
  1.2530   -0.00720
  1.2550   -0.00900
  1.2570   -0.01070
  1.2590   -0.01240
  1.2610   -0.01400
  1.2630   -0.01570
  1.2650   -0.01730
  1.2670   -0.01890
  1.2690   -0.02040
  1.2710   -0.02190
  1.2730   -0.02330
  1.2750   -0.02470
  1.2770   -0.02610
  1.2790   -0.02740
  1.2810   -0.02870
  1.2830   -0.03000
  1.2850   -0.03130
  1.2870   -0.03250
  1.2890   -0.03360
  1.2910   -0.03480
  1.2930   -0.03590
  1.2950   -0.03690
  1.2970   -0.03790
  1.2990   -0.03870
  1.3010   -0.03960
  1.3030   -0.04040
  1.3050   -0.04110
  1.3070   -0.04180
  1.3090   -0.04240
  1.3110   -0.04280
  1.3130   -0.04320
  1.3150   -0.04350
  1.3170   -0.04370
  1.3190   -0.04380
  1.3210   -0.04370
  1.3230   -0.04340
  1.3250   -0.04290
  1.3270   -0.04230
  1.3290   -0.04150
  1.3310   -0.04050
  1.3330   -0.03930
  1.3350   -0.03800
  1.3370   -0.03650
  1.3390   -0.03470
  1.3410   -0.03260
  1.3430   -0.03030
  1.3450   -0.02780
  1.3470   -0.02520
  1.3490   -0.02230
  1.3510   -0.01920
  1.3530   -0.01590
  1.3550   -0.01220
  1.3570   -0.00850
  1.3590   -0.00470
  1.3610   -0.00050
  1.3630    0.00400
  1.3650    0.00870
  1.3670    0.01350
  1.3690    0.01870
  1.3710    0.02400
  1.3730    0.02950
  1.3750    0.03520
  1.3770    0.04100
  1.3790    0.04700
  1.3810    0.05300
  1.3830    0.05900
  1.3850    0.06490
  1.3870    0.07090
  1.3890    0.07690
  1.3910    0.08290
  1.3930    0.08860
  1.3950    0.09380
  1.3970    0.09870
  1.3990    0.10350
