# z (nm)   (kJ/mol)
  0.421000, 22.290000
  0.423000, 22.016000
  0.427000, 21.702700
  0.429000, 21.374700
  0.431000, 21.059600
  0.433000, 20.734000
  0.435000, 20.429800
  0.437000, 20.090300
  0.439000, 19.718700
  0.441000, 19.357400
  0.443000, 18.988900
  0.445000, 18.624100
  0.447000, 18.252700
  0.449000, 17.872600
  0.451000, 17.492800
  0.453000, 17.110000
  0.455000, 16.729800
  0.457000, 16.343600
  0.459000, 15.955400
  0.461000, 15.570000
  0.463000, 15.184200
  0.465000, 14.801300
  0.467000, 14.416700
  0.469000, 14.029800
  0.471000, 13.640500
  0.473000, 13.253100
  0.475000, 12.870100
  0.477000, 12.487600
  0.479000, 12.112800
  0.481000, 11.744900
  0.483000, 11.380300
  0.485000, 11.023000
  0.487000, 10.673600
  0.489000, 10.329300
  0.491000,  9.989200
  0.493000,  9.653100
  0.495000,  9.323200
  0.497000,  8.997300
  0.499000,  8.678200
  0.501000,  8.369100
  0.503000,  8.067300
  0.505000,  7.773300
  0.507000,  7.486500
  0.509000,  7.206200
  0.511000,  6.932900
  0.513000,  6.667500
  0.515000,  6.411800
  0.517000,  6.164800
  0.519000,  5.923400
  0.521000,  5.688600
  0.523000,  5.459500
  0.525000,  5.237900
  0.527000,  5.024600
  0.529000,  4.818300
  0.531000,  4.618500
  0.533000,  4.425100
  0.535000,  4.238000
  0.537000,  4.058400
  0.539000,  3.885700
  0.541000,  3.719900
  0.543000,  3.560600
  0.545000,  3.407200
  0.547000,  3.260500
  0.549000,  3.119600
  0.551000,  2.984600
  0.553000,  2.855000
  0.555000,  2.730700
  0.557000,  2.613100
  0.559000,  2.501400
  0.561000,  2.395100
  0.563000,  2.294100
  0.565000,  2.198400
  0.567000,  2.107800
  0.569000,  2.021500
  0.571000,  1.939900
  0.573000,  1.863900
  0.575000,  1.791900
  0.577000,  1.723500
  0.579000,  1.659500
  0.581000,  1.599600
  0.583000,  1.543600
  0.585000,  1.491300
  0.587000,  1.442100
  0.589000,  1.396000
  0.591000,  1.353100
  0.593000,  1.312700
  0.595000,  1.274500
  0.597000,  1.238400
  0.599000,  1.204800
  0.601000,  1.173500
  0.603000,  1.144000
  0.605000,  1.116400
  0.607000,  1.090700
  0.609000,  1.066200
  0.611000,  1.043100
  0.613000,  1.021200
  0.615000,  1.000400
  0.617000,  0.980600
  0.619000,  0.961200
  0.621000,  0.942400
  0.623000,  0.924200
  0.625000,  0.906700
  0.627000,  0.889400
  0.629000,  0.872200
  0.631000,  0.855600
  0.633000,  0.839200
  0.635000,  0.822700
  0.637000,  0.806400
  0.639000,  0.790300
  0.641000,  0.774100
  0.643000,  0.757800
  0.645000,  0.741600
  0.647000,  0.725500
  0.649000,  0.709500
  0.651000,  0.693500
  0.653000,  0.677700
  0.655000,  0.662000
  0.657000,  0.646400
  0.659000,  0.631000
  0.661000,  0.615600
  0.663000,  0.600200
  0.665000,  0.585100
  0.667000,  0.570300
  0.669000,  0.555600
  0.671000,  0.541100
  0.673000,  0.526900
  0.675000,  0.513100
  0.677000,  0.499700
  0.679000,  0.486700
  0.681000,  0.474000
  0.683000,  0.462000
  0.685000,  0.450300
  0.687000,  0.439200
  0.689000,  0.428600
  0.691000,  0.418500
  0.693000,  0.408900
  0.695000,  0.399800
  0.697000,  0.391300
  0.699000,  0.383300
  0.701000,  0.375900
  0.703000,  0.369100
  0.705000,  0.362700
  0.707000,  0.356900
  0.709000,  0.351600
  0.711000,  0.346800
  0.713000,  0.342500
  0.715000,  0.338700
  0.717000,  0.335200
  0.719000,  0.332200
  0.721000,  0.329500
  0.723000,  0.327200
  0.725000,  0.325300
  0.727000,  0.323600
  0.729000,  0.322200
  0.731000,  0.321000
  0.733000,  0.319800
  0.735000,  0.318900
  0.737000,  0.318200
  0.739000,  0.317500
  0.741000,  0.316800
  0.743000,  0.316200
  0.745000,  0.315600
  0.747000,  0.314800
  0.749000,  0.314000
  0.751000,  0.313200
  0.753000,  0.312200
  0.755000,  0.311000
  0.757000,  0.309700
  0.759000,  0.308200
  0.761000,  0.306500
  0.763000,  0.304500
  0.765000,  0.302200
  0.767000,  0.299600
  0.769000,  0.296800
  0.771000,  0.293700
  0.773000,  0.290300
  0.775000,  0.286700
  0.777000,  0.282700
  0.779000,  0.278300
  0.781000,  0.273600
  0.783000,  0.268700
  0.785000,  0.263700
  0.787000,  0.258500
  0.789000,  0.253000
  0.791000,  0.247300
  0.793000,  0.241400
  0.795000,  0.235400
  0.797000,  0.229300
  0.799000,  0.222900
  0.801000,  0.216500
  0.803000,  0.209900
  0.805000,  0.203200
  0.807000,  0.196700
  0.809000,  0.190100
  0.811000,  0.183500
  0.813000,  0.177000
  0.815000,  0.170500
  0.817000,  0.164200
  0.819000,  0.158000
  0.821000,  0.151900
  0.823000,  0.146000
  0.825000,  0.140300
  0.827000,  0.135000
  0.829000,  0.129700
  0.831000,  0.124800
  0.833000,  0.120200
  0.835000,  0.116000
  0.837000,  0.112000
  0.839000,  0.108300
  0.841000,  0.104900
  0.843000,  0.101800
  0.845000,  0.099200
  0.847000,  0.097000
  0.849000,  0.095100
  0.851000,  0.093600
  0.853000,  0.092500
  0.855000,  0.091600
  0.857000,  0.091200
  0.859000,  0.091200
  0.861000,  0.091600
  0.863000,  0.092300
  0.865000,  0.093300
  0.867000,  0.094800
  0.869000,  0.096600
  0.871000,  0.098700
  0.873000,  0.101200
  0.875000,  0.104000
  0.877000,  0.107200
  0.879000,  0.110800
  0.881000,  0.114700
  0.883000,  0.118800
  0.885000,  0.123000
  0.887000,  0.127600
  0.889000,  0.132400
  0.891000,  0.137400
  0.893000,  0.142600
  0.895000,  0.147800
  0.897000,  0.153400
  0.899000,  0.159200
  0.901000,  0.165000
  0.903000,  0.171100
  0.905000,  0.177300
  0.907000,  0.183500
  0.909000,  0.189700
  0.911000,  0.196100
  0.913000,  0.202300
  0.915000,  0.208500
  0.917000,  0.214900
  0.919000,  0.221300
  0.921000,  0.227500
  0.923000,  0.233600
  0.925000,  0.239700
  0.927000,  0.245800
  0.929000,  0.251600
  0.931000,  0.257300
  0.933000,  0.262900
  0.935000,  0.268300
  0.937000,  0.273500
  0.939000,  0.278500
  0.941000,  0.283300
  0.943000,  0.287900
  0.945000,  0.292200
  0.947000,  0.296300
  0.949000,  0.300200
  0.951000,  0.303800
  0.953000,  0.307100
  0.955000,  0.310300
  0.957000,  0.313000
  0.959000,  0.315400
  0.961000,  0.317600
  0.963000,  0.319500
  0.965000,  0.321000
  0.967000,  0.322400
  0.969000,  0.323400
  0.971000,  0.324100
  0.973000,  0.324400
  0.975000,  0.324500
  0.977000,  0.324200
  0.979000,  0.323600
  0.981000,  0.322800
  0.983000,  0.321700
  0.985000,  0.320400
  0.987000,  0.318700
  0.989000,  0.316800
  0.991000,  0.314600
  0.993000,  0.312200
  0.995000,  0.309600
  0.997000,  0.306700
  0.999000,  0.303600
  1.001000,  0.300300
  1.003000,  0.296800
  1.005000,  0.293100
  1.007000,  0.289200
  1.009000,  0.285200
  1.011000,  0.281000
  1.013000,  0.276500
  1.015000,  0.271900
  1.017000,  0.267300
  1.019000,  0.262500
  1.021000,  0.257600
  1.023000,  0.252600
  1.025000,  0.247600
  1.027000,  0.242500
  1.029000,  0.237300
  1.031000,  0.232100
  1.033000,  0.226800
  1.035000,  0.221500
  1.037000,  0.216300
  1.039000,  0.211100
  1.041000,  0.206000
  1.043000,  0.200900
  1.045000,  0.195900
  1.047000,  0.190900
  1.049000,  0.185900
  1.051000,  0.181100
  1.053000,  0.176400
  1.055000,  0.171700
  1.057000,  0.167200
  1.059000,  0.162800
  1.061000,  0.158700
  1.063000,  0.154600
  1.065000,  0.150700
  1.067000,  0.146900
  1.069000,  0.143400
  1.071000,  0.140100
  1.073000,  0.136900
  1.075000,  0.133900
  1.077000,  0.131000
  1.079000,  0.128300
  1.081000,  0.125900
  1.083000,  0.123700
  1.085000,  0.121700
  1.087000,  0.119900
  1.089000,  0.118200
  1.091000,  0.116700
  1.093000,  0.115400
  1.095000,  0.114100
  1.097000,  0.113200
  1.099000,  0.112400
  1.101000,  0.111600
  1.103000,  0.111000
  1.105000,  0.110500
  1.107000,  0.110100
  1.109000,  0.109900
  1.111000,  0.109700
  1.113000,  0.109700
  1.115000,  0.109800
  1.117000,  0.109900
  1.119000,  0.109900
  1.121000,  0.110000
  1.123000,  0.110200
  1.125000,  0.110400
  1.127000,  0.110500
  1.129000,  0.110700
  1.131000,  0.110700
  1.133000,  0.110600
  1.135000,  0.110500
  1.137000,  0.110400
  1.139000,  0.110300
  1.141000,  0.110000
  1.143000,  0.109700
  1.145000,  0.109400
  1.147000,  0.109000
  1.149000,  0.108400
  1.151000,  0.107900
  1.153000,  0.107200
  1.155000,  0.106300
  1.157000,  0.105300
  1.159000,  0.104100
  1.161000,  0.102900
  1.163000,  0.101500
  1.165000,  0.100100
  1.167000,  0.098500
  1.169000,  0.096800
  1.171000,  0.094900
  1.173000,  0.092900
  1.175000,  0.090800
  1.177000,  0.088700
  1.179000,  0.086400
  1.181000,  0.084000
  1.183000,  0.081600
  1.185000,  0.079300
  1.187000,  0.076800
  1.189000,  0.074200
  1.191000,  0.071500
  1.193000,  0.068800
  1.195000,  0.066200
  1.197000,  0.063300
  1.199000,  0.060400
  1.201000,  0.057600
  1.203000,  0.054800
  1.205000,  0.052000
  1.207000,  0.049100
  1.209000,  0.046200
  1.211000,  0.043300
  1.213000,  0.040400
  1.215000,  0.037500
  1.217000,  0.034800
  1.219000,  0.032100
  1.221000,  0.029400
  1.223000,  0.026700
  1.225000,  0.024000
  1.227000,  0.021400
  1.229000,  0.018800
  1.231000,  0.016400
  1.233000,  0.013900
  1.235000,  0.011600
  1.237000,  0.009300
  1.239000,  0.007000
  1.241000,  0.004700
  1.243000,  0.002600
  1.245000,  0.000500
  1.247000, -0.001600
  1.249000, -0.003400
  1.251000, -0.005300
  1.253000, -0.007200
  1.255000, -0.009000
  1.257000, -0.010700
  1.259000, -0.012400
  1.261000, -0.014000
  1.263000, -0.015700
  1.265000, -0.017300
  1.267000, -0.018900
  1.269000, -0.020400
  1.271000, -0.021900
  1.273000, -0.023300
  1.275000, -0.024700
  1.277000, -0.026100
  1.279000, -0.027400
  1.281000, -0.028700
  1.283000, -0.030000
  1.285000, -0.031300
  1.287000, -0.032500
  1.289000, -0.033600
  1.291000, -0.034800
  1.293000, -0.035900
  1.295000, -0.036900
  1.297000, -0.037900
  1.299000, -0.038700
  1.301000, -0.039600
  1.303000, -0.040400
  1.305000, -0.041100
  1.307000, -0.041800
  1.309000, -0.042400
  1.311000, -0.042800
  1.313000, -0.043200
  1.315000, -0.043500
  1.317000, -0.043700
  1.319000, -0.043800
  1.321000, -0.043700
  1.323000, -0.043400
  1.325000, -0.042900
  1.327000, -0.042300
  1.329000, -0.041500
  1.331000, -0.040500
  1.333000, -0.039300
  1.335000, -0.038000
  1.337000, -0.036500
  1.339000, -0.034700
  1.341000, -0.032600
  1.343000, -0.030300
  1.345000, -0.027800
  1.347000, -0.025200
  1.349000, -0.022300
  1.351000, -0.019200
  1.353000, -0.015900
  1.355000, -0.012200
  1.357000, -0.008500
  1.359000, -0.004700
  1.361000, -0.000500
  1.363000,  0.004000
  1.365000,  0.008700
  1.367000,  0.013500
  1.369000,  0.018700
  1.371000,  0.024000
  1.373000,  0.029500
  1.375000,  0.035200
  1.377000,  0.041000
  1.379000,  0.047000
  1.381000,  0.053000
  1.383000,  0.059000
  1.385000,  0.064900
  1.387000,  0.070900
  1.389000,  0.076900
  1.391000,  0.082900
  1.393000,  0.088600
  1.395000,  0.093800
  1.397000,  0.098700
  1.399000,  0.103500
