# z (nm)   (kJ/mol)
  0.4550   14.93550
  0.4570   14.63670
  0.4590   14.25850
  0.4610   13.82930
  0.4630   13.34160
  0.4650   12.86960
  0.4670   12.41040
  0.4690   11.92580
  0.4710   11.43200
  0.4730   10.92680
  0.4750   10.40750
  0.4770    9.88310
  0.4790    9.34560
  0.4810    8.79660
  0.4830    8.24470
  0.4850    7.68700
  0.4870    7.12650
  0.4890    6.56690
  0.4910    6.01350
  0.4930    5.46300
  0.4950    4.91900
  0.4970    4.38640
  0.4990    3.86360
  0.5010    3.35100
  0.5030    2.85090
  0.5050    2.36630
  0.5070    1.89750
  0.5090    1.44940
  0.5110    1.02200
  0.5130    0.61230
  0.5150    0.22240
  0.5170   -0.14710
  0.5190   -0.49890
  0.5210   -0.83490
  0.5230   -1.15580
  0.5250   -1.46110
  0.5270   -1.74990
  0.5290   -2.02400
  0.5310   -2.28370
  0.5330   -2.52990
  0.5350   -2.76250
  0.5370   -2.98130
  0.5390   -3.18710
  0.5410   -3.38020
  0.5430   -3.56070
  0.5450   -3.72760
  0.5470   -3.88050
  0.5490   -4.02200
  0.5510   -4.15170
  0.5530   -4.26600
  0.5550   -4.36620
  0.5570   -4.45390
  0.5590   -4.52880
  0.5610   -4.58960
  0.5630   -4.63750
  0.5650   -4.67380
  0.5670   -4.69560
  0.5690   -4.70290
  0.5710   -4.69750
  0.5730   -4.68100
  0.5750   -4.65190
  0.5770   -4.60990
  0.5790   -4.55800
  0.5810   -4.49590
  0.5830   -4.42370
  0.5850   -4.34330
  0.5870   -4.25610
  0.5890   -4.16240
  0.5910   -4.06160
  0.5930   -3.95650
  0.5950   -3.84910
  0.5970   -3.73810
  0.5990   -3.62440
  0.6010   -3.50950
  0.6030   -3.39280
  0.6050   -3.27580
  0.6070   -3.16060
  0.6090   -3.04730
  0.6110   -2.93660
  0.6130   -2.82860
  0.6150   -2.72220
  0.6170   -2.61800
  0.6190   -2.51750
  0.6210   -2.42190
  0.6230   -2.33050
  0.6250   -2.24200
  0.6270   -2.15760
  0.6290   -2.07850
  0.6310   -2.00520
  0.6330   -1.93760
  0.6350   -1.87530
  0.6370   -1.81770
  0.6390   -1.76470
  0.6410   -1.71730
  0.6430   -1.67540
  0.6450   -1.63950
  0.6470   -1.60980
  0.6490   -1.58520
  0.6510   -1.56490
  0.6530   -1.55020
  0.6550   -1.54150
  0.6570   -1.53750
  0.6590   -1.53740
  0.6610   -1.54170
  0.6630   -1.55050
  0.6650   -1.56300
  0.6670   -1.57990
  0.6690   -1.60130
  0.6710   -1.62560
  0.6730   -1.65330
  0.6750   -1.68460
  0.6770   -1.71860
  0.6790   -1.75540
  0.6810   -1.79460
  0.6830   -1.83680
  0.6850   -1.88090
  0.6870   -1.92620
  0.6890   -1.97290
  0.6910   -2.02040
  0.6930   -2.06890
  0.6950   -2.11810
  0.6970   -2.16830
  0.6990   -2.21900
  0.7010   -2.26920
  0.7030   -2.31910
  0.7050   -2.36850
  0.7070   -2.41740
  0.7090   -2.46530
  0.7110   -2.51190
  0.7130   -2.55700
  0.7150   -2.60050
  0.7170   -2.64270
  0.7190   -2.68330
  0.7210   -2.72180
  0.7230   -2.75810
  0.7250   -2.79200
  0.7270   -2.82370
  0.7290   -2.85310
  0.7310   -2.87970
  0.7330   -2.90350
  0.7350   -2.92480
  0.7370   -2.94310
  0.7390   -2.95830
  0.7410   -2.97050
  0.7430   -2.98010
  0.7450   -2.98680
  0.7470   -2.99050
  0.7490   -2.99130
  0.7510   -2.98910
  0.7530   -2.98370
  0.7550   -2.97570
  0.7570   -2.96480
  0.7590   -2.95090
  0.7610   -2.93470
  0.7630   -2.91590
  0.7650   -2.89450
  0.7670   -2.87040
  0.7690   -2.84430
  0.7710   -2.81590
  0.7730   -2.78490
  0.7750   -2.75180
  0.7770   -2.71640
  0.7790   -2.67920
  0.7810   -2.64040
  0.7830   -2.60000
  0.7850   -2.55850
  0.7870   -2.51530
  0.7890   -2.47040
  0.7910   -2.42430
  0.7930   -2.37710
  0.7950   -2.32930
  0.7970   -2.28090
  0.7990   -2.23170
  0.8010   -2.18140
  0.8030   -2.13050
  0.8050   -2.07930
  0.8070   -2.02800
  0.8090   -1.97670
  0.8110   -1.92550
  0.8130   -1.87440
  0.8150   -1.82370
  0.8170   -1.77340
  0.8190   -1.72360
  0.8210   -1.67440
  0.8230   -1.62550
  0.8250   -1.57730
  0.8270   -1.53040
  0.8290   -1.48420
  0.8310   -1.43880
  0.8330   -1.39440
  0.8350   -1.35120
  0.8370   -1.30880
  0.8390   -1.26780
  0.8410   -1.22800
  0.8430   -1.18950
  0.8450   -1.15250
  0.8470   -1.11670
  0.8490   -1.08220
  0.8510   -1.04920
  0.8530   -1.01760
  0.8550   -0.98730
  0.8570   -0.95820
  0.8590   -0.93030
  0.8610   -0.90400
  0.8630   -0.87920
  0.8650   -0.85580
  0.8670   -0.83380
  0.8690   -0.81320
  0.8710   -0.79390
  0.8730   -0.77560
  0.8750   -0.75870
  0.8770   -0.74310
  0.8790   -0.72860
  0.8810   -0.71510
  0.8830   -0.70260
  0.8850   -0.69120
  0.8870   -0.68090
  0.8890   -0.67160
  0.8910   -0.66320
  0.8930   -0.65570
  0.8950   -0.64880
  0.8970   -0.64280
  0.8990   -0.63750
  0.9010   -0.63280
  0.9030   -0.62880
  0.9050   -0.62550
  0.9070   -0.62280
  0.9090   -0.62060
  0.9110   -0.61880
  0.9130   -0.61740
  0.9150   -0.61640
  0.9170   -0.61560
  0.9190   -0.61520
  0.9210   -0.61510
  0.9230   -0.61510
  0.9250   -0.61520
  0.9270   -0.61560
  0.9290   -0.61600
  0.9310   -0.61650
  0.9330   -0.61710
  0.9350   -0.61780
  0.9370   -0.61850
  0.9390   -0.61920
  0.9410   -0.61990
  0.9430   -0.62030
  0.9450   -0.62070
  0.9470   -0.62080
  0.9490   -0.62080
  0.9510   -0.62070
  0.9530   -0.62060
  0.9550   -0.62040
  0.9570   -0.62000
  0.9590   -0.61950
  0.9610   -0.61880
  0.9630   -0.61790
  0.9650   -0.61650
  0.9670   -0.61480
  0.9690   -0.61310
  0.9710   -0.61100
  0.9730   -0.60880
  0.9750   -0.60650
  0.9770   -0.60380
  0.9790   -0.60070
  0.9810   -0.59750
  0.9830   -0.59390
  0.9850   -0.59000
  0.9870   -0.58580
  0.9890   -0.58160
  0.9910   -0.57710
  0.9930   -0.57250
  0.9950   -0.56760
  0.9970   -0.56250
  0.9990   -0.55720
  1.0010   -0.55150
  1.0030   -0.54560
  1.0050   -0.53960
  1.0070   -0.53350
  1.0090   -0.52700
  1.0110   -0.52050
  1.0130   -0.51400
  1.0150   -0.50720
  1.0170   -0.50030
  1.0190   -0.49300
  1.0210   -0.48550
  1.0230   -0.47810
  1.0250   -0.47060
  1.0270   -0.46300
  1.0290   -0.45510
  1.0310   -0.44710
  1.0330   -0.43900
  1.0350   -0.43080
  1.0370   -0.42260
  1.0390   -0.41440
  1.0410   -0.40610
  1.0430   -0.39790
  1.0450   -0.38960
  1.0470   -0.38110
  1.0490   -0.37280
  1.0510   -0.36430
  1.0530   -0.35570
  1.0550   -0.34730
  1.0570   -0.33890
  1.0590   -0.33050
  1.0610   -0.32200
  1.0630   -0.31350
  1.0650   -0.30510
  1.0670   -0.29680
  1.0690   -0.28850
  1.0710   -0.28030
  1.0730   -0.27230
  1.0750   -0.26440
  1.0770   -0.25660
  1.0790   -0.24890
  1.0810   -0.24140
  1.0830   -0.23390
  1.0850   -0.22660
  1.0870   -0.21940
  1.0890   -0.21240
  1.0910   -0.20550
  1.0930   -0.19870
  1.0950   -0.19220
  1.0970   -0.18580
  1.0990   -0.17960
  1.1010   -0.17360
  1.1030   -0.16790
  1.1050   -0.16230
  1.1070   -0.15690
  1.1090   -0.15180
  1.1110   -0.14690
  1.1130   -0.14220
  1.1150   -0.13770
  1.1170   -0.13340
  1.1190   -0.12920
  1.1210   -0.12540
  1.1230   -0.12190
  1.1250   -0.11860
  1.1270   -0.11540
  1.1290   -0.11250
  1.1310   -0.10970
  1.1330   -0.10720
  1.1350   -0.10490
  1.1370   -0.10280
  1.1390   -0.10080
  1.1410   -0.09910
  1.1430   -0.09760
  1.1450   -0.09620
  1.1470   -0.09500
  1.1490   -0.09390
  1.1510   -0.09300
  1.1530   -0.09220
  1.1550   -0.09150
  1.1570   -0.09090
  1.1590   -0.09040
  1.1610   -0.08990
  1.1630   -0.08950
  1.1650   -0.08920
  1.1670   -0.08900
  1.1690   -0.08880
  1.1710   -0.08870
  1.1730   -0.08860
  1.1750   -0.08840
  1.1770   -0.08830
  1.1790   -0.08820
  1.1810   -0.08810
  1.1830   -0.08800
  1.1850   -0.08770
  1.1870   -0.08740
  1.1890   -0.08700
  1.1910   -0.08660
  1.1930   -0.08610
  1.1950   -0.08550
  1.1970   -0.08490
  1.1990   -0.08430
  1.2010   -0.08360
  1.2030   -0.08280
  1.2050   -0.08180
  1.2070   -0.08100
  1.2090   -0.08010
  1.2110   -0.07910
  1.2130   -0.07820
  1.2150   -0.07700
  1.2170   -0.07560
  1.2190   -0.07440
  1.2210   -0.07300
  1.2230   -0.07160
  1.2250   -0.07020
  1.2270   -0.06870
  1.2290   -0.06710
  1.2310   -0.06540
  1.2330   -0.06380
  1.2350   -0.06210
  1.2370   -0.06030
  1.2390   -0.05850
  1.2410   -0.05660
  1.2430   -0.05480
  1.2450   -0.05300
  1.2470   -0.05110
  1.2490   -0.04920
  1.2510   -0.04740
  1.2530   -0.04570
  1.2550   -0.04380
  1.2570   -0.04190
  1.2590   -0.04000
  1.2610   -0.03810
  1.2630   -0.03630
  1.2650   -0.03460
  1.2670   -0.03290
  1.2690   -0.03110
  1.2710   -0.02930
  1.2730   -0.02770
  1.2750   -0.02600
  1.2770   -0.02420
  1.2790   -0.02250
  1.2810   -0.02070
  1.2830   -0.01910
  1.2850   -0.01770
  1.2870   -0.01630
  1.2890   -0.01470
  1.2910   -0.01300
  1.2930   -0.01160
  1.2950   -0.01020
  1.2970   -0.00890
  1.2990   -0.00770
  1.3010   -0.00640
  1.3030   -0.00490
  1.3050   -0.00360
  1.3070   -0.00220
  1.3090   -0.00070
  1.3110    0.00080
  1.3130    0.00230
  1.3150    0.00380
  1.3170    0.00520
  1.3190    0.00680
  1.3210    0.00850
  1.3230    0.01020
  1.3250    0.01190
  1.3270    0.01380
  1.3290    0.01580
  1.3310    0.01770
  1.3330    0.01980
  1.3350    0.02200
  1.3370    0.02430
  1.3390    0.02670
  1.3410    0.02910
  1.3430    0.03170
  1.3450    0.03440
  1.3470    0.03720
  1.3490    0.04010
  1.3510    0.04320
  1.3530    0.04640
  1.3550    0.04950
  1.3570    0.05290
  1.3590    0.05630
  1.3610    0.05970
  1.3630    0.06330
  1.3650    0.06690
  1.3670    0.07060
  1.3690    0.07430
  1.3710    0.07810
  1.3730    0.08190
  1.3750    0.08580
  1.3770    0.08970
  1.3790    0.09370
  1.3810    0.09760
  1.3830    0.10130
  1.3850    0.10500
  1.3870    0.10850
  1.3890    0.11200
  1.3910    0.11550
  1.3930    0.11860
  1.3950    0.12130
  1.3970    0.12380
  1.3990    0.12600
