# z (nm)   (kJ/mol)
  0.455000, 14.935500
  0.457000, 14.636700
  0.459000, 14.258500
  0.461000, 13.829300
  0.463000, 13.341600
  0.465000, 12.869600
  0.467000, 12.410400
  0.469000, 11.925800
  0.471000, 11.432000
  0.473000, 10.926800
  0.475000, 10.407500
  0.477000,  9.883100
  0.479000,  9.345600
  0.481000,  8.796600
  0.483000,  8.244700
  0.485000,  7.687000
  0.487000,  7.126500
  0.489000,  6.566900
  0.491000,  6.013500
  0.493000,  5.463000
  0.495000,  4.919000
  0.497000,  4.386400
  0.499000,  3.863600
  0.501000,  3.351000
  0.503000,  2.850900
  0.505000,  2.366300
  0.507000,  1.897500
  0.509000,  1.449400
  0.511000,  1.022000
  0.513000,  0.612300
  0.515000,  0.222400
  0.517000, -0.147100
  0.519000, -0.498900
  0.521000, -0.834900
  0.523000, -1.155800
  0.525000, -1.461100
  0.527000, -1.749900
  0.529000, -2.024000
  0.531000, -2.283700
  0.533000, -2.529900
  0.535000, -2.762500
  0.537000, -2.981300
  0.539000, -3.187100
  0.541000, -3.380200
  0.543000, -3.560700
  0.545000, -3.727600
  0.547000, -3.880500
  0.549000, -4.022000
  0.551000, -4.151700
  0.553000, -4.266000
  0.555000, -4.366200
  0.557000, -4.453900
  0.559000, -4.528800
  0.561000, -4.589600
  0.563000, -4.637500
  0.565000, -4.673800
  0.567000, -4.695600
  0.569000, -4.702900
  0.571000, -4.697500
  0.573000, -4.681000
  0.575000, -4.651900
  0.577000, -4.609900
  0.579000, -4.558000
  0.581000, -4.495900
  0.583000, -4.423700
  0.585000, -4.343300
  0.587000, -4.256100
  0.589000, -4.162400
  0.591000, -4.061600
  0.593000, -3.956500
  0.595000, -3.849100
  0.597000, -3.738100
  0.599000, -3.624400
  0.601000, -3.509500
  0.603000, -3.392800
  0.605000, -3.275800
  0.607000, -3.160600
  0.609000, -3.047300
  0.611000, -2.936600
  0.613000, -2.828600
  0.615000, -2.722200
  0.617000, -2.618000
  0.619000, -2.517500
  0.621000, -2.421900
  0.623000, -2.330500
  0.625000, -2.242000
  0.627000, -2.157600
  0.629000, -2.078500
  0.631000, -2.005200
  0.633000, -1.937600
  0.635000, -1.875300
  0.637000, -1.817700
  0.639000, -1.764700
  0.641000, -1.717300
  0.643000, -1.675400
  0.645000, -1.639500
  0.647000, -1.609800
  0.649000, -1.585200
  0.651000, -1.564900
  0.653000, -1.550200
  0.655000, -1.541500
  0.657000, -1.537500
  0.659000, -1.537400
  0.661000, -1.541700
  0.663000, -1.550500
  0.665000, -1.563000
  0.667000, -1.579900
  0.669000, -1.601300
  0.671000, -1.625600
  0.673000, -1.653300
  0.675000, -1.684600
  0.677000, -1.718600
  0.679000, -1.755400
  0.681000, -1.794600
  0.683000, -1.836800
  0.685000, -1.880900
  0.687000, -1.926200
  0.689000, -1.972900
  0.691000, -2.020400
  0.693000, -2.068900
  0.695000, -2.118100
  0.697000, -2.168300
  0.699000, -2.219000
  0.701000, -2.269200
  0.703000, -2.319100
  0.705000, -2.368500
  0.707000, -2.417400
  0.709000, -2.465300
  0.711000, -2.511900
  0.713000, -2.557000
  0.715000, -2.600500
  0.717000, -2.642700
  0.719000, -2.683300
  0.721000, -2.721800
  0.723000, -2.758100
  0.725000, -2.792000
  0.727000, -2.823700
  0.729000, -2.853100
  0.731000, -2.879700
  0.733000, -2.903500
  0.735000, -2.924800
  0.737000, -2.943100
  0.739000, -2.958300
  0.741000, -2.970500
  0.743000, -2.980100
  0.745000, -2.986800
  0.747000, -2.990500
  0.749000, -2.991300
  0.751000, -2.989100
  0.753000, -2.983700
  0.755000, -2.975700
  0.757000, -2.964800
  0.759000, -2.950900
  0.761000, -2.934700
  0.763000, -2.915900
  0.765000, -2.894500
  0.767000, -2.870400
  0.769000, -2.844300
  0.771000, -2.815900
  0.773000, -2.784900
  0.775000, -2.751800
  0.777000, -2.716400
  0.779000, -2.679200
  0.781000, -2.640400
  0.783000, -2.600000
  0.785000, -2.558500
  0.787000, -2.515300
  0.789000, -2.470400
  0.791000, -2.424300
  0.793000, -2.377100
  0.795000, -2.329300
  0.797000, -2.280900
  0.799000, -2.231700
  0.801000, -2.181400
  0.803000, -2.130500
  0.805000, -2.079300
  0.807000, -2.028000
  0.809000, -1.976700
  0.811000, -1.925500
  0.813000, -1.874400
  0.815000, -1.823700
  0.817000, -1.773400
  0.819000, -1.723600
  0.821000, -1.674400
  0.823000, -1.625500
  0.825000, -1.577300
  0.827000, -1.530400
  0.829000, -1.484200
  0.831000, -1.438800
  0.833000, -1.394400
  0.835000, -1.351200
  0.837000, -1.308800
  0.839000, -1.267800
  0.841000, -1.228000
  0.843000, -1.189500
  0.845000, -1.152500
  0.847000, -1.116700
  0.849000, -1.082200
  0.851000, -1.049200
  0.853000, -1.017600
  0.855000, -0.987300
  0.857000, -0.958200
  0.859000, -0.930300
  0.861000, -0.904000
  0.863000, -0.879200
  0.865000, -0.855800
  0.867000, -0.833800
  0.869000, -0.813200
  0.871000, -0.793900
  0.873000, -0.775600
  0.875000, -0.758700
  0.877000, -0.743100
  0.879000, -0.728600
  0.881000, -0.715100
  0.883000, -0.702600
  0.885000, -0.691200
  0.887000, -0.680900
  0.889000, -0.671600
  0.891000, -0.663200
  0.893000, -0.655700
  0.895000, -0.648800
  0.897000, -0.642800
  0.899000, -0.637500
  0.901000, -0.632800
  0.903000, -0.628800
  0.905000, -0.625500
  0.907000, -0.622800
  0.909000, -0.620600
  0.911000, -0.618800
  0.913000, -0.617400
  0.915000, -0.616400
  0.917000, -0.615600
  0.919000, -0.615200
  0.921000, -0.615100
  0.923000, -0.615100
  0.925000, -0.615200
  0.927000, -0.615600
  0.929000, -0.616000
  0.931000, -0.616500
  0.933000, -0.617100
  0.935000, -0.617800
  0.937000, -0.618500
  0.939000, -0.619200
  0.941000, -0.619900
  0.943000, -0.620300
  0.945000, -0.620700
  0.947000, -0.620800
  0.949000, -0.620800
  0.951000, -0.620700
  0.953000, -0.620600
  0.955000, -0.620400
  0.957000, -0.620000
  0.959000, -0.619500
  0.961000, -0.618800
  0.963000, -0.617900
  0.965000, -0.616500
  0.967000, -0.614800
  0.969000, -0.613100
  0.971000, -0.611000
  0.973000, -0.608800
  0.975000, -0.606500
  0.977000, -0.603800
  0.979000, -0.600700
  0.981000, -0.597500
  0.983000, -0.593900
  0.985000, -0.590000
  0.987000, -0.585800
  0.989000, -0.581600
  0.991000, -0.577100
  0.993000, -0.572500
  0.995000, -0.567600
  0.997000, -0.562500
  0.999000, -0.557200
  1.001000, -0.551500
  1.003000, -0.545600
  1.005000, -0.539600
  1.007000, -0.533500
  1.009000, -0.527000
  1.011000, -0.520500
  1.013000, -0.514000
  1.015000, -0.507200
  1.017000, -0.500300
  1.019000, -0.493000
  1.021000, -0.485500
  1.023000, -0.478100
  1.025000, -0.470600
  1.027000, -0.463000
  1.029000, -0.455100
  1.031000, -0.447100
  1.033000, -0.439000
  1.035000, -0.430800
  1.037000, -0.422600
  1.039000, -0.414400
  1.041000, -0.406100
  1.043000, -0.397900
  1.045000, -0.389600
  1.047000, -0.381100
  1.049000, -0.372800
  1.051000, -0.364300
  1.053000, -0.355700
  1.055000, -0.347300
  1.057000, -0.338900
  1.059000, -0.330500
  1.061000, -0.322000
  1.063000, -0.313500
  1.065000, -0.305100
  1.067000, -0.296800
  1.069000, -0.288500
  1.071000, -0.280300
  1.073000, -0.272300
  1.075000, -0.264400
  1.077000, -0.256600
  1.079000, -0.248900
  1.081000, -0.241400
  1.083000, -0.233900
  1.085000, -0.226600
  1.087000, -0.219400
  1.089000, -0.212400
  1.091000, -0.205500
  1.093000, -0.198700
  1.095000, -0.192200
  1.097000, -0.185800
  1.099000, -0.179600
  1.101000, -0.173600
  1.103000, -0.167900
  1.105000, -0.162300
  1.107000, -0.156900
  1.109000, -0.151800
  1.111000, -0.146900
  1.113000, -0.142200
  1.115000, -0.137700
  1.117000, -0.133400
  1.119000, -0.129200
  1.121000, -0.125400
  1.123000, -0.121900
  1.125000, -0.118600
  1.127000, -0.115400
  1.129000, -0.112500
  1.131000, -0.109700
  1.133000, -0.107200
  1.135000, -0.104900
  1.137000, -0.102800
  1.139000, -0.100800
  1.141000, -0.099100
  1.143000, -0.097600
  1.145000, -0.096200
  1.147000, -0.095000
  1.149000, -0.093900
  1.151000, -0.093000
  1.153000, -0.092200
  1.155000, -0.091500
  1.157000, -0.090900
  1.159000, -0.090400
  1.161000, -0.089900
  1.163000, -0.089500
  1.165000, -0.089200
  1.167000, -0.089000
  1.169000, -0.088800
  1.171000, -0.088700
  1.173000, -0.088600
  1.175000, -0.088400
  1.177000, -0.088300
  1.179000, -0.088200
  1.181000, -0.088100
  1.183000, -0.088000
  1.185000, -0.087700
  1.187000, -0.087400
  1.189000, -0.087000
  1.191000, -0.086600
  1.193000, -0.086100
  1.195000, -0.085500
  1.197000, -0.084900
  1.199000, -0.084300
  1.201000, -0.083600
  1.203000, -0.082800
  1.205000, -0.081800
  1.207000, -0.081000
  1.209000, -0.080100
  1.211000, -0.079100
  1.213000, -0.078200
  1.215000, -0.077000
  1.217000, -0.075600
  1.219000, -0.074400
  1.221000, -0.073000
  1.223000, -0.071600
  1.225000, -0.070200
  1.227000, -0.068700
  1.229000, -0.067100
  1.231000, -0.065400
  1.233000, -0.063800
  1.235000, -0.062100
  1.237000, -0.060300
  1.239000, -0.058500
  1.241000, -0.056600
  1.243000, -0.054800
  1.245000, -0.053000
  1.247000, -0.051100
  1.249000, -0.049200
  1.251000, -0.047400
  1.253000, -0.045700
  1.255000, -0.043800
  1.257000, -0.041900
  1.259000, -0.040000
  1.261000, -0.038100
  1.263000, -0.036300
  1.265000, -0.034600
  1.267000, -0.032900
  1.269000, -0.031100
  1.271000, -0.029300
  1.273000, -0.027700
  1.275000, -0.026000
  1.277000, -0.024200
  1.279000, -0.022500
  1.281000, -0.020700
  1.283000, -0.019100
  1.285000, -0.017700
  1.287000, -0.016300
  1.289000, -0.014700
  1.291000, -0.013000
  1.293000, -0.011600
  1.295000, -0.010200
  1.297000, -0.008900
  1.299000, -0.007700
  1.301000, -0.006400
  1.303000, -0.004900
  1.305000, -0.003600
  1.307000, -0.002200
  1.309000, -0.000700
  1.311000,  0.000800
  1.313000,  0.002300
  1.315000,  0.003800
  1.317000,  0.005200
  1.319000,  0.006800
  1.321000,  0.008500
  1.323000,  0.010200
  1.325000,  0.011900
  1.327000,  0.013800
  1.329000,  0.015800
  1.331000,  0.017700
  1.333000,  0.019800
  1.335000,  0.022000
  1.337000,  0.024300
  1.339000,  0.026700
  1.341000,  0.029100
  1.343000,  0.031700
  1.345000,  0.034400
  1.347000,  0.037200
  1.349000,  0.040100
  1.351000,  0.043200
  1.353000,  0.046400
  1.355000,  0.049500
  1.357000,  0.052900
  1.359000,  0.056300
  1.361000,  0.059700
  1.363000,  0.063300
  1.365000,  0.066900
  1.367000,  0.070600
  1.369000,  0.074300
  1.371000,  0.078100
  1.373000,  0.081900
  1.375000,  0.085800
  1.377000,  0.089700
  1.379000,  0.093700
  1.381000,  0.097600
  1.383000,  0.101300
  1.385000,  0.105000
  1.387000,  0.108500
  1.389000,  0.112000
  1.391000,  0.115500
  1.393000,  0.118600
  1.395000,  0.121300
  1.397000,  0.123800
  1.399000,  0.126000
