# z (nm)   (kJ/mol)
  0.427000, 15.010800
  0.429000, 14.477000
  0.431000, 13.995900
  0.433000, 13.498300
  0.435000, 12.947100
  0.437000, 12.428100
  0.439000, 11.861600
  0.441000, 11.277600
  0.443000, 10.713000
  0.445000, 10.168600
  0.447000,  9.642100
  0.449000,  9.124800
  0.451000,  8.621900
  0.453000,  8.125500
  0.455000,  7.639700
  0.457000,  7.174700
  0.459000,  6.724800
  0.461000,  6.287500
  0.463000,  5.867800
  0.465000,  5.469200
  0.467000,  5.082200
  0.469000,  4.707900
  0.471000,  4.354700
  0.473000,  4.018400
  0.475000,  3.697700
  0.477000,  3.393200
  0.479000,  3.101300
  0.481000,  2.823200
  0.483000,  2.561600
  0.485000,  2.314500
  0.487000,  2.079300
  0.489000,  1.856600
  0.491000,  1.647700
  0.493000,  1.451300
  0.495000,  1.267600
  0.497000,  1.095400
  0.499000,  0.934700
  0.501000,  0.785300
  0.503000,  0.645900
  0.505000,  0.517000
  0.507000,  0.398500
  0.509000,  0.289300
  0.511000,  0.189500
  0.513000,  0.098700
  0.515000,  0.016300
  0.517000, -0.058100
  0.519000, -0.124700
  0.521000, -0.184400
  0.523000, -0.237400
  0.525000, -0.283000
  0.527000, -0.322000
  0.529000, -0.354900
  0.531000, -0.381500
  0.533000, -0.403700
  0.535000, -0.423600
  0.537000, -0.437800
  0.539000, -0.448000
  0.541000, -0.455900
  0.543000, -0.459600
  0.545000, -0.460600
  0.547000, -0.460400
  0.549000, -0.461100
  0.551000, -0.461600
  0.553000, -0.460600
  0.555000, -0.460800
  0.557000, -0.461400
  0.559000, -0.462300
  0.561000, -0.465700
  0.563000, -0.469200
  0.565000, -0.474100
  0.567000, -0.480900
  0.569000, -0.488400
  0.571000, -0.498300
  0.573000, -0.510700
  0.575000, -0.525100
  0.577000, -0.541300
  0.579000, -0.559100
  0.581000, -0.578000
  0.583000, -0.598800
  0.585000, -0.621600
  0.587000, -0.645400
  0.589000, -0.670600
  0.591000, -0.697800
  0.593000, -0.725800
  0.595000, -0.754100
  0.597000, -0.783600
  0.599000, -0.813800
  0.601000, -0.844700
  0.603000, -0.876700
  0.605000, -0.909300
  0.607000, -0.941900
  0.609000, -0.974500
  0.611000, -1.007100
  0.613000, -1.040000
  0.615000, -1.072500
  0.617000, -1.105000
  0.619000, -1.136500
  0.621000, -1.167000
  0.623000, -1.197600
  0.625000, -1.227500
  0.627000, -1.257600
  0.629000, -1.288400
  0.631000, -1.318500
  0.633000, -1.347500
  0.635000, -1.376000
  0.637000, -1.403600
  0.639000, -1.429300
  0.641000, -1.454400
  0.643000, -1.479500
  0.645000, -1.503600
  0.647000, -1.526400
  0.649000, -1.548400
  0.651000, -1.569400
  0.653000, -1.589200
  0.655000, -1.608800
  0.657000, -1.628300
  0.659000, -1.646800
  0.661000, -1.664000
  0.663000, -1.680100
  0.665000, -1.695600
  0.667000, -1.710000
  0.669000, -1.723400
  0.671000, -1.735900
  0.673000, -1.747600
  0.675000, -1.758400
  0.677000, -1.768000
  0.679000, -1.776400
  0.681000, -1.783900
  0.683000, -1.790700
  0.685000, -1.796400
  0.687000, -1.800900
  0.689000, -1.804200
  0.691000, -1.806400
  0.693000, -1.807400
  0.695000, -1.807500
  0.697000, -1.806700
  0.699000, -1.804700
  0.701000, -1.801900
  0.703000, -1.798100
  0.705000, -1.792900
  0.707000, -1.786800
  0.709000, -1.779800
  0.711000, -1.772000
  0.713000, -1.763200
  0.715000, -1.753500
  0.717000, -1.743300
  0.719000, -1.732500
  0.721000, -1.720900
  0.723000, -1.708300
  0.725000, -1.694900
  0.727000, -1.681000
  0.729000, -1.666700
  0.731000, -1.651700
  0.733000, -1.635800
  0.735000, -1.619500
  0.737000, -1.603100
  0.739000, -1.586300
  0.741000, -1.569200
  0.743000, -1.551900
  0.745000, -1.534600
  0.747000, -1.516700
  0.749000, -1.498400
  0.751000, -1.480100
  0.753000, -1.461800
  0.755000, -1.443700
  0.757000, -1.425700
  0.759000, -1.407400
  0.761000, -1.389100
  0.763000, -1.371100
  0.765000, -1.353600
  0.767000, -1.336100
  0.769000, -1.318300
  0.771000, -1.300700
  0.773000, -1.283300
  0.775000, -1.266100
  0.777000, -1.249100
  0.779000, -1.232300
  0.781000, -1.215700
  0.783000, -1.199400
  0.785000, -1.183200
  0.787000, -1.167500
  0.789000, -1.152100
  0.791000, -1.137000
  0.793000, -1.122300
  0.795000, -1.107700
  0.797000, -1.093400
  0.799000, -1.079200
  0.801000, -1.065300
  0.803000, -1.051500
  0.805000, -1.037900
  0.807000, -1.024800
  0.809000, -1.012100
  0.811000, -0.999600
  0.813000, -0.987200
  0.815000, -0.975200
  0.817000, -0.963300
  0.819000, -0.951600
  0.821000, -0.940300
  0.823000, -0.929400
  0.825000, -0.918800
  0.827000, -0.908500
  0.829000, -0.898400
  0.831000, -0.888400
  0.833000, -0.878700
  0.835000, -0.869300
  0.837000, -0.860100
  0.839000, -0.851200
  0.841000, -0.842500
  0.843000, -0.834000
  0.845000, -0.825600
  0.847000, -0.817500
  0.849000, -0.809600
  0.851000, -0.801800
  0.853000, -0.794200
  0.855000, -0.786900
  0.857000, -0.779700
  0.859000, -0.772700
  0.861000, -0.765600
  0.863000, -0.758600
  0.865000, -0.752000
  0.867000, -0.745300
  0.869000, -0.738600
  0.871000, -0.732100
  0.873000, -0.725700
  0.875000, -0.719400
  0.877000, -0.713100
  0.879000, -0.706700
  0.881000, -0.700300
  0.883000, -0.693900
  0.885000, -0.687600
  0.887000, -0.681200
  0.889000, -0.674600
  0.891000, -0.667900
  0.893000, -0.661200
  0.895000, -0.654500
  0.897000, -0.647700
  0.899000, -0.640800
  0.901000, -0.633700
  0.903000, -0.626600
  0.905000, -0.619300
  0.907000, -0.612000
  0.909000, -0.604600
  0.911000, -0.597100
  0.913000, -0.589400
  0.915000, -0.581600
  0.917000, -0.573700
  0.919000, -0.565600
  0.921000, -0.557400
  0.923000, -0.549100
  0.925000, -0.540700
  0.927000, -0.532100
  0.929000, -0.523500
  0.931000, -0.514600
  0.933000, -0.505500
  0.935000, -0.496400
  0.937000, -0.486900
  0.939000, -0.477600
  0.941000, -0.468600
  0.943000, -0.459300
  0.945000, -0.449700
  0.947000, -0.440200
  0.949000, -0.430500
  0.951000, -0.420900
  0.953000, -0.411300
  0.955000, -0.401800
  0.957000, -0.392400
  0.959000, -0.383100
  0.961000, -0.373800
  0.963000, -0.364400
  0.965000, -0.355000
  0.967000, -0.345800
  0.969000, -0.336600
  0.971000, -0.327700
  0.973000, -0.319000
  0.975000, -0.310300
  0.977000, -0.301600
  0.979000, -0.292900
  0.981000, -0.284400
  0.983000, -0.276100
  0.985000, -0.267900
  0.987000, -0.259900
  0.989000, -0.252000
  0.991000, -0.244300
  0.993000, -0.236700
  0.995000, -0.229400
  0.997000, -0.222100
  0.999000, -0.214900
  1.001000, -0.208000
  1.003000, -0.201300
  1.005000, -0.194600
  1.007000, -0.188100
  1.009000, -0.181900
  1.011000, -0.175800
  1.013000, -0.169900
  1.015000, -0.164100
  1.017000, -0.158400
  1.019000, -0.152900
  1.021000, -0.147700
  1.023000, -0.142700
  1.025000, -0.137900
  1.027000, -0.133200
  1.029000, -0.128600
  1.031000, -0.124400
  1.033000, -0.120200
  1.035000, -0.116000
  1.037000, -0.112000
  1.039000, -0.108100
  1.041000, -0.104400
  1.043000, -0.100900
  1.045000, -0.097500
  1.047000, -0.094200
  1.049000, -0.091100
  1.051000, -0.088000
  1.053000, -0.085100
  1.055000, -0.082400
  1.057000, -0.079800
  1.059000, -0.077400
  1.061000, -0.075200
  1.063000, -0.073100
  1.065000, -0.071200
  1.067000, -0.069200
  1.069000, -0.067400
  1.071000, -0.065700
  1.073000, -0.064100
  1.075000, -0.062600
  1.077000, -0.061200
  1.079000, -0.060000
  1.081000, -0.058900
  1.083000, -0.057900
  1.085000, -0.057100
  1.087000, -0.056400
  1.089000, -0.055700
  1.091000, -0.055200
  1.093000, -0.054800
  1.095000, -0.054600
  1.097000, -0.054400
  1.099000, -0.054100
  1.101000, -0.054000
  1.103000, -0.054200
  1.105000, -0.054400
  1.107000, -0.054700
  1.109000, -0.055200
  1.111000, -0.055700
  1.113000, -0.056200
  1.115000, -0.056900
  1.117000, -0.057800
  1.119000, -0.058600
  1.121000, -0.059500
  1.123000, -0.060600
  1.125000, -0.061800
  1.127000, -0.063100
  1.129000, -0.064300
  1.131000, -0.065600
  1.133000, -0.067000
  1.135000, -0.068300
  1.137000, -0.069700
  1.139000, -0.071300
  1.141000, -0.072800
  1.143000, -0.074400
  1.145000, -0.075900
  1.147000, -0.077600
  1.149000, -0.079300
  1.151000, -0.080900
  1.153000, -0.082500
  1.155000, -0.084100
  1.157000, -0.085700
  1.159000, -0.087300
  1.161000, -0.089000
  1.163000, -0.090500
  1.165000, -0.092100
  1.167000, -0.093600
  1.169000, -0.095000
  1.171000, -0.096200
  1.173000, -0.097500
  1.175000, -0.098800
  1.177000, -0.099900
  1.179000, -0.101000
  1.181000, -0.102100
  1.183000, -0.103100
  1.185000, -0.104000
  1.187000, -0.104700
  1.189000, -0.105200
  1.191000, -0.105700
  1.193000, -0.106200
  1.195000, -0.106600
  1.197000, -0.106700
  1.199000, -0.106700
  1.201000, -0.106600
  1.203000, -0.106500
  1.205000, -0.106100
  1.207000, -0.105500
  1.209000, -0.104900
  1.211000, -0.104200
  1.213000, -0.103300
  1.215000, -0.102300
  1.217000, -0.101100
  1.219000, -0.099800
  1.221000, -0.098300
  1.223000, -0.096700
  1.225000, -0.095000
  1.227000, -0.093200
  1.229000, -0.091300
  1.231000, -0.089300
  1.233000, -0.087200
  1.235000, -0.084900
  1.237000, -0.082500
  1.239000, -0.080000
  1.241000, -0.077500
  1.243000, -0.075000
  1.245000, -0.072400
  1.247000, -0.069700
  1.249000, -0.067000
  1.251000, -0.064200
  1.253000, -0.061400
  1.255000, -0.058500
  1.257000, -0.055600
  1.259000, -0.052600
  1.261000, -0.049700
  1.263000, -0.046700
  1.265000, -0.043600
  1.267000, -0.040700
  1.269000, -0.037800
  1.271000, -0.034800
  1.273000, -0.031800
  1.275000, -0.029000
  1.277000, -0.026400
  1.279000, -0.023800
  1.281000, -0.021200
  1.283000, -0.018600
  1.285000, -0.016000
  1.287000, -0.013600
  1.289000, -0.011100
  1.291000, -0.008800
  1.293000, -0.006500
  1.295000, -0.004300
  1.297000, -0.002200
  1.299000, -0.000100
  1.301000,  0.001800
  1.303000,  0.003700
  1.305000,  0.005600
  1.307000,  0.007400
  1.309000,  0.009200
  1.311000,  0.010900
  1.313000,  0.012700
  1.315000,  0.014300
  1.317000,  0.016100
  1.319000,  0.017800
  1.321000,  0.019500
  1.323000,  0.021200
  1.325000,  0.022900
  1.327000,  0.024800
  1.329000,  0.026600
  1.331000,  0.028500
  1.333000,  0.030600
  1.335000,  0.032700
  1.337000,  0.034900
  1.339000,  0.037100
  1.341000,  0.039300
  1.343000,  0.041700
  1.345000,  0.044300
  1.347000,  0.047100
  1.349000,  0.050100
  1.351000,  0.053200
  1.353000,  0.056400
  1.355000,  0.059800
  1.357000,  0.063300
  1.359000,  0.067000
  1.361000,  0.070700
  1.363000,  0.074600
  1.365000,  0.078700
  1.367000,  0.083000
  1.369000,  0.087400
  1.371000,  0.092000
  1.373000,  0.096900
  1.375000,  0.101800
  1.377000,  0.106700
  1.379000,  0.111700
  1.381000,  0.116700
  1.383000,  0.121800
  1.385000,  0.127000
  1.387000,  0.132300
  1.389000,  0.137400
  1.391000,  0.142200
  1.393000,  0.146800
  1.395000,  0.151100
  1.397000,  0.155100
  1.399000,  0.158900
