# z (nm)   (kJ/mol)
  0.3510   14.92480
  0.3530   14.53900
  0.3550   14.09150
  0.3570   13.57220
  0.3590   13.11290
  0.3610   12.65310
  0.3630   12.14950
  0.3650   11.66000
  0.3670   11.19490
  0.3690   10.72570
  0.3710   10.26130
  0.3730    9.81400
  0.3750    9.36400
  0.3770    8.91790
  0.3790    8.48150
  0.3810    8.04870
  0.3830    7.63150
  0.3850    7.22290
  0.3870    6.82190
  0.3890    6.43690
  0.3910    6.06880
  0.3930    5.71820
  0.3950    5.37950
  0.3970    5.05380
  0.3990    4.74410
  0.4010    4.44940
  0.4030    4.17080
  0.4050    3.90780
  0.4070    3.65890
  0.4090    3.42330
  0.4110    3.20220
  0.4130    2.99520
  0.4150    2.80260
  0.4170    2.62340
  0.4190    2.45550
  0.4210    2.30020
  0.4230    2.15660
  0.4250    2.02460
  0.4270    1.90450
  0.4290    1.79600
  0.4310    1.69790
  0.4330    1.60890
  0.4350    1.52950
  0.4370    1.45970
  0.4390    1.39840
  0.4410    1.34540
  0.4430    1.30020
  0.4450    1.26180
  0.4470    1.23000
  0.4490    1.20380
  0.4510    1.18320
  0.4530    1.16770
  0.4550    1.15590
  0.4570    1.14840
  0.4590    1.14630
  0.4610    1.14670
  0.4630    1.14940
  0.4650    1.15460
  0.4670    1.16090
  0.4690    1.16910
  0.4710    1.17640
  0.4730    1.18320
  0.4750    1.19130
  0.4770    1.19870
  0.4790    1.20400
  0.4810    1.20810
  0.4830    1.21030
  0.4850    1.21030
  0.4870    1.20890
  0.4890    1.20450
  0.4910    1.19730
  0.4930    1.18750
  0.4950    1.17460
  0.4970    1.15870
  0.4990    1.13980
  0.5010    1.11780
  0.5030    1.09290
  0.5050    1.06520
  0.5070    1.03480
  0.5090    1.00150
  0.5110    0.96570
  0.5130    0.92790
  0.5150    0.88790
  0.5170    0.84570
  0.5190    0.80180
  0.5210    0.75640
  0.5230    0.70970
  0.5250    0.66200
  0.5270    0.61370
  0.5290    0.56490
  0.5310    0.51560
  0.5330    0.46610
  0.5350    0.41680
  0.5370    0.36790
  0.5390    0.31960
  0.5410    0.27180
  0.5430    0.22460
  0.5450    0.17880
  0.5470    0.13440
  0.5490    0.09160
  0.5510    0.05020
  0.5530    0.01060
  0.5550   -0.02720
  0.5570   -0.06320
  0.5590   -0.09740
  0.5610   -0.12930
  0.5630   -0.15900
  0.5650   -0.18650
  0.5670   -0.21180
  0.5690   -0.23500
  0.5710   -0.25590
  0.5730   -0.27450
  0.5750   -0.29080
  0.5770   -0.30500
  0.5790   -0.31690
  0.5810   -0.32660
  0.5830   -0.33400
  0.5850   -0.33940
  0.5870   -0.34280
  0.5890   -0.34450
  0.5910   -0.34440
  0.5930   -0.34270
  0.5950   -0.33920
  0.5970   -0.33380
  0.5990   -0.32680
  0.6010   -0.31860
  0.6030   -0.30920
  0.6050   -0.29850
  0.6070   -0.28650
  0.6090   -0.27340
  0.6110   -0.25940
  0.6130   -0.24460
  0.6150   -0.22870
  0.6170   -0.21200
  0.6190   -0.19480
  0.6210   -0.17700
  0.6230   -0.15870
  0.6250   -0.13990
  0.6270   -0.12060
  0.6290   -0.10110
  0.6310   -0.08120
  0.6330   -0.06110
  0.6350   -0.04110
  0.6370   -0.02120
  0.6390   -0.00120
  0.6410    0.01860
  0.6430    0.03820
  0.6450    0.05760
  0.6470    0.07680
  0.6490    0.09570
  0.6510    0.11410
  0.6530    0.13230
  0.6550    0.14990
  0.6570    0.16680
  0.6590    0.18320
  0.6610    0.19900
  0.6630    0.21390
  0.6650    0.22820
  0.6670    0.24160
  0.6690    0.25430
  0.6710    0.26600
  0.6730    0.27690
  0.6750    0.28700
  0.6770    0.29610
  0.6790    0.30440
  0.6810    0.31180
  0.6830    0.31810
  0.6850    0.32360
  0.6870    0.32820
  0.6890    0.33170
  0.6910    0.33420
  0.6930    0.33570
  0.6950    0.33620
  0.6970    0.33580
  0.6990    0.33440
  0.7010    0.33210
  0.7030    0.32900
  0.7050    0.32500
  0.7070    0.32010
  0.7090    0.31450
  0.7110    0.30810
  0.7130    0.30070
  0.7150    0.29270
  0.7170    0.28430
  0.7190    0.27500
  0.7210    0.26500
  0.7230    0.25460
  0.7250    0.24390
  0.7270    0.23280
  0.7290    0.22140
  0.7310    0.20960
  0.7330    0.19730
  0.7350    0.18480
  0.7370    0.17220
  0.7390    0.15950
  0.7410    0.14690
  0.7430    0.13420
  0.7450    0.12160
  0.7470    0.10900
  0.7490    0.09670
  0.7510    0.08450
  0.7530    0.07260
  0.7550    0.06110
  0.7570    0.05000
  0.7590    0.03920
  0.7610    0.02880
  0.7630    0.01880
  0.7650    0.00930
  0.7670    0.00050
  0.7690   -0.00790
  0.7710   -0.01570
  0.7730   -0.02300
  0.7750   -0.02970
  0.7770   -0.03580
  0.7790   -0.04140
  0.7810   -0.04650
  0.7830   -0.05090
  0.7850   -0.05460
  0.7870   -0.05790
  0.7890   -0.06060
  0.7910   -0.06280
  0.7930   -0.06440
  0.7950   -0.06550
  0.7970   -0.06620
  0.7990   -0.06640
  0.8010   -0.06620
  0.8030   -0.06540
  0.8050   -0.06430
  0.8070   -0.06280
  0.8090   -0.06090
  0.8110   -0.05870
  0.8130   -0.05620
  0.8150   -0.05350
  0.8170   -0.05050
  0.8190   -0.04730
  0.8210   -0.04400
  0.8230   -0.04040
  0.8250   -0.03680
  0.8270   -0.03290
  0.8290   -0.02900
  0.8310   -0.02500
  0.8330   -0.02080
  0.8350   -0.01670
  0.8370   -0.01250
  0.8390   -0.00830
  0.8410   -0.00400
  0.8430    0.00010
  0.8450    0.00420
  0.8470    0.00820
  0.8490    0.01220
  0.8510    0.01620
  0.8530    0.02010
  0.8550    0.02400
  0.8570    0.02780
  0.8590    0.03140
  0.8610    0.03490
  0.8630    0.03830
  0.8650    0.04160
  0.8670    0.04490
  0.8690    0.04800
  0.8710    0.05100
  0.8730    0.05390
  0.8750    0.05660
  0.8770    0.05920
  0.8790    0.06170
  0.8810    0.06410
  0.8830    0.06630
  0.8850    0.06840
  0.8870    0.07050
  0.8890    0.07240
  0.8910    0.07410
  0.8930    0.07570
  0.8950    0.07720
  0.8970    0.07860
  0.8990    0.07980
  0.9010    0.08080
  0.9030    0.08180
  0.9050    0.08270
  0.9070    0.08330
  0.9090    0.08380
  0.9110    0.08400
  0.9130    0.08420
  0.9150    0.08430
  0.9170    0.08420
  0.9190    0.08400
  0.9210    0.08360
  0.9230    0.08310
  0.9250    0.08250
  0.9270    0.08170
  0.9290    0.08080
  0.9310    0.07980
  0.9330    0.07860
  0.9350    0.07720
  0.9370    0.07580
  0.9390    0.07420
  0.9410    0.07250
  0.9430    0.07070
  0.9450    0.06880
  0.9470    0.06680
  0.9490    0.06470
  0.9510    0.06250
  0.9530    0.06020
  0.9550    0.05780
  0.9570    0.05540
  0.9590    0.05290
  0.9610    0.05040
  0.9630    0.04780
  0.9650    0.04520
  0.9670    0.04270
  0.9690    0.04000
  0.9710    0.03730
  0.9730    0.03480
  0.9750    0.03220
  0.9770    0.02970
  0.9790    0.02730
  0.9810    0.02480
  0.9830    0.02250
  0.9850    0.02020
  0.9870    0.01790
  0.9890    0.01580
  0.9910    0.01380
  0.9930    0.01190
  0.9950    0.01010
  0.9970    0.00830
  0.9990    0.00670
  1.0010    0.00520
  1.0030    0.00390
  1.0050    0.00270
  1.0070    0.00150
  1.0090    0.00050
  1.0110   -0.00040
  1.0130   -0.00120
  1.0150   -0.00190
  1.0170   -0.00250
  1.0190   -0.00280
  1.0210   -0.00310
  1.0230   -0.00320
  1.0250   -0.00330
  1.0270   -0.00330
  1.0290   -0.00300
  1.0310   -0.00280
  1.0330   -0.00250
  1.0350   -0.00200
  1.0370   -0.00150
  1.0390   -0.00100
  1.0410   -0.00040
  1.0430    0.00030
  1.0450    0.00120
  1.0470    0.00210
  1.0490    0.00310
  1.0510    0.00420
  1.0530    0.00530
  1.0550    0.00640
  1.0570    0.00760
  1.0590    0.00880
  1.0610    0.01000
  1.0630    0.01140
  1.0650    0.01270
  1.0670    0.01400
  1.0690    0.01540
  1.0710    0.01690
  1.0730    0.01830
  1.0750    0.01970
  1.0770    0.02100
  1.0790    0.02240
  1.0810    0.02380
  1.0830    0.02510
  1.0850    0.02650
  1.0870    0.02790
  1.0890    0.02930
  1.0910    0.03060
  1.0930    0.03200
  1.0950    0.03330
  1.0970    0.03460
  1.0990    0.03580
  1.1010    0.03710
  1.1030    0.03840
  1.1050    0.03970
  1.1070    0.04080
  1.1090    0.04190
  1.1110    0.04300
  1.1130    0.04410
  1.1150    0.04510
  1.1170    0.04600
  1.1190    0.04690
  1.1210    0.04780
  1.1230    0.04850
  1.1250    0.04930
  1.1270    0.05010
  1.1290    0.05070
  1.1310    0.05140
  1.1330    0.05200
  1.1350    0.05260
  1.1370    0.05300
  1.1390    0.05340
  1.1410    0.05380
  1.1430    0.05410
  1.1450    0.05440
  1.1470    0.05460
  1.1490    0.05470
  1.1510    0.05480
  1.1530    0.05490
  1.1550    0.05480
  1.1570    0.05470
  1.1590    0.05460
  1.1610    0.05440
  1.1630    0.05420
  1.1650    0.05390
  1.1670    0.05360
  1.1690    0.05310
  1.1710    0.05260
  1.1730    0.05210
  1.1750    0.05160
  1.1770    0.05100
  1.1790    0.05040
  1.1810    0.04980
  1.1830    0.04910
  1.1850    0.04830
  1.1870    0.04740
  1.1890    0.04650
  1.1910    0.04560
  1.1930    0.04460
  1.1950    0.04360
  1.1970    0.04250
  1.1990    0.04150
  1.2010    0.04050
  1.2030    0.03950
  1.2050    0.03850
  1.2070    0.03750
  1.2090    0.03640
  1.2110    0.03520
  1.2130    0.03410
  1.2150    0.03310
  1.2170    0.03200
  1.2190    0.03080
  1.2210    0.02970
  1.2230    0.02880
  1.2250    0.02780
  1.2270    0.02680
  1.2290    0.02580
  1.2310    0.02480
  1.2330    0.02370
  1.2350    0.02280
  1.2370    0.02190
  1.2390    0.02100
  1.2410    0.02000
  1.2430    0.01910
  1.2450    0.01810
  1.2470    0.01720
  1.2490    0.01630
  1.2510    0.01540
  1.2530    0.01450
  1.2550    0.01360
  1.2570    0.01270
  1.2590    0.01190
  1.2610    0.01100
  1.2630    0.01020
  1.2650    0.00920
  1.2670    0.00830
  1.2690    0.00730
  1.2710    0.00620
  1.2730    0.00510
  1.2750    0.00390
  1.2770    0.00280
  1.2790    0.00180
  1.2810    0.00060
  1.2830   -0.00050
  1.2850   -0.00170
  1.2870   -0.00290
  1.2890   -0.00420
  1.2910   -0.00540
  1.2930   -0.00680
  1.2950   -0.00820
  1.2970   -0.00960
  1.2990   -0.01110
  1.3010   -0.01250
  1.3030   -0.01400
  1.3050   -0.01540
  1.3070   -0.01680
  1.3090   -0.01820
  1.3110   -0.01960
  1.3130   -0.02100
  1.3150   -0.02240
  1.3170   -0.02380
  1.3190   -0.02510
  1.3210   -0.02640
  1.3230   -0.02750
  1.3250   -0.02860
  1.3270   -0.02950
  1.3290   -0.03030
  1.3310   -0.03100
  1.3330   -0.03160
  1.3350   -0.03200
  1.3370   -0.03230
  1.3390   -0.03260
  1.3410   -0.03270
  1.3430   -0.03260
  1.3450   -0.03230
  1.3470   -0.03190
  1.3490   -0.03120
  1.3510   -0.03050
  1.3530   -0.02960
  1.3550   -0.02850
  1.3570   -0.02720
  1.3590   -0.02570
  1.3610   -0.02410
  1.3630   -0.02220
  1.3650   -0.02010
  1.3670   -0.01790
  1.3690   -0.01560
  1.3710   -0.01310
  1.3730   -0.01050
  1.3750   -0.00770
  1.3770   -0.00490
  1.3790   -0.00190
  1.3810    0.00110
  1.3830    0.00410
  1.3850    0.00710
  1.3870    0.01010
  1.3890    0.01290
  1.3910    0.01560
  1.3930    0.01840
  1.3950    0.02080
  1.3970    0.02280
  1.3990    0.02460
