# z (nm)   (kJ/mol)
  0.377000, 15.302300
  0.379000, 14.874400
  0.381000, 14.391500
  0.383000, 13.978100
  0.385000, 13.587300
  0.387000, 13.157100
  0.389000, 12.721300
  0.391000, 12.272500
  0.393000, 11.809400
  0.395000, 11.355700
  0.397000, 10.906800
  0.399000, 10.455500
  0.401000, 10.007700
  0.403000,  9.566800
  0.405000,  9.128400
  0.407000,  8.694400
  0.409000,  8.273300
  0.411000,  7.863000
  0.413000,  7.463800
  0.415000,  7.078800
  0.417000,  6.700600
  0.419000,  6.332600
  0.421000,  5.981500
  0.423000,  5.643300
  0.425000,  5.318000
  0.427000,  5.002900
  0.429000,  4.699000
  0.431000,  4.412300
  0.433000,  4.141000
  0.435000,  3.883800
  0.437000,  3.635600
  0.439000,  3.399000
  0.441000,  3.176900
  0.443000,  2.965100
  0.445000,  2.764400
  0.447000,  2.577100
  0.449000,  2.400800
  0.451000,  2.234400
  0.453000,  2.077900
  0.455000,  1.931900
  0.457000,  1.795700
  0.459000,  1.669100
  0.461000,  1.552300
  0.463000,  1.444600
  0.465000,  1.345700
  0.467000,  1.255700
  0.469000,  1.174000
  0.471000,  1.100100
  0.473000,  1.033600
  0.475000,  0.973700
  0.477000,  0.920200
  0.479000,  0.873200
  0.481000,  0.832400
  0.483000,  0.797700
  0.485000,  0.768400
  0.487000,  0.743200
  0.489000,  0.721100
  0.491000,  0.702700
  0.493000,  0.687800
  0.495000,  0.677200
  0.497000,  0.668400
  0.499000,  0.660800
  0.501000,  0.655600
  0.503000,  0.651400
  0.505000,  0.648600
  0.507000,  0.646800
  0.509000,  0.645400
  0.511000,  0.642900
  0.513000,  0.639600
  0.515000,  0.636500
  0.517000,  0.632500
  0.519000,  0.626800
  0.521000,  0.619200
  0.523000,  0.608900
  0.525000,  0.596500
  0.527000,  0.582400
  0.529000,  0.566500
  0.531000,  0.548300
  0.533000,  0.527300
  0.535000,  0.504000
  0.537000,  0.478800
  0.539000,  0.451400
  0.541000,  0.421500
  0.543000,  0.389500
  0.545000,  0.355400
  0.547000,  0.319500
  0.549000,  0.281800
  0.551000,  0.242300
  0.553000,  0.201400
  0.555000,  0.159000
  0.557000,  0.115400
  0.559000,  0.070600
  0.561000,  0.024800
  0.563000, -0.021400
  0.565000, -0.067700
  0.567000, -0.114000
  0.569000, -0.160200
  0.571000, -0.206400
  0.573000, -0.252100
  0.575000, -0.297000
  0.577000, -0.341400
  0.579000, -0.385000
  0.581000, -0.427300
  0.583000, -0.468100
  0.585000, -0.507600
  0.587000, -0.545400
  0.589000, -0.581600
  0.591000, -0.616100
  0.593000, -0.648500
  0.595000, -0.678900
  0.597000, -0.707300
  0.599000, -0.733600
  0.601000, -0.757500
  0.603000, -0.779300
  0.605000, -0.799100
  0.607000, -0.816600
  0.609000, -0.831700
  0.611000, -0.844600
  0.613000, -0.855400
  0.615000, -0.864000
  0.617000, -0.870500
  0.619000, -0.874800
  0.621000, -0.876900
  0.623000, -0.877100
  0.625000, -0.875100
  0.627000, -0.871300
  0.629000, -0.865900
  0.631000, -0.858500
  0.633000, -0.849100
  0.635000, -0.838000
  0.637000, -0.825400
  0.639000, -0.811500
  0.641000, -0.796400
  0.643000, -0.779900
  0.645000, -0.762200
  0.647000, -0.743300
  0.649000, -0.723300
  0.651000, -0.702600
  0.653000, -0.681200
  0.655000, -0.659100
  0.657000, -0.636400
  0.659000, -0.613200
  0.661000, -0.589500
  0.663000, -0.565300
  0.665000, -0.540900
  0.667000, -0.516600
  0.669000, -0.492500
  0.671000, -0.468300
  0.673000, -0.444000
  0.675000, -0.420100
  0.677000, -0.396600
  0.679000, -0.373500
  0.681000, -0.350800
  0.683000, -0.328700
  0.685000, -0.307000
  0.687000, -0.285900
  0.689000, -0.265400
  0.691000, -0.245600
  0.693000, -0.226500
  0.695000, -0.208300
  0.697000, -0.190900
  0.699000, -0.174400
  0.701000, -0.158800
  0.703000, -0.144200
  0.705000, -0.130500
  0.707000, -0.117800
  0.709000, -0.106000
  0.711000, -0.095200
  0.713000, -0.085400
  0.715000, -0.076600
  0.717000, -0.068800
  0.719000, -0.062000
  0.721000, -0.056100
  0.723000, -0.051100
  0.725000, -0.047100
  0.727000, -0.044000
  0.729000, -0.041700
  0.731000, -0.040300
  0.733000, -0.039900
  0.735000, -0.040100
  0.737000, -0.041300
  0.739000, -0.043100
  0.741000, -0.045500
  0.743000, -0.048700
  0.745000, -0.052600
  0.747000, -0.057000
  0.749000, -0.061800
  0.751000, -0.067100
  0.753000, -0.072800
  0.755000, -0.078900
  0.757000, -0.085400
  0.759000, -0.092100
  0.761000, -0.099100
  0.763000, -0.106200
  0.765000, -0.113500
  0.767000, -0.120900
  0.769000, -0.128400
  0.771000, -0.135900
  0.773000, -0.143500
  0.775000, -0.151000
  0.777000, -0.158400
  0.779000, -0.165600
  0.781000, -0.172600
  0.783000, -0.179500
  0.785000, -0.186200
  0.787000, -0.192600
  0.789000, -0.198500
  0.791000, -0.204300
  0.793000, -0.209700
  0.795000, -0.214800
  0.797000, -0.219500
  0.799000, -0.223800
  0.801000, -0.227700
  0.803000, -0.231200
  0.805000, -0.234300
  0.807000, -0.237000
  0.809000, -0.239200
  0.811000, -0.241000
  0.813000, -0.242500
  0.815000, -0.243400
  0.817000, -0.244000
  0.819000, -0.244000
  0.821000, -0.243600
  0.823000, -0.242800
  0.825000, -0.241700
  0.827000, -0.240200
  0.829000, -0.238300
  0.831000, -0.235800
  0.833000, -0.233000
  0.835000, -0.229900
  0.837000, -0.226400
  0.839000, -0.222700
  0.841000, -0.218700
  0.843000, -0.214400
  0.845000, -0.209800
  0.847000, -0.205000
  0.849000, -0.200000
  0.851000, -0.194800
  0.853000, -0.189500
  0.855000, -0.184000
  0.857000, -0.178200
  0.859000, -0.172300
  0.861000, -0.166400
  0.863000, -0.160400
  0.865000, -0.154300
  0.867000, -0.148300
  0.869000, -0.142100
  0.871000, -0.135900
  0.873000, -0.129700
  0.875000, -0.123400
  0.877000, -0.117200
  0.879000, -0.111200
  0.881000, -0.105300
  0.883000, -0.099400
  0.885000, -0.093500
  0.887000, -0.087700
  0.889000, -0.082100
  0.891000, -0.076500
  0.893000, -0.071100
  0.895000, -0.065800
  0.897000, -0.060700
  0.899000, -0.055700
  0.901000, -0.051000
  0.903000, -0.046400
  0.905000, -0.042100
  0.907000, -0.037900
  0.909000, -0.034000
  0.911000, -0.030200
  0.913000, -0.026700
  0.915000, -0.023500
  0.917000, -0.020400
  0.919000, -0.017500
  0.921000, -0.014900
  0.923000, -0.012500
  0.925000, -0.010400
  0.927000, -0.008400
  0.929000, -0.006800
  0.931000, -0.005400
  0.933000, -0.004100
  0.935000, -0.003100
  0.937000, -0.002200
  0.939000, -0.001600
  0.941000, -0.001300
  0.943000, -0.001100
  0.945000, -0.001100
  0.947000, -0.001400
  0.949000, -0.001900
  0.951000, -0.002500
  0.953000, -0.003300
  0.955000, -0.004300
  0.957000, -0.005500
  0.959000, -0.006700
  0.961000, -0.008100
  0.963000, -0.009700
  0.965000, -0.011400
  0.967000, -0.013100
  0.969000, -0.014800
  0.971000, -0.016600
  0.973000, -0.018500
  0.975000, -0.020400
  0.977000, -0.022500
  0.979000, -0.024600
  0.981000, -0.026700
  0.983000, -0.028800
  0.985000, -0.031000
  0.987000, -0.033100
  0.989000, -0.035200
  0.991000, -0.037300
  0.993000, -0.039300
  0.995000, -0.041400
  0.997000, -0.043300
  0.999000, -0.045200
  1.001000, -0.046900
  1.003000, -0.048600
  1.005000, -0.050100
  1.007000, -0.051600
  1.009000, -0.053000
  1.011000, -0.054200
  1.013000, -0.055300
  1.015000, -0.056200
  1.017000, -0.057000
  1.019000, -0.057800
  1.021000, -0.058500
  1.023000, -0.058900
  1.025000, -0.059300
  1.027000, -0.059700
  1.029000, -0.060000
  1.031000, -0.060000
  1.033000, -0.060000
  1.035000, -0.059900
  1.037000, -0.059600
  1.039000, -0.059200
  1.041000, -0.058800
  1.043000, -0.058300
  1.045000, -0.057700
  1.047000, -0.057100
  1.049000, -0.056400
  1.051000, -0.055600
  1.053000, -0.054800
  1.055000, -0.053800
  1.057000, -0.052900
  1.059000, -0.051900
  1.061000, -0.050900
  1.063000, -0.049900
  1.065000, -0.048800
  1.067000, -0.047600
  1.069000, -0.046500
  1.071000, -0.045300
  1.073000, -0.044200
  1.075000, -0.043100
  1.077000, -0.042000
  1.079000, -0.040800
  1.081000, -0.039700
  1.083000, -0.038500
  1.085000, -0.037500
  1.087000, -0.036500
  1.089000, -0.035500
  1.091000, -0.034400
  1.093000, -0.033500
  1.095000, -0.032700
  1.097000, -0.031900
  1.099000, -0.031100
  1.101000, -0.030300
  1.103000, -0.029700
  1.105000, -0.029200
  1.107000, -0.028700
  1.109000, -0.028300
  1.111000, -0.028000
  1.113000, -0.027800
  1.115000, -0.027600
  1.117000, -0.027600
  1.119000, -0.027700
  1.121000, -0.027900
  1.123000, -0.028200
  1.125000, -0.028500
  1.127000, -0.029000
  1.129000, -0.029500
  1.131000, -0.030200
  1.133000, -0.030900
  1.135000, -0.031900
  1.137000, -0.032900
  1.139000, -0.033900
  1.141000, -0.035000
  1.143000, -0.036100
  1.145000, -0.037500
  1.147000, -0.038900
  1.149000, -0.040400
  1.151000, -0.041900
  1.153000, -0.043400
  1.155000, -0.045100
  1.157000, -0.046800
  1.159000, -0.048500
  1.161000, -0.050400
  1.163000, -0.052200
  1.165000, -0.054000
  1.167000, -0.055900
  1.169000, -0.057700
  1.171000, -0.059500
  1.173000, -0.061300
  1.175000, -0.063100
  1.177000, -0.064700
  1.179000, -0.066300
  1.181000, -0.067800
  1.183000, -0.069300
  1.185000, -0.070600
  1.187000, -0.071800
  1.189000, -0.072900
  1.191000, -0.073800
  1.193000, -0.074700
  1.195000, -0.075400
  1.197000, -0.075900
  1.199000, -0.076300
  1.201000, -0.076500
  1.203000, -0.076500
  1.205000, -0.076300
  1.207000, -0.076000
  1.209000, -0.075600
  1.211000, -0.074900
  1.213000, -0.074100
  1.215000, -0.073100
  1.217000, -0.071800
  1.219000, -0.070500
  1.221000, -0.068900
  1.223000, -0.067400
  1.225000, -0.065700
  1.227000, -0.063700
  1.229000, -0.061700
  1.231000, -0.059500
  1.233000, -0.057300
  1.235000, -0.055000
  1.237000, -0.052600
  1.239000, -0.050200
  1.241000, -0.047600
  1.243000, -0.045000
  1.245000, -0.042400
  1.247000, -0.039800
  1.249000, -0.037100
  1.251000, -0.034500
  1.253000, -0.031900
  1.255000, -0.029400
  1.257000, -0.026900
  1.259000, -0.024400
  1.261000, -0.022000
  1.263000, -0.019700
  1.265000, -0.017400
  1.267000, -0.015300
  1.269000, -0.013200
  1.271000, -0.011200
  1.273000, -0.009400
  1.275000, -0.007800
  1.277000, -0.006200
  1.279000, -0.004800
  1.281000, -0.003400
  1.283000, -0.002200
  1.285000, -0.001100
  1.287000, -0.000100
  1.289000,  0.000600
  1.291000,  0.001300
  1.293000,  0.001900
  1.295000,  0.002500
  1.297000,  0.003000
  1.299000,  0.003300
  1.301000,  0.003500
  1.303000,  0.003700
  1.305000,  0.003800
  1.307000,  0.003900
  1.309000,  0.004000
  1.311000,  0.004100
  1.313000,  0.004200
  1.315000,  0.004200
  1.317000,  0.004300
  1.319000,  0.004400
  1.321000,  0.004500
  1.323000,  0.004600
  1.325000,  0.004700
  1.327000,  0.004800
  1.329000,  0.005100
  1.331000,  0.005700
  1.333000,  0.006500
  1.335000,  0.007400
  1.337000,  0.008400
  1.339000,  0.009500
  1.341000,  0.010900
  1.343000,  0.012600
  1.345000,  0.014400
  1.347000,  0.016400
  1.349000,  0.018500
  1.351000,  0.020800
  1.353000,  0.023500
  1.355000,  0.026500
  1.357000,  0.029600
  1.359000,  0.032800
  1.361000,  0.036300
  1.363000,  0.040000
  1.365000,  0.044000
  1.367000,  0.048300
  1.369000,  0.052800
  1.371000,  0.057500
  1.373000,  0.062300
  1.375000,  0.067300
  1.377000,  0.072300
  1.379000,  0.077500
  1.381000,  0.082900
  1.383000,  0.088400
  1.385000,  0.093900
  1.387000,  0.099200
  1.389000,  0.104500
  1.391000,  0.109700
  1.393000,  0.114700
  1.395000,  0.119600
  1.397000,  0.124000
  1.399000,  0.128100
