# z (nm)   (kJ/mol)
  0.455000, 21.662900
  0.457000, 21.298100
  0.459000, 20.917000
  0.461000, 20.516000
  0.463000, 20.122200
  0.465000, 19.723700
  0.467000, 19.315300
  0.469000, 18.920900
  0.471000, 18.515000
  0.473000, 18.102000
  0.475000, 17.694200
  0.477000, 17.277700
  0.479000, 16.859900
  0.481000, 16.444100
  0.483000, 16.025400
  0.485000, 15.603400
  0.487000, 15.187100
  0.489000, 14.774100
  0.491000, 14.361300
  0.493000, 13.950900
  0.495000, 13.539100
  0.497000, 13.134300
  0.499000, 12.736700
  0.501000, 12.342600
  0.503000, 11.952800
  0.505000, 11.566200
  0.507000, 11.187300
  0.509000, 10.814900
  0.511000, 10.448500
  0.513000, 10.090800
  0.515000,  9.739500
  0.517000,  9.394400
  0.519000,  9.056100
  0.521000,  8.726100
  0.523000,  8.403600
  0.525000,  8.088800
  0.527000,  7.784100
  0.529000,  7.486500
  0.531000,  7.196000
  0.533000,  6.912500
  0.535000,  6.633700
  0.537000,  6.365300
  0.539000,  6.106600
  0.541000,  5.855300
  0.543000,  5.611300
  0.545000,  5.375400
  0.547000,  5.149000
  0.549000,  4.928000
  0.551000,  4.714600
  0.553000,  4.509900
  0.555000,  4.312800
  0.557000,  4.123200
  0.559000,  3.941000
  0.561000,  3.768500
  0.563000,  3.602300
  0.565000,  3.442300
  0.567000,  3.290300
  0.569000,  3.145800
  0.571000,  3.008700
  0.573000,  2.877800
  0.575000,  2.753600
  0.577000,  2.636300
  0.579000,  2.525300
  0.581000,  2.421200
  0.583000,  2.322700
  0.585000,  2.229500
  0.587000,  2.143200
  0.589000,  2.063200
  0.591000,  1.988100
  0.593000,  1.918500
  0.595000,  1.854500
  0.597000,  1.796000
  0.599000,  1.742800
  0.601000,  1.693600
  0.603000,  1.647500
  0.605000,  1.604600
  0.607000,  1.566200
  0.609000,  1.531000
  0.611000,  1.498600
  0.613000,  1.469200
  0.615000,  1.442800
  0.617000,  1.419600
  0.619000,  1.398800
  0.621000,  1.380500
  0.623000,  1.364000
  0.625000,  1.348400
  0.627000,  1.333900
  0.629000,  1.319900
  0.631000,  1.307300
  0.633000,  1.296300
  0.635000,  1.285300
  0.637000,  1.274400
  0.639000,  1.263400
  0.641000,  1.251900
  0.643000,  1.240200
  0.645000,  1.228000
  0.647000,  1.215400
  0.649000,  1.202800
  0.651000,  1.188900
  0.653000,  1.173700
  0.655000,  1.157400
  0.657000,  1.139900
  0.659000,  1.121500
  0.661000,  1.102100
  0.663000,  1.081200
  0.665000,  1.059500
  0.667000,  1.036800
  0.669000,  1.012800
  0.671000,  0.987500
  0.673000,  0.960800
  0.675000,  0.932900
  0.677000,  0.904200
  0.679000,  0.874400
  0.681000,  0.843300
  0.683000,  0.811100
  0.685000,  0.778200
  0.687000,  0.744500
  0.689000,  0.710100
  0.691000,  0.674800
  0.693000,  0.639000
  0.695000,  0.602700
  0.697000,  0.565800
  0.699000,  0.528500
  0.701000,  0.491000
  0.703000,  0.453300
  0.705000,  0.415500
  0.707000,  0.377600
  0.709000,  0.339600
  0.711000,  0.301800
  0.713000,  0.264200
  0.715000,  0.226800
  0.717000,  0.189700
  0.719000,  0.152900
  0.721000,  0.116800
  0.723000,  0.081200
  0.725000,  0.046200
  0.727000,  0.011900
  0.729000, -0.021700
  0.731000, -0.054500
  0.733000, -0.086200
  0.735000, -0.117100
  0.737000, -0.147400
  0.739000, -0.176600
  0.741000, -0.204800
  0.743000, -0.232000
  0.745000, -0.258200
  0.747000, -0.283200
  0.749000, -0.307100
  0.751000, -0.329900
  0.753000, -0.351700
  0.755000, -0.372200
  0.757000, -0.391700
  0.759000, -0.410100
  0.761000, -0.427300
  0.763000, -0.443300
  0.765000, -0.458300
  0.767000, -0.471900
  0.769000, -0.484400
  0.771000, -0.495800
  0.773000, -0.506100
  0.775000, -0.515300
  0.777000, -0.523400
  0.779000, -0.530500
  0.781000, -0.536300
  0.783000, -0.541000
  0.785000, -0.544800
  0.787000, -0.547800
  0.789000, -0.550000
  0.791000, -0.551300
  0.793000, -0.551600
  0.795000, -0.551100
  0.797000, -0.549900
  0.799000, -0.547800
  0.801000, -0.545000
  0.803000, -0.541700
  0.805000, -0.537600
  0.807000, -0.532900
  0.809000, -0.527700
  0.811000, -0.521900
  0.813000, -0.515500
  0.815000, -0.508900
  0.817000, -0.502000
  0.819000, -0.494500
  0.821000, -0.486600
  0.823000, -0.478700
  0.825000, -0.470600
  0.827000, -0.462000
  0.829000, -0.453200
  0.831000, -0.444400
  0.833000, -0.435500
  0.835000, -0.426500
  0.837000, -0.417600
  0.839000, -0.408600
  0.841000, -0.399600
  0.843000, -0.390800
  0.845000, -0.382000
  0.847000, -0.373300
  0.849000, -0.364800
  0.851000, -0.356400
  0.853000, -0.348200
  0.855000, -0.340200
  0.857000, -0.332500
  0.859000, -0.325000
  0.861000, -0.317800
  0.863000, -0.310900
  0.865000, -0.304100
  0.867000, -0.297900
  0.869000, -0.291800
  0.871000, -0.286000
  0.873000, -0.280600
  0.875000, -0.275500
  0.877000, -0.270700
  0.879000, -0.266300
  0.881000, -0.262300
  0.883000, -0.258700
  0.885000, -0.255200
  0.887000, -0.252000
  0.889000, -0.249000
  0.891000, -0.246400
  0.893000, -0.243900
  0.895000, -0.241800
  0.897000, -0.240100
  0.899000, -0.238600
  0.901000, -0.237200
  0.903000, -0.236100
  0.905000, -0.235200
  0.907000, -0.234700
  0.909000, -0.234300
  0.911000, -0.233800
  0.913000, -0.233500
  0.915000, -0.233400
  0.917000, -0.233400
  0.919000, -0.233400
  0.921000, -0.233600
  0.923000, -0.233900
  0.925000, -0.234300
  0.927000, -0.234800
  0.929000, -0.235200
  0.931000, -0.235400
  0.933000, -0.235700
  0.935000, -0.236000
  0.937000, -0.236300
  0.939000, -0.236600
  0.941000, -0.236900
  0.943000, -0.237100
  0.945000, -0.237300
  0.947000, -0.237400
  0.949000, -0.237300
  0.951000, -0.237100
  0.953000, -0.236800
  0.955000, -0.236300
  0.957000, -0.235400
  0.959000, -0.234600
  0.961000, -0.233700
  0.963000, -0.232500
  0.965000, -0.231200
  0.967000, -0.229900
  0.969000, -0.228300
  0.971000, -0.226400
  0.973000, -0.224400
  0.975000, -0.222200
  0.977000, -0.219900
  0.979000, -0.217600
  0.981000, -0.215200
  0.983000, -0.212400
  0.985000, -0.209300
  0.987000, -0.206200
  0.989000, -0.202800
  0.991000, -0.199400
  0.993000, -0.195900
  0.995000, -0.192400
  0.997000, -0.188700
  0.999000, -0.184900
  1.001000, -0.181000
  1.003000, -0.177000
  1.005000, -0.173000
  1.007000, -0.169100
  1.009000, -0.165000
  1.011000, -0.160900
  1.013000, -0.156600
  1.015000, -0.152500
  1.017000, -0.148300
  1.019000, -0.144000
  1.021000, -0.139500
  1.023000, -0.135300
  1.025000, -0.131200
  1.027000, -0.127000
  1.029000, -0.122800
  1.031000, -0.118600
  1.033000, -0.114500
  1.035000, -0.110400
  1.037000, -0.106400
  1.039000, -0.102600
  1.041000, -0.098800
  1.043000, -0.095200
  1.045000, -0.091600
  1.047000, -0.087900
  1.049000, -0.084400
  1.051000, -0.081100
  1.053000, -0.077900
  1.055000, -0.074800
  1.057000, -0.071700
  1.059000, -0.068600
  1.061000, -0.065600
  1.063000, -0.062500
  1.065000, -0.059700
  1.067000, -0.057000
  1.069000, -0.054300
  1.071000, -0.051700
  1.073000, -0.049200
  1.075000, -0.046800
  1.077000, -0.044500
  1.079000, -0.042300
  1.081000, -0.040200
  1.083000, -0.038100
  1.085000, -0.036100
  1.087000, -0.034200
  1.089000, -0.032400
  1.091000, -0.030800
  1.093000, -0.029200
  1.095000, -0.027700
  1.097000, -0.026200
  1.099000, -0.024900
  1.101000, -0.023600
  1.103000, -0.022400
  1.105000, -0.021400
  1.107000, -0.020400
  1.109000, -0.019400
  1.111000, -0.018600
  1.113000, -0.017900
  1.115000, -0.017300
  1.117000, -0.016800
  1.119000, -0.016300
  1.121000, -0.016000
  1.123000, -0.015800
  1.125000, -0.015600
  1.127000, -0.015500
  1.129000, -0.015500
  1.131000, -0.015400
  1.133000, -0.015500
  1.135000, -0.015700
  1.137000, -0.015900
  1.139000, -0.016100
  1.141000, -0.016400
  1.143000, -0.016800
  1.145000, -0.017300
  1.147000, -0.017700
  1.149000, -0.018200
  1.151000, -0.018800
  1.153000, -0.019400
  1.155000, -0.020000
  1.157000, -0.020600
  1.159000, -0.021300
  1.161000, -0.022100
  1.163000, -0.022800
  1.165000, -0.023500
  1.167000, -0.024100
  1.169000, -0.024700
  1.171000, -0.025400
  1.173000, -0.026000
  1.175000, -0.026500
  1.177000, -0.027000
  1.179000, -0.027400
  1.181000, -0.027900
  1.183000, -0.028400
  1.185000, -0.028800
  1.187000, -0.029200
  1.189000, -0.029600
  1.191000, -0.029800
  1.193000, -0.030000
  1.195000, -0.030100
  1.197000, -0.030200
  1.199000, -0.030100
  1.201000, -0.029900
  1.203000, -0.029600
  1.205000, -0.029300
  1.207000, -0.028900
  1.209000, -0.028400
  1.211000, -0.027800
  1.213000, -0.027100
  1.215000, -0.026200
  1.217000, -0.025300
  1.219000, -0.024400
  1.221000, -0.023500
  1.223000, -0.022500
  1.225000, -0.021400
  1.227000, -0.020100
  1.229000, -0.018800
  1.231000, -0.017400
  1.233000, -0.016100
  1.235000, -0.014800
  1.237000, -0.013300
  1.239000, -0.011800
  1.241000, -0.010400
  1.243000, -0.008900
  1.245000, -0.007400
  1.247000, -0.006000
  1.249000, -0.004500
  1.251000, -0.003000
  1.253000, -0.001600
  1.255000, -0.000200
  1.257000,  0.001200
  1.259000,  0.002400
  1.261000,  0.003500
  1.263000,  0.004600
  1.265000,  0.005600
  1.267000,  0.006600
  1.269000,  0.007400
  1.271000,  0.008100
  1.273000,  0.008700
  1.275000,  0.009100
  1.277000,  0.009500
  1.279000,  0.009800
  1.281000,  0.009900
  1.283000,  0.009800
  1.285000,  0.009600
  1.287000,  0.009300
  1.289000,  0.008900
  1.291000,  0.008400
  1.293000,  0.007700
  1.295000,  0.006900
  1.297000,  0.006100
  1.299000,  0.005100
  1.301000,  0.003900
  1.303000,  0.002700
  1.305000,  0.001400
  1.307000, -0.000100
  1.309000, -0.001600
  1.311000, -0.003100
  1.313000, -0.004600
  1.315000, -0.006300
  1.317000, -0.007900
  1.319000, -0.009400
  1.321000, -0.010800
  1.323000, -0.012200
  1.325000, -0.013600
  1.327000, -0.014900
  1.329000, -0.016100
  1.331000, -0.017200
  1.333000, -0.018000
  1.335000, -0.018700
  1.337000, -0.019300
  1.339000, -0.019700
  1.341000, -0.019900
  1.343000, -0.019900
  1.345000, -0.019700
  1.347000, -0.019300
  1.349000, -0.018500
  1.351000, -0.017400
  1.353000, -0.015900
  1.355000, -0.014300
  1.357000, -0.012200
  1.359000, -0.009700
  1.361000, -0.007000
  1.363000, -0.004000
  1.365000, -0.000600
  1.367000,  0.003100
  1.369000,  0.007200
  1.371000,  0.011400
  1.373000,  0.016000
  1.375000,  0.020900
  1.377000,  0.026200
  1.379000,  0.031700
  1.381000,  0.037500
  1.383000,  0.043300
  1.385000,  0.049300
  1.387000,  0.055600
  1.389000,  0.061900
  1.391000,  0.068300
  1.393000,  0.074600
  1.395000,  0.080700
  1.397000,  0.086600
  1.399000,  0.092300
