# z (nm)   (kJ/mol)
  0.425000, 20.320700
  0.433000, 19.267200
  0.435000, 18.912400
  0.437000, 18.511900
  0.439000, 18.145600
  0.441000, 17.806700
  0.443000, 17.431500
  0.445000, 17.054800
  0.447000, 16.660500
  0.449000, 16.256400
  0.451000, 15.843500
  0.453000, 15.415000
  0.455000, 14.993700
  0.457000, 14.571100
  0.459000, 14.146800
  0.461000, 13.719200
  0.463000, 13.284800
  0.465000, 12.852000
  0.467000, 12.421100
  0.469000, 11.992000
  0.471000, 11.568200
  0.473000, 11.145400
  0.475000, 10.723200
  0.477000, 10.305300
  0.479000,  9.893500
  0.481000,  9.489000
  0.483000,  9.088600
  0.485000,  8.691100
  0.487000,  8.299500
  0.489000,  7.914700
  0.491000,  7.537200
  0.493000,  7.167100
  0.495000,  6.806200
  0.497000,  6.453700
  0.499000,  6.103800
  0.501000,  5.763800
  0.503000,  5.435900
  0.505000,  5.115600
  0.507000,  4.798700
  0.509000,  4.487300
  0.511000,  4.187200
  0.513000,  3.896200
  0.515000,  3.615500
  0.517000,  3.342200
  0.519000,  3.077100
  0.521000,  2.821200
  0.523000,  2.572000
  0.525000,  2.331600
  0.527000,  2.100600
  0.529000,  1.878600
  0.531000,  1.665100
  0.533000,  1.461600
  0.535000,  1.268400
  0.537000,  1.083600
  0.539000,  0.906400
  0.541000,  0.738500
  0.543000,  0.579700
  0.545000,  0.430200
  0.547000,  0.290000
  0.549000,  0.157800
  0.551000,  0.034100
  0.553000, -0.081200
  0.555000, -0.188000
  0.557000, -0.286100
  0.559000, -0.376200
  0.561000, -0.458800
  0.563000, -0.533500
  0.565000, -0.599800
  0.567000, -0.658200
  0.569000, -0.709300
  0.571000, -0.753200
  0.573000, -0.789500
  0.575000, -0.820100
  0.577000, -0.844600
  0.579000, -0.863000
  0.581000, -0.875600
  0.583000, -0.882200
  0.585000, -0.883900
  0.587000, -0.880400
  0.589000, -0.871800
  0.591000, -0.858800
  0.593000, -0.841200
  0.595000, -0.818300
  0.597000, -0.793100
  0.599000, -0.765200
  0.601000, -0.735000
  0.603000, -0.703700
  0.605000, -0.669500
  0.607000, -0.633800
  0.609000, -0.597400
  0.611000, -0.560800
  0.613000, -0.524100
  0.615000, -0.486300
  0.617000, -0.449400
  0.619000, -0.413700
  0.621000, -0.378100
  0.623000, -0.343100
  0.625000, -0.309600
  0.627000, -0.277800
  0.629000, -0.247200
  0.631000, -0.218200
  0.633000, -0.191100
  0.635000, -0.166100
  0.637000, -0.142900
  0.639000, -0.121300
  0.641000, -0.101800
  0.643000, -0.084000
  0.645000, -0.068200
  0.647000, -0.054600
  0.649000, -0.042200
  0.651000, -0.032000
  0.653000, -0.024100
  0.655000, -0.017700
  0.657000, -0.012900
  0.659000, -0.010200
  0.661000, -0.009000
  0.663000, -0.009200
  0.665000, -0.010900
  0.667000, -0.013500
  0.669000, -0.017500
  0.671000, -0.022900
  0.673000, -0.029900
  0.675000, -0.037800
  0.677000, -0.046600
  0.679000, -0.056300
  0.681000, -0.066900
  0.683000, -0.077800
  0.685000, -0.089500
  0.687000, -0.102400
  0.689000, -0.115600
  0.691000, -0.129000
  0.693000, -0.142600
  0.695000, -0.156600
  0.697000, -0.170900
  0.699000, -0.185500
  0.701000, -0.200500
  0.703000, -0.215800
  0.705000, -0.231000
  0.707000, -0.246300
  0.709000, -0.261600
  0.711000, -0.276900
  0.713000, -0.292400
  0.715000, -0.307600
  0.717000, -0.322500
  0.719000, -0.337500
  0.721000, -0.352500
  0.723000, -0.367200
  0.725000, -0.382000
  0.727000, -0.397000
  0.729000, -0.411800
  0.731000, -0.426000
  0.733000, -0.440000
  0.735000, -0.454200
  0.737000, -0.468500
  0.739000, -0.482400
  0.741000, -0.496100
  0.743000, -0.509400
  0.745000, -0.522500
  0.747000, -0.535500
  0.749000, -0.548000
  0.751000, -0.560200
  0.753000, -0.572200
  0.755000, -0.583700
  0.757000, -0.595100
  0.759000, -0.606500
  0.761000, -0.617300
  0.763000, -0.627500
  0.765000, -0.637400
  0.767000, -0.646900
  0.769000, -0.655900
  0.771000, -0.664400
  0.773000, -0.672300
  0.775000, -0.679600
  0.777000, -0.686300
  0.779000, -0.692400
  0.781000, -0.697900
  0.783000, -0.702800
  0.785000, -0.707100
  0.787000, -0.710600
  0.789000, -0.713500
  0.791000, -0.715600
  0.793000, -0.716900
  0.795000, -0.717400
  0.797000, -0.717200
  0.799000, -0.716500
  0.801000, -0.714900
  0.803000, -0.712500
  0.805000, -0.709200
  0.807000, -0.705000
  0.809000, -0.700500
  0.811000, -0.695100
  0.813000, -0.689100
  0.815000, -0.682300
  0.817000, -0.674800
  0.819000, -0.666700
  0.821000, -0.658000
  0.823000, -0.648700
  0.825000, -0.638800
  0.827000, -0.628400
  0.829000, -0.617400
  0.831000, -0.605800
  0.833000, -0.593800
  0.835000, -0.581500
  0.837000, -0.568800
  0.839000, -0.555600
  0.841000, -0.542000
  0.843000, -0.528300
  0.845000, -0.514300
  0.847000, -0.500100
  0.849000, -0.485600
  0.851000, -0.470900
  0.853000, -0.456300
  0.855000, -0.441600
  0.857000, -0.426800
  0.859000, -0.411800
  0.861000, -0.396900
  0.863000, -0.382200
  0.865000, -0.367700
  0.867000, -0.353200
  0.869000, -0.338700
  0.871000, -0.324500
  0.873000, -0.310600
  0.875000, -0.296700
  0.877000, -0.283100
  0.879000, -0.269800
  0.881000, -0.256800
  0.883000, -0.244000
  0.885000, -0.231500
  0.887000, -0.219400
  0.889000, -0.207800
  0.891000, -0.196600
  0.893000, -0.185700
  0.895000, -0.175300
  0.897000, -0.165300
  0.899000, -0.155900
  0.901000, -0.146800
  0.903000, -0.138200
  0.905000, -0.130100
  0.907000, -0.122400
  0.909000, -0.115100
  0.911000, -0.108300
  0.913000, -0.101900
  0.915000, -0.096000
  0.917000, -0.090600
  0.919000, -0.085700
  0.921000, -0.081200
  0.923000, -0.077200
  0.925000, -0.073700
  0.927000, -0.070500
  0.929000, -0.067900
  0.931000, -0.065600
  0.933000, -0.063700
  0.935000, -0.062200
  0.937000, -0.061200
  0.939000, -0.060500
  0.941000, -0.060100
  0.943000, -0.060100
  0.945000, -0.060300
  0.947000, -0.060800
  0.949000, -0.061600
  0.951000, -0.062700
  0.953000, -0.064100
  0.955000, -0.065600
  0.957000, -0.067400
  0.959000, -0.069400
  0.961000, -0.071400
  0.963000, -0.073600
  0.965000, -0.075900
  0.967000, -0.078300
  0.969000, -0.080700
  0.971000, -0.083300
  0.973000, -0.085900
  0.975000, -0.088400
  0.977000, -0.090900
  0.979000, -0.093500
  0.981000, -0.096000
  0.983000, -0.098500
  0.985000, -0.100800
  0.987000, -0.103100
  0.989000, -0.105100
  0.991000, -0.107100
  0.993000, -0.109000
  0.995000, -0.110700
  0.997000, -0.112200
  0.999000, -0.113500
  1.001000, -0.114400
  1.003000, -0.115200
  1.005000, -0.115800
  1.007000, -0.116300
  1.009000, -0.116600
  1.011000, -0.116600
  1.013000, -0.116400
  1.015000, -0.115900
  1.017000, -0.115300
  1.019000, -0.114400
  1.021000, -0.113300
  1.023000, -0.112100
  1.025000, -0.110600
  1.027000, -0.108900
  1.029000, -0.107000
  1.031000, -0.105000
  1.033000, -0.102900
  1.035000, -0.100500
  1.037000, -0.098100
  1.039000, -0.095600
  1.041000, -0.093000
  1.043000, -0.090200
  1.045000, -0.087300
  1.047000, -0.084400
  1.049000, -0.081400
  1.051000, -0.078400
  1.053000, -0.075300
  1.055000, -0.072300
  1.057000, -0.069400
  1.059000, -0.066500
  1.061000, -0.063700
  1.063000, -0.060800
  1.065000, -0.058000
  1.067000, -0.055300
  1.069000, -0.052800
  1.071000, -0.050300
  1.073000, -0.047800
  1.075000, -0.045500
  1.077000, -0.043400
  1.079000, -0.041400
  1.081000, -0.039600
  1.083000, -0.037800
  1.085000, -0.036300
  1.087000, -0.034900
  1.089000, -0.033800
  1.091000, -0.032800
  1.093000, -0.032000
  1.095000, -0.031300
  1.097000, -0.030800
  1.099000, -0.030500
  1.101000, -0.030400
  1.103000, -0.030500
  1.105000, -0.030600
  1.107000, -0.030900
  1.109000, -0.031300
  1.111000, -0.031700
  1.113000, -0.032300
  1.115000, -0.033000
  1.117000, -0.033900
  1.119000, -0.034700
  1.121000, -0.035500
  1.123000, -0.036600
  1.125000, -0.037600
  1.127000, -0.038800
  1.129000, -0.039900
  1.131000, -0.041000
  1.133000, -0.042100
  1.135000, -0.043200
  1.137000, -0.044400
  1.139000, -0.045500
  1.141000, -0.046600
  1.143000, -0.047500
  1.145000, -0.048500
  1.147000, -0.049400
  1.149000, -0.050300
  1.151000, -0.051100
  1.153000, -0.051700
  1.155000, -0.052300
  1.157000, -0.052700
  1.159000, -0.053200
  1.161000, -0.053500
  1.163000, -0.053600
  1.165000, -0.053800
  1.167000, -0.053700
  1.169000, -0.053500
  1.171000, -0.053300
  1.173000, -0.053000
  1.175000, -0.052600
  1.177000, -0.052100
  1.179000, -0.051400
  1.181000, -0.050700
  1.183000, -0.049900
  1.185000, -0.049000
  1.187000, -0.048000
  1.189000, -0.046900
  1.191000, -0.045700
  1.193000, -0.044500
  1.195000, -0.043200
  1.197000, -0.041900
  1.199000, -0.040500
  1.201000, -0.038900
  1.203000, -0.037300
  1.205000, -0.035700
  1.207000, -0.034100
  1.209000, -0.032500
  1.211000, -0.030800
  1.213000, -0.029200
  1.215000, -0.027700
  1.217000, -0.025900
  1.219000, -0.024200
  1.221000, -0.022700
  1.223000, -0.021100
  1.225000, -0.019500
  1.227000, -0.017900
  1.229000, -0.016400
  1.231000, -0.015000
  1.233000, -0.013700
  1.235000, -0.012400
  1.237000, -0.011000
  1.239000, -0.009500
  1.241000, -0.008200
  1.243000, -0.007000
  1.245000, -0.005900
  1.247000, -0.005000
  1.249000, -0.004100
  1.251000, -0.003200
  1.253000, -0.002400
  1.255000, -0.001700
  1.257000, -0.001000
  1.259000, -0.000400
  1.261000,  0.000000
  1.263000,  0.000300
  1.265000,  0.000600
  1.267000,  0.001000
  1.269000,  0.001300
  1.271000,  0.001500
  1.273000,  0.001500
  1.275000,  0.001600
  1.277000,  0.001500
  1.279000,  0.001300
  1.281000,  0.001100
  1.283000,  0.000800
  1.285000,  0.000500
  1.287000,  0.000200
  1.289000, -0.000100
  1.291000, -0.000600
  1.293000, -0.001100
  1.295000, -0.001600
  1.297000, -0.002200
  1.299000, -0.002800
  1.301000, -0.003400
  1.303000, -0.004000
  1.305000, -0.004600
  1.307000, -0.005200
  1.309000, -0.005800
  1.311000, -0.006400
  1.313000, -0.007000
  1.315000, -0.007600
  1.317000, -0.008100
  1.319000, -0.008500
  1.321000, -0.008900
  1.323000, -0.009200
  1.325000, -0.009400
  1.327000, -0.009600
  1.329000, -0.009700
  1.331000, -0.009500
  1.333000, -0.009300
  1.335000, -0.008900
  1.337000, -0.008300
  1.339000, -0.007700
  1.341000, -0.007100
  1.343000, -0.006200
  1.345000, -0.005100
  1.347000, -0.003800
  1.349000, -0.002500
  1.351000, -0.001100
  1.353000,  0.000500
  1.355000,  0.002300
  1.357000,  0.004300
  1.359000,  0.006300
  1.361000,  0.008500
  1.363000,  0.010900
  1.365000,  0.013500
  1.367000,  0.016100
  1.369000,  0.018800
  1.371000,  0.021700
  1.373000,  0.024700
  1.375000,  0.027800
  1.377000,  0.031100
  1.379000,  0.034300
  1.381000,  0.037600
  1.383000,  0.040900
  1.385000,  0.044000
  1.387000,  0.047300
  1.389000,  0.050700
  1.391000,  0.054100
  1.393000,  0.057100
  1.395000,  0.059900
  1.397000,  0.062500
  1.399000,  0.064700
