# z (nm)   (kJ/mol)
  0.0560  275.24553
  0.0580  274.92764
  0.0600  272.07782
  0.0620  268.77251
  0.0640  265.40986
  0.0660  262.07651
  0.0680  258.80731
  0.0700  255.69270
  0.0720  252.58936
  0.0740  249.41647
  0.0760  246.22186
  0.0780  242.96393
  0.0800  239.65486
  0.0820  236.28951
  0.0840  232.86444
  0.0860  229.37535
  0.0880  225.82091
  0.0900  222.19947
  0.0920  218.52000
  0.0940  214.78737
  0.0960  211.00010
  0.0980  207.16235
  0.1000  203.28794
  0.1020  199.38288
  0.1040  195.45874
  0.1060  191.52971
  0.1080  187.60286
  0.1100  183.69317
  0.1120  179.81774
  0.1140  175.98829
  0.1160  172.21357
  0.1180  168.49647
  0.1200  164.84373
  0.1220  161.25765
  0.1240  157.73959
  0.1260  154.28596
  0.1280  150.90468
  0.1300  147.58687
  0.1320  144.34318
  0.1340  141.16818
  0.1360  138.05863
  0.1380  135.00905
  0.1400  132.02368
  0.1420  129.08722
  0.1440  126.19254
  0.1460  123.33195
  0.1480  120.50066
  0.1500  117.69022
  0.1520  114.89187
  0.1540  112.11270
  0.1560  109.34814
  0.1580  106.60161
  0.1600  103.88739
  0.1620  101.21393
  0.1640   98.58873
  0.1660   96.01288
  0.1680   93.49197
  0.1700   91.01913
  0.1720   88.58726
  0.1740   86.18802
  0.1760   83.80782
  0.1780   81.44703
  0.1800   79.10631
  0.1820   76.79454
  0.1840   74.50728
  0.1860   72.25386
  0.1880   70.03102
  0.1900   67.83805
  0.1920   65.66674
  0.1940   63.52164
  0.1960   61.39790
  0.1980   59.29924
  0.2000   57.23111
  0.2020   55.18732
  0.2040   53.19255
  0.2060   51.23975
  0.2080   49.34457
  0.2100   47.50963
  0.2120   45.73066
  0.2140   44.00282
  0.2160   42.32569
  0.2180   40.68301
  0.2200   39.07214
  0.2220   37.48221
  0.2240   35.91289
  0.2260   34.35622
  0.2280   32.81745
  0.2300   31.30008
  0.2320   29.80776
  0.2340   28.34803
  0.2360   26.92179
  0.2380   25.54391
  0.2400   24.20608
  0.2420   22.91209
  0.2440   21.65548
  0.2460   20.43857
  0.2480   19.25545
  0.2500   18.11372
  0.2520   17.01320
  0.2540   15.94009
  0.2560   14.90277
  0.2580   13.90475
  0.2600   12.93366
  0.2620   11.98867
  0.2640   11.08232
  0.2660   10.20167
  0.2680    9.35508
  0.2700    8.54462
  0.2720    7.75703
  0.2740    6.99679
  0.2760    6.26770
  0.2780    5.57332
  0.2800    4.91198
  0.2820    4.28028
  0.2840    3.68359
  0.2860    3.11689
  0.2880    2.58182
  0.2900    2.07709
  0.2920    1.60178
  0.2940    1.15382
  0.2960    0.73793
  0.2980    0.34449
  0.3000   -0.02002
  0.3020   -0.35864
  0.3040   -0.67392
  0.3060   -0.96559
  0.3080   -1.23896
  0.3100   -1.48845
  0.3120   -1.71560
  0.3140   -1.92490
  0.3160   -2.11187
  0.3180   -2.28317
  0.3200   -2.43011
  0.3220   -2.55993
  0.3240   -2.67054
  0.3260   -2.76271
  0.3280   -2.83607
  0.3300   -2.89274
  0.3320   -2.93505
  0.3340   -2.96151
  0.3360   -2.97542
  0.3380   -2.97799
  0.3400   -2.96458
  0.3420   -2.93387
  0.3440   -2.89883
  0.3460   -2.85173
  0.3480   -2.79693
  0.3500   -2.73070
  0.3520   -2.64945
  0.3540   -2.56538
  0.3560   -2.47763
  0.3580   -2.37939
  0.3600   -2.27353
  0.3620   -2.16050
  0.3640   -2.04101
  0.3660   -1.91563
  0.3680   -1.78064
  0.3700   -1.63984
  0.3720   -1.49586
  0.3740   -1.34468
  0.3760   -1.18938
  0.3780   -1.02864
  0.3800   -0.86869
  0.3820   -0.70671
  0.3840   -0.53993
  0.3860   -0.37417
  0.3880   -0.20818
  0.3900   -0.04842
  0.3920    0.10534
  0.3940    0.25937
  0.3960    0.41407
  0.3980    0.56192
  0.4000    0.71317
  0.4020    0.86510
  0.4040    1.01558
  0.4060    1.16945
  0.4080    1.32339
  0.4100    1.47774
  0.4120    1.63390
  0.4140    1.79069
  0.4160    1.95340
  0.4180    2.11289
  0.4200    2.27430
  0.4220    2.42979
  0.4240    2.57529
  0.4260    2.72244
  0.4280    2.85935
  0.4300    2.99657
  0.4320    3.12189
  0.4340    3.24320
  0.4360    3.35781
  0.4380    3.47657
  0.4400    3.58577
  0.4420    3.69008
  0.4440    3.79190
  0.4460    3.89516
  0.4480    3.99566
  0.4500    4.10061
  0.4520    4.20041
  0.4540    4.29657
  0.4560    4.39361
  0.4580    4.48980
  0.4600    4.58261
  0.4620    4.67820
  0.4640    4.76797
  0.4660    4.85366
  0.4680    4.93342
  0.4700    5.01548
  0.4720    5.09444
  0.4740    5.17108
  0.4760    5.23799
  0.4780    5.30225
  0.4800    5.36006
  0.4820    5.41505
  0.4840    5.46792
  0.4860    5.51164
  0.4880    5.55553
  0.4900    5.59454
  0.4920    5.63284
  0.4940    5.66082
  0.4960    5.68284
  0.4980    5.70593
  0.5000    5.72627
  0.5020    5.74202
  0.5040    5.75402
  0.5060    5.75996
  0.5080    5.76399
  0.5100    5.76348
  0.5120    5.76170
  0.5140    5.75439
  0.5160    5.74226
  0.5180    5.73205
  0.5200    5.71088
  0.5220    5.68419
  0.5240    5.64648
  0.5260    5.60650
  0.5280    5.56330
  0.5300    5.50978
  0.5320    5.45127
  0.5340    5.39048
  0.5360    5.32357
  0.5380    5.25000
  0.5400    5.16791
  0.5420    5.08741
  0.5440    4.99394
  0.5460    4.89102
  0.5480    4.78678
  0.5500    4.67084
  0.5520    4.55597
  0.5540    4.43366
  0.5560    4.31368
  0.5580    4.18742
  0.5600    4.05882
  0.5620    3.93265
  0.5640    3.80470
  0.5660    3.68088
  0.5680    3.56016
  0.5700    3.43883
  0.5720    3.31908
  0.5740    3.20423
  0.5760    3.08725
  0.5780    2.97066
  0.5800    2.85885
  0.5820    2.75057
  0.5840    2.64270
  0.5860    2.53253
  0.5880    2.42211
  0.5900    2.31213
  0.5920    2.19487
  0.5940    2.08466
  0.5960    1.97335
  0.5980    1.85948
  0.6000    1.75473
  0.6020    1.64082
  0.6040    1.53534
  0.6060    1.43639
  0.6080    1.33942
  0.6100    1.24773
  0.6120    1.16210
  0.6140    1.08014
  0.6160    1.00682
  0.6180    0.93912
  0.6200    0.87667
  0.6220    0.81511
  0.6240    0.76183
  0.6260    0.71151
  0.6280    0.66135
  0.6300    0.61847
  0.6320    0.57940
  0.6340    0.54009
  0.6360    0.50620
  0.6380    0.47151
  0.6400    0.44092
  0.6420    0.41243
  0.6440    0.38177
  0.6460    0.35816
  0.6480    0.33680
  0.6500    0.31307
  0.6520    0.28877
  0.6540    0.26793
  0.6560    0.24893
  0.6580    0.23793
  0.6600    0.22568
  0.6620    0.22008
  0.6640    0.21536
  0.6660    0.21766
  0.6680    0.22814
  0.6700    0.23696
  0.6720    0.25078
  0.6740    0.26582
  0.6760    0.28282
  0.6780    0.30074
  0.6800    0.31576
  0.6820    0.33077
  0.6840    0.34624
  0.6860    0.36360
  0.6880    0.37384
  0.6900    0.38588
  0.6920    0.40171
  0.6940    0.41749
  0.6960    0.43486
  0.6980    0.45595
  0.7000    0.47076
  0.7020    0.48699
  0.7040    0.50671
  0.7060    0.52611
  0.7080    0.54214
  0.7100    0.56407
  0.7120    0.58240
  0.7140    0.60201
  0.7160    0.62336
  0.7180    0.64382
  0.7200    0.66171
  0.7220    0.68027
  0.7240    0.70103
  0.7260    0.72614
  0.7280    0.75039
  0.7300    0.78330
  0.7320    0.80836
  0.7340    0.83501
  0.7360    0.86594
  0.7380    0.88885
  0.7400    0.92145
  0.7420    0.94894
  0.7440    0.97477
  0.7460    0.99863
  0.7480    1.02334
  0.7500    1.04389
  0.7520    1.06202
  0.7540    1.07929
  0.7560    1.09782
  0.7580    1.11514
  0.7600    1.12656
  0.7620    1.14606
  0.7640    1.16587
  0.7660    1.18567
  0.7680    1.20305
  0.7700    1.22259
  0.7720    1.24077
  0.7740    1.25337
  0.7760    1.26157
  0.7780    1.26979
  0.7800    1.27586
  0.7820    1.28446
  0.7840    1.28516
  0.7860    1.28433
  0.7880    1.27857
  0.7900    1.27375
  0.7920    1.26827
  0.7940    1.26681
  0.7960    1.26724
  0.7980    1.27707
  0.8000    1.27970
  0.8020    1.28398
  0.8040    1.28685
  0.8060    1.29145
  0.8080    1.29462
  0.8100    1.29582
  0.8120    1.29969
  0.8140    1.30172
  0.8160    1.29999
  0.8180    1.29193
  0.8200    1.28386
  0.8220    1.26787
  0.8240    1.25595
  0.8260    1.23717
  0.8280    1.21997
  0.8300    1.19993
  0.8320    1.17975
  0.8340    1.16453
  0.8360    1.13886
  0.8380    1.11428
  0.8400    1.09279
  0.8420    1.07030
  0.8440    1.05395
  0.8460    1.03174
  0.8480    1.00795
  0.8500    0.98743
  0.8520    0.96648
  0.8540    0.94209
  0.8560    0.91144
  0.8580    0.88184
  0.8600    0.84686
  0.8620    0.81263
  0.8640    0.77617
  0.8660    0.74012
  0.8680    0.70230
  0.8700    0.66170
  0.8720    0.62227
  0.8740    0.58536
  0.8760    0.54743
  0.8780    0.51922
  0.8800    0.48698
  0.8820    0.45696
  0.8840    0.43266
  0.8860    0.40414
  0.8880    0.37899
  0.8900    0.36195
  0.8920    0.34544
  0.8940    0.32810
  0.8960    0.31070
  0.8980    0.29093
  0.9000    0.27947
  0.9020    0.26942
  0.9040    0.26371
  0.9060    0.25688
  0.9080    0.24849
  0.9100    0.24033
  0.9120    0.22858
  0.9140    0.21253
  0.9160    0.19632
  0.9180    0.17795
  0.9200    0.15750
  0.9220    0.13323
  0.9240    0.11129
  0.9260    0.08524
  0.9280    0.05984
  0.9300    0.03032
  0.9320    0.00961
  0.9340   -0.01406
  0.9360   -0.03578
  0.9380   -0.05362
  0.9400   -0.06848
  0.9420   -0.07745
  0.9440   -0.08322
  0.9460   -0.08983
  0.9480   -0.09095
  0.9500   -0.09078
  0.9520   -0.08801
  0.9540   -0.08473
  0.9560   -0.09182
  0.9580   -0.08751
  0.9600   -0.09007
  0.9620   -0.09163
  0.9640   -0.09915
  0.9660   -0.10543
  0.9680   -0.11148
  0.9700   -0.11789
  0.9720   -0.12156
  0.9740   -0.12505
  0.9760   -0.12049
  0.9780   -0.11618
  0.9800   -0.10863
  0.9820   -0.09324
  0.9840   -0.08319
  0.9860   -0.07346
  0.9880   -0.06196
  0.9900   -0.05425
  0.9920   -0.04641
  0.9940   -0.03834
  0.9960   -0.03014
  0.9980   -0.02251
  1.0000   -0.01395
