# z (nm)   (kJ/mol)
  0.1250   13.79300
  0.1270   13.55100
  0.1290   13.25900
  0.1310   12.96400
  0.1330   12.65600
  0.1350   12.32000
  0.1370   11.98200
  0.1390   11.65400
  0.1410   11.29500
  0.1430   10.91600
  0.1450   10.53100
  0.1470   10.14000
  0.1490    9.75000
  0.1510    9.36300
  0.1530    8.96400
  0.1550    8.55500
  0.1570    8.14200
  0.1590    7.72900
  0.1610    7.31800
  0.1630    6.90100
  0.1650    6.48400
  0.1670    6.06400
  0.1690    5.64700
  0.1710    5.23500
  0.1730    4.81500
  0.1750    4.39100
  0.1770    3.96700
  0.1790    3.54400
  0.1810    3.12700
  0.1830    2.71500
  0.1850    2.31400
  0.1870    1.92100
  0.1890    1.52700
  0.1910    1.13800
  0.1930    0.75800
  0.1950    0.38400
  0.1970    0.01500
  0.1990   -0.34700
  0.2010   -0.70100
  0.2030   -1.05000
  0.2050   -1.39300
  0.2070   -1.72800
  0.2090   -2.05100
  0.2110   -2.36400
  0.2130   -2.66900
  0.2150   -2.96300
  0.2170   -3.24700
  0.2190   -3.52400
  0.2210   -3.79000
  0.2230   -4.04700
  0.2250   -4.29400
  0.2270   -4.53200
  0.2290   -4.76100
  0.2310   -4.98000
  0.2330   -5.18600
  0.2350   -5.38100
  0.2370   -5.56700
  0.2390   -5.74200
  0.2410   -5.90600
  0.2430   -6.06000
  0.2450   -6.20300
  0.2470   -6.33500
  0.2490   -6.45600
  0.2510   -6.56800
  0.2530   -6.67000
  0.2550   -6.76200
  0.2570   -6.84400
  0.2590   -6.91600
  0.2610   -6.97900
  0.2630   -7.03300
  0.2650   -7.07900
  0.2670   -7.11500
  0.2690   -7.14300
  0.2710   -7.16200
  0.2730   -7.17500
  0.2750   -7.17900
  0.2770   -7.17600
  0.2790   -7.16600
  0.2810   -7.15100
  0.2830   -7.12900
  0.2850   -7.10100
  0.2870   -7.06800
  0.2890   -7.02900
  0.2910   -6.98600
  0.2930   -6.93800
  0.2950   -6.88600
  0.2970   -6.83100
  0.2990   -6.77200
  0.3010   -6.71000
  0.3030   -6.64500
  0.3050   -6.57600
  0.3070   -6.50600
  0.3090   -6.43300
  0.3110   -6.35800
  0.3130   -6.28200
  0.3150   -6.20300
  0.3170   -6.12400
  0.3190   -6.04400
  0.3210   -5.96200
  0.3230   -5.87900
  0.3250   -5.79400
  0.3270   -5.70900
  0.3290   -5.62300
  0.3310   -5.53700
  0.3330   -5.45000
  0.3350   -5.36100
  0.3370   -5.27200
  0.3390   -5.18300
  0.3410   -5.09400
  0.3430   -5.00300
  0.3450   -4.91100
  0.3470   -4.81900
  0.3490   -4.72700
  0.3510   -4.63500
  0.3530   -4.54200
  0.3550   -4.45000
  0.3570   -4.35600
  0.3590   -4.26300
  0.3610   -4.16900
  0.3630   -4.07500
  0.3650   -3.98100
  0.3670   -3.88800
  0.3690   -3.79400
  0.3710   -3.70100
  0.3730   -3.60800
  0.3750   -3.51500
  0.3770   -3.42300
  0.3790   -3.33100
  0.3810   -3.24000
  0.3830   -3.15000
  0.3850   -3.06100
  0.3870   -2.97300
  0.3890   -2.88600
  0.3910   -2.80100
  0.3930   -2.71600
  0.3950   -2.63400
  0.3970   -2.55200
  0.3990   -2.47200
  0.4010   -2.39400
  0.4030   -2.31800
  0.4050   -2.24400
  0.4070   -2.17200
  0.4090   -2.10200
  0.4110   -2.03400
  0.4130   -1.96900
  0.4150   -1.90600
  0.4170   -1.84600
  0.4190   -1.78900
  0.4210   -1.73400
  0.4230   -1.68200
  0.4250   -1.63200
  0.4270   -1.58600
  0.4290   -1.54200
  0.4310   -1.50100
  0.4330   -1.46300
  0.4350   -1.42700
  0.4370   -1.39300
  0.4390   -1.36200
  0.4410   -1.33400
  0.4430   -1.30900
  0.4450   -1.28700
  0.4470   -1.26700
  0.4490   -1.24900
  0.4510   -1.23400
  0.4530   -1.22100
  0.4550   -1.21000
  0.4570   -1.20100
  0.4590   -1.19400
  0.4610   -1.18900
  0.4630   -1.18500
  0.4650   -1.18300
  0.4670   -1.18300
  0.4690   -1.18300
  0.4710   -1.18500
  0.4730   -1.18800
  0.4750   -1.19200
  0.4770   -1.19700
  0.4790   -1.20300
  0.4810   -1.20900
  0.4830   -1.21600
  0.4850   -1.22300
  0.4870   -1.23100
  0.4890   -1.23900
  0.4910   -1.24700
  0.4930   -1.25500
  0.4950   -1.26300
  0.4970   -1.27200
  0.4990   -1.28000
  0.5010   -1.28800
  0.5030   -1.29500
  0.5050   -1.30200
  0.5070   -1.30800
  0.5090   -1.31400
  0.5110   -1.32000
  0.5130   -1.32400
  0.5150   -1.32800
  0.5170   -1.33100
  0.5190   -1.33400
  0.5210   -1.33600
  0.5230   -1.33800
  0.5250   -1.33800
  0.5270   -1.33800
  0.5290   -1.33700
  0.5310   -1.33600
  0.5330   -1.33300
  0.5350   -1.33000
  0.5370   -1.32700
  0.5390   -1.32200
  0.5410   -1.31700
  0.5430   -1.31100
  0.5450   -1.30500
  0.5470   -1.29900
  0.5490   -1.29100
  0.5510   -1.28300
  0.5530   -1.27500
  0.5550   -1.26600
  0.5570   -1.25600
  0.5590   -1.24600
  0.5610   -1.23600
  0.5630   -1.22500
  0.5650   -1.21400
  0.5670   -1.20300
  0.5690   -1.19100
  0.5710   -1.17900
  0.5730   -1.16700
  0.5750   -1.15500
  0.5770   -1.14300
  0.5790   -1.13000
  0.5810   -1.11800
  0.5830   -1.10500
  0.5850   -1.09200
  0.5870   -1.07900
  0.5890   -1.06700
  0.5910   -1.05400
  0.5930   -1.04100
  0.5950   -1.02900
  0.5970   -1.01600
  0.5990   -1.00300
  0.6010   -0.99100
  0.6030   -0.97800
  0.6050   -0.96600
  0.6070   -0.95400
  0.6090   -0.94200
  0.6110   -0.93000
  0.6130   -0.91800
  0.6150   -0.90700
  0.6170   -0.89600
  0.6190   -0.88500
  0.6210   -0.87400
  0.6230   -0.86300
  0.6250   -0.85200
  0.6270   -0.84200
  0.6290   -0.83100
  0.6310   -0.82100
  0.6330   -0.81100
  0.6350   -0.80200
  0.6370   -0.79300
  0.6390   -0.78400
  0.6410   -0.77400
  0.6430   -0.76500
  0.6450   -0.75700
  0.6470   -0.74800
  0.6490   -0.74000
  0.6510   -0.73200
  0.6530   -0.72400
  0.6550   -0.71600
  0.6570   -0.70800
  0.6590   -0.70100
  0.6610   -0.69300
  0.6630   -0.68600
  0.6650   -0.67900
  0.6670   -0.67200
  0.6690   -0.66600
  0.6710   -0.65900
  0.6730   -0.65300
  0.6750   -0.64600
  0.6770   -0.64000
  0.6790   -0.63300
  0.6810   -0.62700
  0.6830   -0.62100
  0.6850   -0.61400
  0.6870   -0.60800
  0.6890   -0.60300
  0.6910   -0.59700
  0.6930   -0.59100
  0.6950   -0.58500
  0.6970   -0.57900
  0.6990   -0.57300
  0.7010   -0.56800
  0.7030   -0.56200
  0.7050   -0.55600
  0.7070   -0.55100
  0.7090   -0.54500
  0.7110   -0.53900
  0.7130   -0.53400
  0.7150   -0.52800
  0.7170   -0.52300
  0.7190   -0.51800
  0.7210   -0.51200
  0.7230   -0.50700
  0.7250   -0.50200
  0.7270   -0.49700
  0.7290   -0.49200
  0.7310   -0.48700
  0.7330   -0.48200
  0.7350   -0.47700
  0.7370   -0.47200
  0.7390   -0.46800
  0.7410   -0.46300
  0.7430   -0.45800
  0.7450   -0.45400
  0.7470   -0.45000
  0.7490   -0.44600
  0.7510   -0.44200
  0.7530   -0.43800
  0.7550   -0.43500
  0.7570   -0.43100
  0.7590   -0.42700
  0.7610   -0.42400
  0.7630   -0.42000
  0.7650   -0.41700
  0.7670   -0.41400
  0.7690   -0.41100
  0.7710   -0.40800
  0.7730   -0.40500
  0.7750   -0.40300
  0.7770   -0.40000
  0.7790   -0.39800
  0.7810   -0.39600
  0.7830   -0.39400
  0.7850   -0.39200
  0.7870   -0.39000
  0.7890   -0.38800
  0.7910   -0.38600
  0.7930   -0.38500
  0.7950   -0.38400
  0.7970   -0.38300
  0.7990   -0.38100
  0.8010   -0.38000
  0.8030   -0.37900
  0.8050   -0.37800
  0.8070   -0.37800
  0.8090   -0.37800
  0.8110   -0.37700
  0.8130   -0.37700
  0.8150   -0.37700
  0.8170   -0.37700
  0.8190   -0.37800
  0.8210   -0.37800
  0.8230   -0.37800
  0.8250   -0.37800
  0.8270   -0.37900
  0.8290   -0.38000
  0.8310   -0.38000
  0.8330   -0.38100
  0.8350   -0.38100
  0.8370   -0.38200
  0.8390   -0.38400
  0.8410   -0.38500
  0.8430   -0.38600
  0.8450   -0.38700
  0.8470   -0.38800
  0.8490   -0.38900
  0.8510   -0.39000
  0.8530   -0.39100
  0.8550   -0.39200
  0.8570   -0.39400
  0.8590   -0.39500
  0.8610   -0.39600
  0.8630   -0.39700
  0.8650   -0.39900
  0.8670   -0.40000
  0.8690   -0.40100
  0.8710   -0.40200
  0.8730   -0.40300
  0.8750   -0.40400
  0.8770   -0.40500
  0.8790   -0.40600
  0.8810   -0.40700
  0.8830   -0.40700
  0.8850   -0.40700
  0.8870   -0.40800
  0.8890   -0.40800
  0.8910   -0.40700
  0.8930   -0.40700
  0.8950   -0.40600
  0.8970   -0.40600
  0.8990   -0.40500
  0.9010   -0.40300
  0.9030   -0.40200
  0.9050   -0.40000
  0.9070   -0.39900
  0.9090   -0.39700
  0.9110   -0.39400
  0.9130   -0.39100
  0.9150   -0.38900
  0.9170   -0.38500
  0.9190   -0.38200
  0.9210   -0.37800
  0.9230   -0.37500
  0.9250   -0.37000
  0.9270   -0.36600
  0.9290   -0.36100
  0.9310   -0.35700
  0.9330   -0.35200
  0.9350   -0.34600
  0.9370   -0.34100
  0.9390   -0.33600
  0.9410   -0.33000
  0.9430   -0.32400
  0.9450   -0.31800
  0.9470   -0.31200
  0.9490   -0.30600
  0.9510   -0.30000
  0.9530   -0.29400
  0.9550   -0.28800
  0.9570   -0.28100
  0.9590   -0.27500
  0.9610   -0.26900
  0.9630   -0.26300
  0.9650   -0.25700
  0.9670   -0.25000
  0.9690   -0.24400
  0.9710   -0.23800
  0.9730   -0.23200
  0.9750   -0.22600
  0.9770   -0.22100
  0.9790   -0.21500
  0.9810   -0.21000
  0.9830   -0.20400
  0.9850   -0.19900
  0.9870   -0.19400
  0.9890   -0.18800
  0.9910   -0.18300
  0.9930   -0.17900
  0.9950   -0.17400
  0.9970   -0.17000
  0.9990   -0.16600
  1.0010   -0.16200
  1.0030   -0.15800
  1.0050   -0.15400
  1.0070   -0.15100
  1.0090   -0.14700
  1.0110   -0.14400
  1.0130   -0.14100
  1.0150   -0.13800
  1.0170   -0.13500
  1.0190   -0.13200
  1.0210   -0.13000
  1.0230   -0.12700
  1.0250   -0.12500
  1.0270   -0.12200
  1.0290   -0.12000
  1.0310   -0.11800
  1.0330   -0.11600
  1.0350   -0.11400
  1.0370   -0.11300
  1.0390   -0.11100
  1.0410   -0.10900
  1.0430   -0.10800
  1.0450   -0.10600
  1.0470   -0.10400
  1.0490   -0.10300
  1.0510   -0.10200
  1.0530   -0.10000
  1.0550   -0.09900
  1.0570   -0.09800
  1.0590   -0.09700
  1.0610   -0.09500
  1.0630   -0.09400
  1.0650   -0.09300
  1.0670   -0.09200
  1.0690   -0.09100
  1.0710   -0.09000
  1.0730   -0.09000
  1.0750   -0.08900
  1.0770   -0.08800
  1.0790   -0.08700
  1.0810   -0.08700
  1.0830   -0.08600
  1.0850   -0.08600
  1.0870   -0.08500
  1.0890   -0.08500
  1.0910   -0.08500
  1.0930   -0.08500
  1.0950   -0.08400
  1.0970   -0.08400
  1.0990   -0.08400
  1.1010   -0.08500
  1.1030   -0.08500
  1.1050   -0.08500
  1.1070   -0.08600
  1.1090   -0.08600
  1.1110   -0.08700
  1.1130   -0.08700
  1.1150   -0.08800
  1.1170   -0.08900
  1.1190   -0.08900
  1.1210   -0.09000
  1.1230   -0.09100
  1.1250   -0.09200
  1.1270   -0.09200
  1.1290   -0.09300
  1.1310   -0.09400
  1.1330   -0.09500
  1.1350   -0.09600
  1.1370   -0.09700
  1.1390   -0.09800
  1.1410   -0.09900
  1.1430   -0.09900
  1.1450   -0.10000
  1.1470   -0.10100
  1.1490   -0.10200
  1.1510   -0.10300
  1.1530   -0.10300
  1.1550   -0.10400
  1.1570   -0.10400
  1.1590   -0.10400
  1.1610   -0.10500
  1.1630   -0.10500
  1.1650   -0.10500
  1.1670   -0.10500
  1.1690   -0.10500
  1.1710   -0.10500
  1.1730   -0.10500
  1.1750   -0.10400
  1.1770   -0.10300
  1.1790   -0.10200
  1.1810   -0.10200
  1.1830   -0.10100
  1.1850   -0.10000
  1.1870   -0.09800
  1.1890   -0.09700
  1.1910   -0.09600
  1.1930   -0.09400
  1.1950   -0.09300
  1.1970   -0.09100
  1.1990   -0.08900
  1.2010   -0.08700
  1.2030   -0.08500
  1.2050   -0.08300
  1.2070   -0.08100
  1.2090   -0.07800
  1.2110   -0.07600
  1.2130   -0.07400
  1.2150   -0.07100
  1.2170   -0.06800
  1.2190   -0.06600
  1.2210   -0.06300
  1.2230   -0.06100
  1.2250   -0.05800
  1.2270   -0.05500
  1.2290   -0.05300
  1.2310   -0.05000
  1.2330   -0.04800
  1.2350   -0.04500
  1.2370   -0.04300
  1.2390   -0.04100
  1.2410   -0.03800
  1.2430   -0.03600
  1.2450   -0.03400
  1.2470   -0.03200
  1.2490   -0.02900
  1.2510   -0.02700
  1.2530   -0.02500
  1.2550   -0.02400
  1.2570   -0.02200
  1.2590   -0.02000
  1.2610   -0.01900
  1.2630   -0.01700
  1.2650   -0.01500
  1.2670   -0.01400
  1.2690   -0.01300
  1.2710   -0.01100
  1.2730   -0.01000
  1.2750   -0.00800
  1.2770   -0.00700
  1.2790   -0.00600
  1.2810   -0.00600
  1.2830   -0.00500
  1.2850   -0.00400
  1.2870   -0.00300
  1.2890   -0.00300
  1.2910   -0.00200
  1.2930   -0.00100
  1.2950    0.00000
  1.2970    0.00000
  1.2990    0.00100
  1.3010    0.00200
  1.3030    0.00300
  1.3050    0.00300
  1.3070    0.00400
  1.3090    0.00500
  1.3110    0.00600
  1.3130    0.00700
  1.3150    0.00800
  1.3170    0.00900
  1.3190    0.01000
  1.3210    0.01100
  1.3230    0.01200
  1.3250    0.01300
  1.3270    0.01500
  1.3290    0.01600
  1.3310    0.01800
  1.3330    0.01900
  1.3350    0.02100
  1.3370    0.02300
  1.3390    0.02400
  1.3410    0.02600
  1.3430    0.02800
  1.3450    0.03000
  1.3470    0.03200
  1.3490    0.03400
  1.3510    0.03600
  1.3530    0.03800
  1.3550    0.04000
  1.3570    0.04200
  1.3590    0.04400
  1.3610    0.04600
  1.3630    0.04800
  1.3650    0.05000
  1.3670    0.05200
  1.3690    0.05400
  1.3710    0.05600
  1.3730    0.05800
  1.3750    0.06000
  1.3770    0.06100
  1.3790    0.06300
  1.3810    0.06400
  1.3830    0.06500
  1.3850    0.06600
  1.3870    0.06700
  1.3890    0.06700
  1.3910    0.06700
  1.3930    0.06700
  1.3950    0.06700
  1.3970    0.06600
  1.3990    0.06500
