# z (nm)   (kJ/mol)
  0.0730   -1.74800
  0.0750   -2.48800
  0.0770   -3.25000
  0.0810   -4.03100
  0.0830   -4.80000
  0.0850   -5.56400
  0.0870   -6.33600
  0.0890   -7.11400
  0.0910   -7.89000
  0.0930   -8.67000
  0.0950   -9.44600
  0.0970  -10.20100
  0.0990  -10.95000
  0.1010  -11.68900
  0.1030  -12.41600
  0.1050  -13.13100
  0.1070  -13.83000
  0.1090  -14.51500
  0.1110  -15.18600
  0.1130  -15.84300
  0.1150  -16.47900
  0.1170  -17.09300
  0.1190  -17.68900
  0.1210  -18.26300
  0.1230  -18.81500
  0.1250  -19.34400
  0.1270  -19.84800
  0.1290  -20.32700
  0.1310  -20.78200
  0.1330  -21.21400
  0.1350  -21.61900
  0.1370  -21.99800
  0.1390  -22.35300
  0.1410  -22.68100
  0.1430  -22.98200
  0.1450  -23.25500
  0.1470  -23.50200
  0.1490  -23.72200
  0.1510  -23.91600
  0.1530  -24.08400
  0.1550  -24.22500
  0.1570  -24.34100
  0.1590  -24.43200
  0.1610  -24.49800
  0.1630  -24.53800
  0.1650  -24.55400
  0.1670  -24.54700
  0.1690  -24.51800
  0.1710  -24.47100
  0.1730  -24.40600
  0.1750  -24.32000
  0.1770  -24.21600
  0.1790  -24.09500
  0.1810  -23.95900
  0.1830  -23.80700
  0.1850  -23.64100
  0.1870  -23.46400
  0.1890  -23.27700
  0.1910  -23.07800
  0.1930  -22.86800
  0.1950  -22.64900
  0.1970  -22.42400
  0.1990  -22.19400
  0.2010  -21.95800
  0.2030  -21.71700
  0.2050  -21.47300
  0.2070  -21.22700
  0.2090  -20.97800
  0.2110  -20.73000
  0.2130  -20.48000
  0.2150  -20.23000
  0.2170  -19.98200
  0.2190  -19.73500
  0.2210  -19.49000
  0.2230  -19.24700
  0.2250  -19.00700
  0.2270  -18.77000
  0.2290  -18.53600
  0.2310  -18.30500
  0.2330  -18.07800
  0.2350  -17.85500
  0.2370  -17.63600
  0.2390  -17.42000
  0.2410  -17.20700
  0.2430  -16.99900
  0.2450  -16.79400
  0.2470  -16.59400
  0.2490  -16.39700
  0.2510  -16.20200
  0.2530  -16.01100
  0.2550  -15.82300
  0.2570  -15.63800
  0.2590  -15.45700
  0.2610  -15.27900
  0.2630  -15.10300
  0.2650  -14.93000
  0.2670  -14.75800
  0.2690  -14.58800
  0.2710  -14.42000
  0.2730  -14.25500
  0.2750  -14.09100
  0.2770  -13.92900
  0.2790  -13.76800
  0.2810  -13.60900
  0.2830  -13.45000
  0.2850  -13.29300
  0.2870  -13.13700
  0.2890  -12.98200
  0.2910  -12.82800
  0.2930  -12.67400
  0.2950  -12.52000
  0.2970  -12.36800
  0.2990  -12.21600
  0.3010  -12.06400
  0.3030  -11.91300
  0.3050  -11.76300
  0.3070  -11.61300
  0.3090  -11.46300
  0.3110  -11.31400
  0.3130  -11.16500
  0.3150  -11.01700
  0.3170  -10.86900
  0.3190  -10.72100
  0.3210  -10.57400
  0.3230  -10.42700
  0.3250  -10.28100
  0.3270  -10.13500
  0.3290   -9.98900
  0.3310   -9.84400
  0.3330   -9.69800
  0.3350   -9.55300
  0.3370   -9.40900
  0.3390   -9.26400
  0.3410   -9.12100
  0.3430   -8.97700
  0.3450   -8.83300
  0.3470   -8.69000
  0.3490   -8.54800
  0.3510   -8.40600
  0.3530   -8.26400
  0.3550   -8.12200
  0.3570   -7.98100
  0.3590   -7.84100
  0.3610   -7.70000
  0.3630   -7.56000
  0.3650   -7.42100
  0.3670   -7.28300
  0.3690   -7.14400
  0.3710   -7.00700
  0.3730   -6.86900
  0.3750   -6.73300
  0.3770   -6.59700
  0.3790   -6.46100
  0.3810   -6.32600
  0.3830   -6.19200
  0.3850   -6.05900
  0.3870   -5.92700
  0.3890   -5.79600
  0.3910   -5.66600
  0.3930   -5.53700
  0.3950   -5.40900
  0.3970   -5.28300
  0.3990   -5.15700
  0.4010   -5.03300
  0.4030   -4.91000
  0.4050   -4.78800
  0.4070   -4.66800
  0.4090   -4.54900
  0.4110   -4.43200
  0.4130   -4.31700
  0.4150   -4.20400
  0.4170   -4.09200
  0.4190   -3.98300
  0.4210   -3.87500
  0.4230   -3.76900
  0.4250   -3.66500
  0.4270   -3.56300
  0.4290   -3.46300
  0.4310   -3.36500
  0.4330   -3.27000
  0.4350   -3.17700
  0.4370   -3.08700
  0.4390   -2.99800
  0.4410   -2.91200
  0.4430   -2.82800
  0.4450   -2.74700
  0.4470   -2.66800
  0.4490   -2.59200
  0.4510   -2.51800
  0.4530   -2.44700
  0.4550   -2.37800
  0.4570   -2.31200
  0.4590   -2.24800
  0.4610   -2.18700
  0.4630   -2.12900
  0.4650   -2.07300
  0.4670   -2.01900
  0.4690   -1.96700
  0.4710   -1.91900
  0.4730   -1.87300
  0.4750   -1.82900
  0.4770   -1.78800
  0.4790   -1.74800
  0.4810   -1.71100
  0.4830   -1.67700
  0.4850   -1.64400
  0.4870   -1.61300
  0.4890   -1.58400
  0.4910   -1.55700
  0.4930   -1.53300
  0.4950   -1.51000
  0.4970   -1.48900
  0.4990   -1.46900
  0.5010   -1.45200
  0.5030   -1.43500
  0.5050   -1.42100
  0.5070   -1.40700
  0.5090   -1.39500
  0.5110   -1.38500
  0.5130   -1.37500
  0.5150   -1.36700
  0.5170   -1.36000
  0.5190   -1.35400
  0.5210   -1.34900
  0.5230   -1.34500
  0.5250   -1.34100
  0.5270   -1.33900
  0.5290   -1.33600
  0.5310   -1.33500
  0.5330   -1.33400
  0.5350   -1.33300
  0.5370   -1.33300
  0.5390   -1.33300
  0.5410   -1.33400
  0.5430   -1.33500
  0.5450   -1.33600
  0.5470   -1.33800
  0.5490   -1.33900
  0.5510   -1.34100
  0.5530   -1.34300
  0.5550   -1.34400
  0.5570   -1.34600
  0.5590   -1.34800
  0.5610   -1.35000
  0.5630   -1.35100
  0.5650   -1.35300
  0.5670   -1.35400
  0.5690   -1.35500
  0.5710   -1.35600
  0.5730   -1.35700
  0.5750   -1.35800
  0.5770   -1.35800
  0.5790   -1.35800
  0.5810   -1.35700
  0.5830   -1.35700
  0.5850   -1.35600
  0.5870   -1.35500
  0.5890   -1.35400
  0.5910   -1.35200
  0.5930   -1.35000
  0.5950   -1.34700
  0.5970   -1.34400
  0.5990   -1.34100
  0.6010   -1.33800
  0.6030   -1.33400
  0.6050   -1.33000
  0.6070   -1.32500
  0.6090   -1.32000
  0.6110   -1.31500
  0.6130   -1.31000
  0.6150   -1.30400
  0.6170   -1.29800
  0.6190   -1.29100
  0.6210   -1.28400
  0.6230   -1.27700
  0.6250   -1.27000
  0.6270   -1.26200
  0.6290   -1.25400
  0.6310   -1.24500
  0.6330   -1.23600
  0.6350   -1.22700
  0.6370   -1.21800
  0.6390   -1.20800
  0.6410   -1.19800
  0.6430   -1.18800
  0.6450   -1.17800
  0.6470   -1.16700
  0.6490   -1.15600
  0.6510   -1.14500
  0.6530   -1.13300
  0.6550   -1.12200
  0.6570   -1.11000
  0.6590   -1.09700
  0.6610   -1.08500
  0.6630   -1.07200
  0.6650   -1.05900
  0.6670   -1.04600
  0.6690   -1.03200
  0.6710   -1.01900
  0.6730   -1.00500
  0.6750   -0.99100
  0.6770   -0.97700
  0.6790   -0.96300
  0.6810   -0.94800
  0.6830   -0.93300
  0.6850   -0.91900
  0.6870   -0.90400
  0.6890   -0.88800
  0.6910   -0.87300
  0.6930   -0.85700
  0.6950   -0.84200
  0.6970   -0.82600
  0.6990   -0.81000
  0.7010   -0.79400
  0.7030   -0.77800
  0.7050   -0.76200
  0.7070   -0.74600
  0.7090   -0.73000
  0.7110   -0.71300
  0.7130   -0.69700
  0.7150   -0.68000
  0.7170   -0.66400
  0.7190   -0.64800
  0.7210   -0.63100
  0.7230   -0.61500
  0.7250   -0.59800
  0.7270   -0.58200
  0.7290   -0.56600
  0.7310   -0.55000
  0.7330   -0.53400
  0.7350   -0.51800
  0.7370   -0.50300
  0.7390   -0.48800
  0.7410   -0.47300
  0.7430   -0.45800
  0.7450   -0.44300
  0.7470   -0.42900
  0.7490   -0.41500
  0.7510   -0.40100
  0.7530   -0.38700
  0.7550   -0.37400
  0.7570   -0.36100
  0.7590   -0.34800
  0.7610   -0.33600
  0.7630   -0.32400
  0.7650   -0.31300
  0.7670   -0.30100
  0.7690   -0.29100
  0.7710   -0.28000
  0.7730   -0.27100
  0.7750   -0.26100
  0.7770   -0.25200
  0.7790   -0.24400
  0.7810   -0.23600
  0.7830   -0.22800
  0.7850   -0.22100
  0.7870   -0.21400
  0.7890   -0.20800
  0.7910   -0.20200
  0.7930   -0.19600
  0.7950   -0.19100
  0.7970   -0.18600
  0.7990   -0.18200
  0.8010   -0.17800
  0.8030   -0.17500
  0.8050   -0.17200
  0.8070   -0.16900
  0.8090   -0.16600
  0.8110   -0.16400
  0.8130   -0.16200
  0.8150   -0.16100
  0.8170   -0.16000
  0.8190   -0.15900
  0.8210   -0.15800
  0.8230   -0.15700
  0.8250   -0.15700
  0.8270   -0.15700
  0.8290   -0.15700
  0.8310   -0.15700
  0.8330   -0.15800
  0.8350   -0.15900
  0.8370   -0.15900
  0.8390   -0.16000
  0.8410   -0.16100
  0.8430   -0.16200
  0.8450   -0.16300
  0.8470   -0.16400
  0.8490   -0.16500
  0.8510   -0.16600
  0.8530   -0.16700
  0.8550   -0.16900
  0.8570   -0.17000
  0.8590   -0.17100
  0.8610   -0.17200
  0.8630   -0.17300
  0.8650   -0.17400
  0.8670   -0.17500
  0.8690   -0.17600
  0.8710   -0.17700
  0.8730   -0.17800
  0.8750   -0.17800
  0.8770   -0.17900
  0.8790   -0.18000
  0.8810   -0.18000
  0.8830   -0.18100
  0.8850   -0.18100
  0.8870   -0.18200
  0.8890   -0.18200
  0.8910   -0.18200
  0.8930   -0.18200
  0.8950   -0.18200
  0.8970   -0.18200
  0.8990   -0.18200
  0.9010   -0.18200
  0.9030   -0.18100
  0.9050   -0.18100
  0.9070   -0.18000
  0.9090   -0.17900
  0.9110   -0.17900
  0.9130   -0.17800
  0.9150   -0.17700
  0.9170   -0.17600
  0.9190   -0.17500
  0.9210   -0.17400
  0.9230   -0.17300
  0.9250   -0.17100
  0.9270   -0.17000
  0.9290   -0.16900
  0.9310   -0.16800
  0.9330   -0.16600
  0.9350   -0.16500
  0.9370   -0.16300
  0.9390   -0.16100
  0.9410   -0.16000
  0.9430   -0.15800
  0.9450   -0.15700
  0.9470   -0.15500
  0.9490   -0.15300
  0.9510   -0.15100
  0.9530   -0.14900
  0.9550   -0.14700
  0.9570   -0.14500
  0.9590   -0.14300
  0.9610   -0.14100
  0.9630   -0.13900
  0.9650   -0.13700
  0.9670   -0.13500
  0.9690   -0.13300
  0.9710   -0.13100
  0.9730   -0.12800
  0.9750   -0.12600
  0.9770   -0.12400
  0.9790   -0.12200
  0.9810   -0.12000
  0.9830   -0.11700
  0.9850   -0.11500
  0.9870   -0.11300
  0.9890   -0.11000
  0.9910   -0.10800
  0.9930   -0.10600
  0.9950   -0.10300
  0.9970   -0.10100
  0.9990   -0.09900
  1.0010   -0.09600
  1.0030   -0.09400
  1.0050   -0.09200
  1.0070   -0.08900
  1.0090   -0.08700
  1.0110   -0.08400
  1.0130   -0.08200
  1.0150   -0.07900
  1.0170   -0.07700
  1.0190   -0.07400
  1.0210   -0.07200
  1.0230   -0.06900
  1.0250   -0.06700
  1.0270   -0.06400
  1.0290   -0.06200
  1.0310   -0.05900
  1.0330   -0.05600
  1.0350   -0.05400
  1.0370   -0.05100
  1.0390   -0.04900
  1.0410   -0.04600
  1.0430   -0.04300
  1.0450   -0.04100
  1.0470   -0.03800
  1.0490   -0.03600
  1.0510   -0.03300
  1.0530   -0.03100
  1.0550   -0.02800
  1.0570   -0.02600
  1.0590   -0.02300
  1.0610   -0.02100
  1.0630   -0.01900
  1.0650   -0.01700
  1.0670   -0.01500
  1.0690   -0.01300
  1.0710   -0.01100
  1.0730   -0.00900
  1.0750   -0.00700
  1.0770   -0.00500
  1.0790   -0.00400
  1.0810   -0.00200
  1.0830    0.00000
  1.0850    0.00100
  1.0870    0.00200
  1.0890    0.00400
  1.0910    0.00500
  1.0930    0.00500
  1.0950    0.00600
  1.0970    0.00700
  1.0990    0.00700
  1.1010    0.00800
  1.1030    0.00800
  1.1050    0.00800
  1.1070    0.00800
  1.1090    0.00800
  1.1110    0.00800
  1.1130    0.00700
  1.1150    0.00700
  1.1170    0.00600
  1.1190    0.00500
  1.1210    0.00500
  1.1230    0.00400
  1.1250    0.00300
  1.1270    0.00200
  1.1290    0.00000
  1.1310   -0.00100
  1.1330   -0.00200
  1.1350   -0.00300
  1.1370   -0.00500
  1.1390   -0.00600
  1.1410   -0.00700
  1.1430   -0.00900
  1.1450   -0.01000
  1.1470   -0.01200
  1.1490   -0.01300
  1.1510   -0.01500
  1.1530   -0.01600
  1.1550   -0.01700
  1.1570   -0.01900
  1.1590   -0.02000
  1.1610   -0.02100
  1.1630   -0.02200
  1.1650   -0.02400
  1.1670   -0.02500
  1.1690   -0.02600
  1.1710   -0.02700
  1.1730   -0.02800
  1.1750   -0.02800
  1.1770   -0.02900
  1.1790   -0.03000
  1.1810   -0.03100
  1.1830   -0.03100
  1.1850   -0.03100
  1.1870   -0.03200
  1.1890   -0.03200
  1.1910   -0.03200
  1.1930   -0.03300
  1.1950   -0.03300
  1.1970   -0.03300
  1.1990   -0.03300
  1.2010   -0.03200
  1.2030   -0.03200
  1.2050   -0.03200
  1.2070   -0.03200
  1.2090   -0.03200
  1.2110   -0.03100
  1.2130   -0.03100
  1.2150   -0.03000
  1.2170   -0.03000
  1.2190   -0.03000
  1.2210   -0.02900
  1.2230   -0.02900
  1.2250   -0.02800
  1.2270   -0.02800
  1.2290   -0.02700
  1.2310   -0.02700
  1.2330   -0.02600
  1.2350   -0.02600
  1.2370   -0.02500
  1.2390   -0.02500
  1.2410   -0.02400
  1.2430   -0.02400
  1.2450   -0.02300
  1.2470   -0.02300
  1.2490   -0.02300
  1.2510   -0.02200
  1.2530   -0.02200
  1.2550   -0.02100
  1.2570   -0.02100
  1.2590   -0.02100
  1.2610   -0.02000
  1.2630   -0.02000
  1.2650   -0.02000
  1.2670   -0.02000
  1.2690   -0.02000
  1.2710   -0.02000
  1.2730   -0.01900
  1.2750   -0.01900
  1.2770   -0.01900
  1.2790   -0.01900
  1.2810   -0.01900
  1.2830   -0.01800
  1.2850   -0.01800
  1.2870   -0.01800
  1.2890   -0.01800
  1.2910   -0.01800
  1.2930   -0.01800
  1.2950   -0.01700
  1.2970   -0.01700
  1.2990   -0.01700
  1.3010   -0.01600
  1.3030   -0.01600
  1.3050   -0.01500
  1.3070   -0.01500
  1.3090   -0.01400
  1.3110   -0.01300
  1.3130   -0.01300
  1.3150   -0.01200
  1.3170   -0.01100
  1.3190   -0.01000
  1.3210   -0.00900
  1.3230   -0.00800
  1.3250   -0.00700
  1.3270   -0.00600
  1.3290   -0.00400
  1.3310   -0.00300
  1.3330   -0.00100
  1.3350    0.00000
  1.3370    0.00200
  1.3390    0.00400
  1.3410    0.00600
  1.3430    0.00800
  1.3450    0.01100
  1.3470    0.01300
  1.3490    0.01600
  1.3510    0.01900
  1.3530    0.02200
  1.3550    0.02400
  1.3570    0.02700
  1.3590    0.03100
  1.3610    0.03400
  1.3630    0.03700
  1.3650    0.04000
  1.3670    0.04300
  1.3690    0.04700
  1.3710    0.05000
  1.3730    0.05300
  1.3750    0.05600
  1.3770    0.05900
  1.3790    0.06200
  1.3810    0.06500
  1.3830    0.06800
  1.3850    0.07000
  1.3870    0.07300
  1.3890    0.07500
  1.3910    0.07600
  1.3930    0.07800
  1.3950    0.07900
  1.3970    0.08000
  1.3990    0.08000
