# z (nm)   (kJ/mol)
  0.1010    8.31100
  0.1030    7.87500
  0.1050    7.37900
  0.1070    6.86500
  0.1090    6.31300
  0.1110    5.77300
  0.1130    5.22300
  0.1150    4.65200
  0.1170    4.06100
  0.1190    3.47400
  0.1210    2.90400
  0.1230    2.32200
  0.1250    1.73800
  0.1270    1.16000
  0.1290    0.58300
  0.1310    0.01900
  0.1330   -0.54300
  0.1350   -1.11200
  0.1370   -1.67200
  0.1390   -2.21700
  0.1410   -2.75900
  0.1430   -3.28900
  0.1450   -3.80300
  0.1470   -4.30900
  0.1490   -4.81200
  0.1510   -5.31000
  0.1530   -5.79400
  0.1550   -6.26500
  0.1570   -6.72300
  0.1590   -7.17300
  0.1610   -7.61100
  0.1630   -8.03800
  0.1650   -8.45200
  0.1670   -8.85200
  0.1690   -9.23900
  0.1710   -9.61400
  0.1730   -9.97700
  0.1750  -10.32900
  0.1770  -10.66800
  0.1790  -10.99100
  0.1810  -11.30000
  0.1830  -11.59700
  0.1850  -11.87900
  0.1870  -12.14700
  0.1890  -12.40200
  0.1910  -12.64100
  0.1930  -12.86400
  0.1950  -13.07500
  0.1970  -13.27200
  0.1990  -13.45500
  0.2010  -13.62300
  0.2030  -13.77800
  0.2050  -13.92000
  0.2070  -14.04800
  0.2090  -14.16200
  0.2110  -14.26400
  0.2130  -14.35300
  0.2150  -14.42800
  0.2170  -14.49200
  0.2190  -14.54500
  0.2210  -14.58700
  0.2230  -14.61800
  0.2250  -14.63800
  0.2270  -14.64800
  0.2290  -14.65000
  0.2310  -14.64300
  0.2330  -14.62700
  0.2350  -14.60300
  0.2370  -14.57100
  0.2390  -14.53200
  0.2410  -14.48600
  0.2430  -14.43200
  0.2450  -14.37500
  0.2470  -14.31300
  0.2490  -14.24600
  0.2510  -14.17400
  0.2530  -14.09700
  0.2550  -14.01800
  0.2570  -13.93500
  0.2590  -13.85000
  0.2610  -13.76100
  0.2630  -13.67100
  0.2650  -13.57900
  0.2670  -13.48500
  0.2690  -13.38900
  0.2710  -13.29200
  0.2730  -13.19300
  0.2750  -13.09200
  0.2770  -12.99100
  0.2790  -12.88900
  0.2810  -12.78500
  0.2830  -12.68200
  0.2850  -12.57800
  0.2870  -12.47300
  0.2890  -12.36800
  0.2910  -12.26200
  0.2930  -12.15600
  0.2950  -12.04900
  0.2970  -11.94200
  0.2990  -11.83500
  0.3010  -11.72800
  0.3030  -11.61800
  0.3050  -11.50900
  0.3070  -11.39900
  0.3090  -11.28800
  0.3110  -11.17600
  0.3130  -11.06300
  0.3150  -10.95000
  0.3170  -10.83700
  0.3190  -10.72300
  0.3210  -10.60800
  0.3230  -10.49200
  0.3250  -10.37600
  0.3270  -10.25900
  0.3290  -10.14100
  0.3310  -10.02200
  0.3330   -9.90300
  0.3350   -9.78200
  0.3370   -9.66100
  0.3390   -9.53900
  0.3410   -9.41700
  0.3430   -9.29300
  0.3450   -9.16900
  0.3470   -9.04400
  0.3490   -8.91800
  0.3510   -8.79200
  0.3530   -8.66500
  0.3550   -8.53800
  0.3570   -8.41000
  0.3590   -8.28200
  0.3610   -8.15400
  0.3630   -8.02500
  0.3650   -7.89600
  0.3670   -7.76700
  0.3690   -7.63700
  0.3710   -7.50800
  0.3730   -7.37900
  0.3750   -7.25000
  0.3770   -7.12200
  0.3790   -6.99300
  0.3810   -6.86600
  0.3830   -6.73900
  0.3850   -6.61200
  0.3870   -6.48700
  0.3890   -6.36200
  0.3910   -6.23900
  0.3930   -6.11700
  0.3950   -5.99600
  0.3970   -5.87600
  0.3990   -5.75700
  0.4010   -5.64000
  0.4030   -5.52400
  0.4050   -5.41000
  0.4070   -5.29800
  0.4090   -5.18800
  0.4110   -5.07900
  0.4130   -4.97200
  0.4150   -4.86700
  0.4170   -4.76400
  0.4190   -4.66400
  0.4210   -4.56600
  0.4230   -4.47000
  0.4250   -4.37600
  0.4270   -4.28600
  0.4290   -4.19700
  0.4310   -4.11100
  0.4330   -4.02700
  0.4350   -3.94500
  0.4370   -3.86600
  0.4390   -3.79000
  0.4410   -3.71600
  0.4430   -3.64400
  0.4450   -3.57500
  0.4470   -3.50800
  0.4490   -3.44400
  0.4510   -3.38200
  0.4530   -3.32200
  0.4550   -3.26500
  0.4570   -3.21000
  0.4590   -3.15600
  0.4610   -3.10500
  0.4630   -3.05700
  0.4650   -3.01000
  0.4670   -2.96400
  0.4690   -2.92100
  0.4710   -2.88100
  0.4730   -2.84200
  0.4750   -2.80500
  0.4770   -2.76900
  0.4790   -2.73500
  0.4810   -2.70200
  0.4830   -2.67100
  0.4850   -2.64100
  0.4870   -2.61200
  0.4890   -2.58500
  0.4910   -2.55800
  0.4930   -2.53300
  0.4950   -2.50900
  0.4970   -2.48600
  0.4990   -2.46400
  0.5010   -2.44300
  0.5030   -2.42200
  0.5050   -2.40300
  0.5070   -2.38400
  0.5090   -2.36600
  0.5110   -2.34900
  0.5130   -2.33100
  0.5150   -2.31500
  0.5170   -2.29900
  0.5190   -2.28400
  0.5210   -2.26900
  0.5230   -2.25400
  0.5250   -2.24000
  0.5270   -2.22600
  0.5290   -2.21200
  0.5310   -2.19800
  0.5330   -2.18400
  0.5350   -2.17100
  0.5370   -2.15800
  0.5390   -2.14500
  0.5410   -2.13300
  0.5430   -2.12000
  0.5450   -2.10800
  0.5470   -2.09600
  0.5490   -2.08300
  0.5510   -2.07100
  0.5530   -2.05900
  0.5550   -2.04700
  0.5570   -2.03600
  0.5590   -2.02400
  0.5610   -2.01200
  0.5630   -1.99900
  0.5650   -1.98700
  0.5670   -1.97600
  0.5690   -1.96300
  0.5710   -1.95100
  0.5730   -1.93900
  0.5750   -1.92700
  0.5770   -1.91500
  0.5790   -1.90400
  0.5810   -1.89200
  0.5830   -1.88000
  0.5850   -1.86800
  0.5870   -1.85600
  0.5890   -1.84300
  0.5910   -1.83100
  0.5930   -1.81900
  0.5950   -1.80700
  0.5970   -1.79400
  0.5990   -1.78200
  0.6010   -1.76900
  0.6030   -1.75700
  0.6050   -1.74400
  0.6070   -1.73200
  0.6090   -1.71900
  0.6110   -1.70600
  0.6130   -1.69400
  0.6150   -1.68100
  0.6170   -1.66800
  0.6190   -1.65500
  0.6210   -1.64200
  0.6230   -1.62900
  0.6250   -1.61600
  0.6270   -1.60200
  0.6290   -1.58900
  0.6310   -1.57600
  0.6330   -1.56200
  0.6350   -1.54900
  0.6370   -1.53500
  0.6390   -1.52200
  0.6410   -1.50800
  0.6430   -1.49400
  0.6450   -1.48000
  0.6470   -1.46600
  0.6490   -1.45200
  0.6510   -1.43800
  0.6530   -1.42300
  0.6550   -1.40900
  0.6570   -1.39500
  0.6590   -1.38000
  0.6610   -1.36600
  0.6630   -1.35100
  0.6650   -1.33600
  0.6670   -1.32100
  0.6690   -1.30700
  0.6710   -1.29200
  0.6730   -1.27700
  0.6750   -1.26200
  0.6770   -1.24700
  0.6790   -1.23200
  0.6810   -1.21700
  0.6830   -1.20200
  0.6850   -1.18700
  0.6870   -1.17200
  0.6890   -1.15800
  0.6910   -1.14300
  0.6930   -1.12800
  0.6950   -1.11300
  0.6970   -1.09800
  0.6990   -1.08300
  0.7010   -1.06900
  0.7030   -1.05400
  0.7050   -1.04000
  0.7070   -1.02600
  0.7090   -1.01200
  0.7110   -0.99800
  0.7130   -0.98400
  0.7150   -0.97100
  0.7170   -0.95700
  0.7190   -0.94400
  0.7210   -0.93100
  0.7230   -0.91800
  0.7250   -0.90500
  0.7270   -0.89300
  0.7290   -0.88100
  0.7310   -0.86900
  0.7330   -0.85700
  0.7350   -0.84600
  0.7370   -0.83400
  0.7390   -0.82300
  0.7410   -0.81200
  0.7430   -0.80100
  0.7450   -0.79100
  0.7470   -0.78100
  0.7490   -0.77100
  0.7510   -0.76200
  0.7530   -0.75300
  0.7550   -0.74400
  0.7570   -0.73500
  0.7590   -0.72700
  0.7610   -0.71900
  0.7630   -0.71100
  0.7650   -0.70400
  0.7670   -0.69600
  0.7690   -0.68900
  0.7710   -0.68200
  0.7730   -0.67600
  0.7750   -0.66900
  0.7770   -0.66300
  0.7790   -0.65700
  0.7810   -0.65200
  0.7830   -0.64700
  0.7850   -0.64100
  0.7870   -0.63600
  0.7890   -0.63100
  0.7910   -0.62700
  0.7930   -0.62200
  0.7950   -0.61800
  0.7970   -0.61400
  0.7990   -0.61000
  0.8010   -0.60700
  0.8030   -0.60300
  0.8050   -0.59900
  0.8070   -0.59600
  0.8090   -0.59300
  0.8110   -0.58900
  0.8130   -0.58600
  0.8150   -0.58300
  0.8170   -0.58000
  0.8190   -0.57700
  0.8210   -0.57300
  0.8230   -0.57000
  0.8250   -0.56700
  0.8270   -0.56400
  0.8290   -0.56100
  0.8310   -0.55800
  0.8330   -0.55400
  0.8350   -0.55100
  0.8370   -0.54700
  0.8390   -0.54400
  0.8410   -0.54000
  0.8430   -0.53700
  0.8450   -0.53300
  0.8470   -0.52900
  0.8490   -0.52600
  0.8510   -0.52200
  0.8530   -0.51800
  0.8550   -0.51300
  0.8570   -0.50900
  0.8590   -0.50500
  0.8610   -0.50000
  0.8630   -0.49600
  0.8650   -0.49100
  0.8670   -0.48600
  0.8690   -0.48100
  0.8710   -0.47700
  0.8730   -0.47200
  0.8750   -0.46700
  0.8770   -0.46200
  0.8790   -0.45700
  0.8810   -0.45100
  0.8830   -0.44600
  0.8850   -0.44100
  0.8870   -0.43600
  0.8890   -0.43100
  0.8910   -0.42700
  0.8930   -0.42200
  0.8950   -0.41700
  0.8970   -0.41200
  0.8990   -0.40800
  0.9010   -0.40300
  0.9030   -0.39900
  0.9050   -0.39400
  0.9070   -0.39000
  0.9090   -0.38600
  0.9110   -0.38200
  0.9130   -0.37800
  0.9150   -0.37400
  0.9170   -0.37100
  0.9190   -0.36700
  0.9210   -0.36400
  0.9230   -0.36000
  0.9250   -0.35700
  0.9270   -0.35400
  0.9290   -0.35200
  0.9310   -0.34900
  0.9330   -0.34600
  0.9350   -0.34400
  0.9370   -0.34200
  0.9390   -0.33900
  0.9410   -0.33700
  0.9430   -0.33500
  0.9450   -0.33300
  0.9470   -0.33100
  0.9490   -0.32900
  0.9510   -0.32700
  0.9530   -0.32500
  0.9550   -0.32400
  0.9570   -0.32200
  0.9590   -0.32000
  0.9610   -0.31800
  0.9630   -0.31600
  0.9650   -0.31400
  0.9670   -0.31200
  0.9690   -0.31000
  0.9710   -0.30800
  0.9730   -0.30600
  0.9750   -0.30400
  0.9770   -0.30100
  0.9790   -0.29900
  0.9810   -0.29700
  0.9830   -0.29400
  0.9850   -0.29200
  0.9870   -0.28900
  0.9890   -0.28700
  0.9910   -0.28400
  0.9930   -0.28100
  0.9950   -0.27900
  0.9970   -0.27600
  0.9990   -0.27300
  1.0010   -0.27100
  1.0030   -0.26800
  1.0050   -0.26500
  1.0070   -0.26200
  1.0090   -0.26000
  1.0110   -0.25700
  1.0130   -0.25500
  1.0150   -0.25200
  1.0170   -0.24900
  1.0190   -0.24700
  1.0210   -0.24500
  1.0230   -0.24200
  1.0250   -0.24000
  1.0270   -0.23800
  1.0290   -0.23600
  1.0310   -0.23400
  1.0330   -0.23200
  1.0350   -0.23000
  1.0370   -0.22800
  1.0390   -0.22700
  1.0410   -0.22600
  1.0430   -0.22400
  1.0450   -0.22300
  1.0470   -0.22300
  1.0490   -0.22200
  1.0510   -0.22100
  1.0530   -0.22000
  1.0550   -0.22000
  1.0570   -0.21900
  1.0590   -0.21900
  1.0610   -0.21800
  1.0630   -0.21800
  1.0650   -0.21800
  1.0670   -0.21800
  1.0690   -0.21800
  1.0710   -0.21700
  1.0730   -0.21700
  1.0750   -0.21700
  1.0770   -0.21700
  1.0790   -0.21700
  1.0810   -0.21700
  1.0830   -0.21600
  1.0850   -0.21600
  1.0870   -0.21600
  1.0890   -0.21600
  1.0910   -0.21500
  1.0930   -0.21500
  1.0950   -0.21400
  1.0970   -0.21400
  1.0990   -0.21300
  1.1010   -0.21200
  1.1030   -0.21100
  1.1050   -0.21000
  1.1070   -0.20900
  1.1090   -0.20800
  1.1110   -0.20600
  1.1130   -0.20500
  1.1150   -0.20300
  1.1170   -0.20100
  1.1190   -0.19900
  1.1210   -0.19700
  1.1230   -0.19500
  1.1250   -0.19300
  1.1270   -0.19000
  1.1290   -0.18700
  1.1310   -0.18500
  1.1330   -0.18200
  1.1350   -0.17900
  1.1370   -0.17600
  1.1390   -0.17200
  1.1410   -0.16900
  1.1430   -0.16600
  1.1450   -0.16200
  1.1470   -0.15900
  1.1490   -0.15500
  1.1510   -0.15100
  1.1530   -0.14800
  1.1550   -0.14400
  1.1570   -0.14000
  1.1590   -0.13600
  1.1610   -0.13200
  1.1630   -0.12800
  1.1650   -0.12400
  1.1670   -0.12000
  1.1690   -0.11600
  1.1710   -0.11200
  1.1730   -0.10800
  1.1750   -0.10400
  1.1770   -0.10000
  1.1790   -0.09600
  1.1810   -0.09200
  1.1830   -0.08800
  1.1850   -0.08500
  1.1870   -0.08100
  1.1890   -0.07800
  1.1910   -0.07400
  1.1930   -0.07100
  1.1950   -0.06800
  1.1970   -0.06500
  1.1990   -0.06100
  1.2010   -0.05900
  1.2030   -0.05600
  1.2050   -0.05300
  1.2070   -0.05100
  1.2090   -0.04800
  1.2110   -0.04600
  1.2130   -0.04400
  1.2150   -0.04300
  1.2170   -0.04100
  1.2190   -0.03900
  1.2210   -0.03800
  1.2230   -0.03700
  1.2250   -0.03500
  1.2270   -0.03400
  1.2290   -0.03300
  1.2310   -0.03300
  1.2330   -0.03200
  1.2350   -0.03100
  1.2370   -0.03100
  1.2390   -0.03100
  1.2410   -0.03000
  1.2430   -0.03000
  1.2450   -0.03000
  1.2470   -0.03000
  1.2490   -0.03000
  1.2510   -0.03000
  1.2530   -0.03000
  1.2550   -0.03000
  1.2570   -0.03000
  1.2590   -0.03100
  1.2610   -0.03100
  1.2630   -0.03100
  1.2650   -0.03100
  1.2670   -0.03100
  1.2690   -0.03100
  1.2710   -0.03100
  1.2730   -0.03200
  1.2750   -0.03200
  1.2770   -0.03200
  1.2790   -0.03200
  1.2810   -0.03200
  1.2830   -0.03100
  1.2850   -0.03100
  1.2870   -0.03100
  1.2890   -0.03100
  1.2910   -0.03000
  1.2930   -0.03000
  1.2950   -0.02900
  1.2970   -0.02800
  1.2990   -0.02700
  1.3010   -0.02600
  1.3030   -0.02500
  1.3050   -0.02400
  1.3070   -0.02300
  1.3090   -0.02100
  1.3110   -0.02000
  1.3130   -0.01800
  1.3150   -0.01600
  1.3170   -0.01400
  1.3190   -0.01200
  1.3210   -0.00900
  1.3230   -0.00700
  1.3250   -0.00400
  1.3270   -0.00100
  1.3290    0.00200
  1.3310    0.00500
  1.3330    0.00800
  1.3350    0.01100
  1.3370    0.01400
  1.3390    0.01700
  1.3410    0.02100
  1.3430    0.02400
  1.3450    0.02800
  1.3470    0.03100
  1.3490    0.03500
  1.3510    0.03900
  1.3530    0.04200
  1.3550    0.04600
  1.3570    0.04900
  1.3590    0.05300
  1.3610    0.05600
  1.3630    0.06000
  1.3650    0.06300
  1.3670    0.06600
  1.3690    0.07000
  1.3710    0.07300
  1.3730    0.07500
  1.3750    0.07800
  1.3770    0.08100
  1.3790    0.08300
  1.3810    0.08500
  1.3830    0.08700
  1.3850    0.08900
  1.3870    0.09000
  1.3890    0.09100
  1.3910    0.09100
  1.3930    0.09100
  1.3950    0.09100
  1.3970    0.09000
  1.3990    0.08800
