# z (nm)   (kJ/mol)
  0.0710    0.27700
  0.0730   -0.42300
  0.0750   -1.16000
  0.0770   -1.88500
  0.0790   -2.61800
  0.0810   -3.35800
  0.0830   -4.08300
  0.0850   -4.81200
  0.0870   -5.54100
  0.0890   -6.25800
  0.0910   -6.96600
  0.0930   -7.66300
  0.0950   -8.34700
  0.0970   -9.01300
  0.0990   -9.66300
  0.1010  -10.29800
  0.1030  -10.92000
  0.1050  -11.52500
  0.1070  -12.11400
  0.1090  -12.68500
  0.1110  -13.23500
  0.1130  -13.76400
  0.1150  -14.27500
  0.1170  -14.76600
  0.1190  -15.23600
  0.1210  -15.68600
  0.1230  -16.11600
  0.1250  -16.52500
  0.1270  -16.91300
  0.1290  -17.27900
  0.1310  -17.62500
  0.1330  -17.94900
  0.1350  -18.25200
  0.1370  -18.53300
  0.1390  -18.79300
  0.1410  -19.03200
  0.1430  -19.24900
  0.1450  -19.44500
  0.1470  -19.62000
  0.1490  -19.77500
  0.1510  -19.91000
  0.1530  -20.02400
  0.1550  -20.11800
  0.1570  -20.19200
  0.1590  -20.24800
  0.1610  -20.28400
  0.1630  -20.30000
  0.1650  -20.29600
  0.1670  -20.27400
  0.1690  -20.23500
  0.1710  -20.18300
  0.1730  -20.11700
  0.1750  -20.03700
  0.1770  -19.94400
  0.1790  -19.83700
  0.1810  -19.71800
  0.1830  -19.59000
  0.1850  -19.45200
  0.1870  -19.30500
  0.1890  -19.15000
  0.1910  -18.98900
  0.1930  -18.82100
  0.1950  -18.64600
  0.1970  -18.46500
  0.1990  -18.28100
  0.2010  -18.09400
  0.2030  -17.90400
  0.2050  -17.71300
  0.2070  -17.51900
  0.2090  -17.32400
  0.2110  -17.12700
  0.2130  -16.93200
  0.2150  -16.73700
  0.2170  -16.54200
  0.2190  -16.34900
  0.2210  -16.15600
  0.2230  -15.96400
  0.2250  -15.77400
  0.2270  -15.58400
  0.2290  -15.39700
  0.2310  -15.21100
  0.2330  -15.02600
  0.2350  -14.84300
  0.2370  -14.66300
  0.2390  -14.48400
  0.2410  -14.30800
  0.2430  -14.13200
  0.2450  -13.95900
  0.2470  -13.78700
  0.2490  -13.61700
  0.2510  -13.44800
  0.2530  -13.28100
  0.2550  -13.11500
  0.2570  -12.95100
  0.2590  -12.78800
  0.2610  -12.62500
  0.2630  -12.46500
  0.2650  -12.30500
  0.2670  -12.14700
  0.2690  -11.99100
  0.2710  -11.83400
  0.2730  -11.67900
  0.2750  -11.52400
  0.2770  -11.37000
  0.2790  -11.21800
  0.2810  -11.06600
  0.2830  -10.91500
  0.2850  -10.76400
  0.2870  -10.61500
  0.2890  -10.46600
  0.2910  -10.31800
  0.2930  -10.17100
  0.2950  -10.02500
  0.2970   -9.87900
  0.2990   -9.73400
  0.3010   -9.59100
  0.3030   -9.44800
  0.3050   -9.30600
  0.3070   -9.16400
  0.3090   -9.02400
  0.3110   -8.88500
  0.3130   -8.74700
  0.3150   -8.60900
  0.3170   -8.47300
  0.3190   -8.33800
  0.3210   -8.20300
  0.3230   -8.07000
  0.3250   -7.93800
  0.3270   -7.80700
  0.3290   -7.67700
  0.3310   -7.54800
  0.3330   -7.42100
  0.3350   -7.29400
  0.3370   -7.16900
  0.3390   -7.04400
  0.3410   -6.92100
  0.3430   -6.79800
  0.3450   -6.67700
  0.3470   -6.55700
  0.3490   -6.43800
  0.3510   -6.32100
  0.3530   -6.20400
  0.3550   -6.08900
  0.3570   -5.97400
  0.3590   -5.86100
  0.3610   -5.75000
  0.3630   -5.63900
  0.3650   -5.52900
  0.3670   -5.42100
  0.3690   -5.31400
  0.3710   -5.20700
  0.3730   -5.10200
  0.3750   -4.99900
  0.3770   -4.89800
  0.3790   -4.79700
  0.3810   -4.69800
  0.3830   -4.60000
  0.3850   -4.50400
  0.3870   -4.40900
  0.3890   -4.31600
  0.3910   -4.22400
  0.3930   -4.13400
  0.3950   -4.04600
  0.3970   -3.95900
  0.3990   -3.87300
  0.4010   -3.78800
  0.4030   -3.70600
  0.4050   -3.62500
  0.4070   -3.54600
  0.4090   -3.46900
  0.4110   -3.39400
  0.4130   -3.32100
  0.4150   -3.24900
  0.4170   -3.18000
  0.4190   -3.11300
  0.4210   -3.04800
  0.4230   -2.98400
  0.4250   -2.92300
  0.4270   -2.86300
  0.4290   -2.80600
  0.4310   -2.75100
  0.4330   -2.69700
  0.4350   -2.64600
  0.4370   -2.59700
  0.4390   -2.55000
  0.4410   -2.50600
  0.4430   -2.46300
  0.4450   -2.42300
  0.4470   -2.38400
  0.4490   -2.34700
  0.4510   -2.31200
  0.4530   -2.27900
  0.4550   -2.24800
  0.4570   -2.21900
  0.4590   -2.19200
  0.4610   -2.16600
  0.4630   -2.14300
  0.4650   -2.12100
  0.4670   -2.10100
  0.4690   -2.08300
  0.4710   -2.06600
  0.4730   -2.05100
  0.4750   -2.03700
  0.4770   -2.02500
  0.4790   -2.01400
  0.4810   -2.00400
  0.4830   -1.99600
  0.4850   -1.98800
  0.4870   -1.98200
  0.4890   -1.97700
  0.4910   -1.97300
  0.4930   -1.96900
  0.4950   -1.96700
  0.4970   -1.96600
  0.4990   -1.96500
  0.5010   -1.96500
  0.5030   -1.96500
  0.5050   -1.96600
  0.5070   -1.96800
  0.5090   -1.97000
  0.5110   -1.97200
  0.5130   -1.97500
  0.5150   -1.97800
  0.5170   -1.98100
  0.5190   -1.98400
  0.5210   -1.98600
  0.5230   -1.98900
  0.5250   -1.99200
  0.5270   -1.99400
  0.5290   -1.99700
  0.5310   -1.99900
  0.5330   -2.00100
  0.5350   -2.00200
  0.5370   -2.00400
  0.5390   -2.00400
  0.5410   -2.00500
  0.5430   -2.00500
  0.5450   -2.00400
  0.5470   -2.00300
  0.5490   -2.00100
  0.5510   -1.99900
  0.5530   -1.99600
  0.5550   -1.99200
  0.5570   -1.98800
  0.5590   -1.98300
  0.5610   -1.97700
  0.5630   -1.97000
  0.5650   -1.96300
  0.5670   -1.95500
  0.5690   -1.94700
  0.5710   -1.93700
  0.5730   -1.92700
  0.5750   -1.91600
  0.5770   -1.90500
  0.5790   -1.89300
  0.5810   -1.88000
  0.5830   -1.86600
  0.5850   -1.85200
  0.5870   -1.83600
  0.5890   -1.82000
  0.5910   -1.80400
  0.5930   -1.78700
  0.5950   -1.77000
  0.5970   -1.75100
  0.5990   -1.73200
  0.6010   -1.71300
  0.6030   -1.69300
  0.6050   -1.67300
  0.6070   -1.65200
  0.6090   -1.63100
  0.6110   -1.60900
  0.6130   -1.58700
  0.6150   -1.56500
  0.6170   -1.54200
  0.6190   -1.51900
  0.6210   -1.49600
  0.6230   -1.47300
  0.6250   -1.44900
  0.6270   -1.42500
  0.6290   -1.40100
  0.6310   -1.37700
  0.6330   -1.35200
  0.6350   -1.32800
  0.6370   -1.30300
  0.6390   -1.27900
  0.6410   -1.25400
  0.6430   -1.23000
  0.6450   -1.20600
  0.6470   -1.18100
  0.6490   -1.15700
  0.6510   -1.13300
  0.6530   -1.10900
  0.6550   -1.08600
  0.6570   -1.06200
  0.6590   -1.03800
  0.6610   -1.01500
  0.6630   -0.99200
  0.6650   -0.96900
  0.6670   -0.94700
  0.6690   -0.92500
  0.6710   -0.90300
  0.6730   -0.88100
  0.6750   -0.86000
  0.6770   -0.83900
  0.6790   -0.81800
  0.6810   -0.79800
  0.6830   -0.77700
  0.6850   -0.75700
  0.6870   -0.73800
  0.6890   -0.71800
  0.6910   -0.69900
  0.6930   -0.68100
  0.6950   -0.66300
  0.6970   -0.64500
  0.6990   -0.62700
  0.7010   -0.61000
  0.7030   -0.59300
  0.7050   -0.57600
  0.7070   -0.56000
  0.7090   -0.54400
  0.7110   -0.52900
  0.7130   -0.51400
  0.7150   -0.49900
  0.7170   -0.48400
  0.7190   -0.47000
  0.7210   -0.45600
  0.7230   -0.44300
  0.7250   -0.43000
  0.7270   -0.41700
  0.7290   -0.40500
  0.7310   -0.39300
  0.7330   -0.38100
  0.7350   -0.37000
  0.7370   -0.35900
  0.7390   -0.34800
  0.7410   -0.33800
  0.7430   -0.32900
  0.7450   -0.31900
  0.7470   -0.31000
  0.7490   -0.30200
  0.7510   -0.29300
  0.7530   -0.28600
  0.7550   -0.27800
  0.7570   -0.27100
  0.7590   -0.26500
  0.7610   -0.25900
  0.7630   -0.25300
  0.7650   -0.24800
  0.7670   -0.24300
  0.7690   -0.23900
  0.7710   -0.23500
  0.7730   -0.23100
  0.7750   -0.22800
  0.7770   -0.22500
  0.7790   -0.22200
  0.7810   -0.22000
  0.7830   -0.21900
  0.7850   -0.21800
  0.7870   -0.21700
  0.7890   -0.21600
  0.7910   -0.21600
  0.7930   -0.21600
  0.7950   -0.21700
  0.7970   -0.21700
  0.7990   -0.21800
  0.8010   -0.22000
  0.8030   -0.22100
  0.8050   -0.22300
  0.8070   -0.22500
  0.8090   -0.22800
  0.8110   -0.23000
  0.8130   -0.23300
  0.8150   -0.23600
  0.8170   -0.23900
  0.8190   -0.24200
  0.8210   -0.24600
  0.8230   -0.24900
  0.8250   -0.25300
  0.8270   -0.25600
  0.8290   -0.26000
  0.8310   -0.26300
  0.8330   -0.26700
  0.8350   -0.27000
  0.8370   -0.27300
  0.8390   -0.27700
  0.8410   -0.28000
  0.8430   -0.28300
  0.8450   -0.28600
  0.8470   -0.28900
  0.8490   -0.29200
  0.8510   -0.29400
  0.8530   -0.29600
  0.8550   -0.29900
  0.8570   -0.30100
  0.8590   -0.30300
  0.8610   -0.30400
  0.8630   -0.30500
  0.8650   -0.30600
  0.8670   -0.30700
  0.8690   -0.30800
  0.8710   -0.30800
  0.8730   -0.30900
  0.8750   -0.30800
  0.8770   -0.30800
  0.8790   -0.30800
  0.8810   -0.30700
  0.8830   -0.30600
  0.8850   -0.30500
  0.8870   -0.30400
  0.8890   -0.30200
  0.8910   -0.30000
  0.8930   -0.29900
  0.8950   -0.29700
  0.8970   -0.29500
  0.8990   -0.29200
  0.9010   -0.29000
  0.9030   -0.28700
  0.9050   -0.28400
  0.9070   -0.28200
  0.9090   -0.27900
  0.9110   -0.27600
  0.9130   -0.27300
  0.9150   -0.27000
  0.9170   -0.26600
  0.9190   -0.26300
  0.9210   -0.26000
  0.9230   -0.25700
  0.9250   -0.25300
  0.9270   -0.25000
  0.9290   -0.24700
  0.9310   -0.24300
  0.9330   -0.24000
  0.9350   -0.23700
  0.9370   -0.23300
  0.9390   -0.23000
  0.9410   -0.22700
  0.9430   -0.22400
  0.9450   -0.22000
  0.9470   -0.21700
  0.9490   -0.21400
  0.9510   -0.21100
  0.9530   -0.20800
  0.9550   -0.20500
  0.9570   -0.20200
  0.9590   -0.19900
  0.9610   -0.19600
  0.9630   -0.19300
  0.9650   -0.19000
  0.9670   -0.18700
  0.9690   -0.18400
  0.9710   -0.18200
  0.9730   -0.17900
  0.9750   -0.17600
  0.9770   -0.17300
  0.9790   -0.17100
  0.9810   -0.16800
  0.9830   -0.16500
  0.9850   -0.16300
  0.9870   -0.16000
  0.9890   -0.15800
  0.9910   -0.15500
  0.9930   -0.15300
  0.9950   -0.15100
  0.9970   -0.14800
  0.9990   -0.14600
  1.0010   -0.14300
  1.0030   -0.14100
  1.0050   -0.13900
  1.0070   -0.13600
  1.0090   -0.13400
  1.0110   -0.13200
  1.0130   -0.12900
  1.0150   -0.12700
  1.0170   -0.12500
  1.0190   -0.12300
  1.0210   -0.12100
  1.0230   -0.11900
  1.0250   -0.11600
  1.0270   -0.11400
  1.0290   -0.11200
  1.0310   -0.11000
  1.0330   -0.10800
  1.0350   -0.10600
  1.0370   -0.10400
  1.0390   -0.10200
  1.0410   -0.10000
  1.0430   -0.09800
  1.0450   -0.09600
  1.0470   -0.09400
  1.0490   -0.09200
  1.0510   -0.09000
  1.0530   -0.08800
  1.0550   -0.08600
  1.0570   -0.08400
  1.0590   -0.08300
  1.0610   -0.08100
  1.0630   -0.07900
  1.0650   -0.07800
  1.0670   -0.07600
  1.0690   -0.07500
  1.0710   -0.07300
  1.0730   -0.07200
  1.0750   -0.07000
  1.0770   -0.06900
  1.0790   -0.06800
  1.0810   -0.06700
  1.0830   -0.06600
  1.0850   -0.06500
  1.0870   -0.06400
  1.0890   -0.06300
  1.0910   -0.06200
  1.0930   -0.06100
  1.0950   -0.06000
  1.0970   -0.06000
  1.0990   -0.05900
  1.1010   -0.05800
  1.1030   -0.05800
  1.1050   -0.05700
  1.1070   -0.05700
  1.1090   -0.05700
  1.1110   -0.05600
  1.1130   -0.05600
  1.1150   -0.05600
  1.1170   -0.05600
  1.1190   -0.05500
  1.1210   -0.05500
  1.1230   -0.05500
  1.1250   -0.05500
  1.1270   -0.05500
  1.1290   -0.05500
  1.1310   -0.05500
  1.1330   -0.05500
  1.1350   -0.05500
  1.1370   -0.05500
  1.1390   -0.05500
  1.1410   -0.05500
  1.1430   -0.05500
  1.1450   -0.05500
  1.1470   -0.05400
  1.1490   -0.05400
  1.1510   -0.05400
  1.1530   -0.05400
  1.1550   -0.05400
  1.1570   -0.05400
  1.1590   -0.05400
  1.1610   -0.05400
  1.1630   -0.05400
  1.1650   -0.05400
  1.1670   -0.05400
  1.1690   -0.05300
  1.1710   -0.05300
  1.1730   -0.05300
  1.1750   -0.05300
  1.1770   -0.05300
  1.1790   -0.05200
  1.1810   -0.05200
  1.1830   -0.05200
  1.1850   -0.05200
  1.1870   -0.05100
  1.1890   -0.05100
  1.1910   -0.05100
  1.1930   -0.05000
  1.1950   -0.05000
  1.1970   -0.05000
  1.1990   -0.05000
  1.2010   -0.04900
  1.2030   -0.04900
  1.2050   -0.04800
  1.2070   -0.04800
  1.2090   -0.04800
  1.2110   -0.04700
  1.2130   -0.04700
  1.2150   -0.04600
  1.2170   -0.04600
  1.2190   -0.04500
  1.2210   -0.04500
  1.2230   -0.04400
  1.2250   -0.04300
  1.2270   -0.04300
  1.2290   -0.04200
  1.2310   -0.04100
  1.2330   -0.04100
  1.2350   -0.04000
  1.2370   -0.03900
  1.2390   -0.03800
  1.2410   -0.03700
  1.2430   -0.03700
  1.2450   -0.03600
  1.2470   -0.03500
  1.2490   -0.03400
  1.2510   -0.03300
  1.2530   -0.03200
  1.2550   -0.03100
  1.2570   -0.03000
  1.2590   -0.02900
  1.2610   -0.02800
  1.2630   -0.02700
  1.2650   -0.02600
  1.2670   -0.02500
  1.2690   -0.02400
  1.2710   -0.02300
  1.2730   -0.02100
  1.2750   -0.02000
  1.2770   -0.01900
  1.2790   -0.01800
  1.2810   -0.01700
  1.2830   -0.01600
  1.2850   -0.01400
  1.2870   -0.01300
  1.2890   -0.01200
  1.2910   -0.01100
  1.2930   -0.00900
  1.2950   -0.00800
  1.2970   -0.00700
  1.2990   -0.00600
  1.3010   -0.00400
  1.3030   -0.00300
  1.3050   -0.00200
  1.3070   -0.00100
  1.3090    0.00100
  1.3110    0.00200
  1.3130    0.00300
  1.3150    0.00400
  1.3170    0.00600
  1.3190    0.00700
  1.3210    0.00800
  1.3230    0.01000
  1.3250    0.01100
  1.3270    0.01200
  1.3290    0.01300
  1.3310    0.01500
  1.3330    0.01600
  1.3350    0.01800
  1.3370    0.01900
  1.3390    0.02100
  1.3410    0.02200
  1.3430    0.02400
  1.3450    0.02600
  1.3470    0.02700
  1.3490    0.02900
  1.3510    0.03100
  1.3530    0.03300
  1.3550    0.03500
  1.3570    0.03700
  1.3590    0.03900
  1.3610    0.04100
  1.3630    0.04300
  1.3650    0.04500
  1.3670    0.04700
  1.3690    0.04900
  1.3710    0.05100
  1.3730    0.05300
  1.3750    0.05500
  1.3770    0.05700
  1.3790    0.05900
  1.3810    0.06100
  1.3830    0.06300
  1.3850    0.06400
  1.3870    0.06600
  1.3890    0.06700
  1.3910    0.06900
  1.3930    0.07000
  1.3950    0.07000
  1.3970    0.07100
  1.3990    0.07100
