# z (nm)   (kJ/mol)
  0.0810   -4.50800
  0.0830   -5.32600
  0.0850   -6.21200
  0.0870   -7.07500
  0.0890   -7.96600
  0.0910   -8.85400
  0.0930   -9.72900
  0.0950  -10.60900
  0.0970  -11.46600
  0.0990  -12.30900
  0.1010  -13.15000
  0.1030  -13.97700
  0.1050  -14.78500
  0.1070  -15.57800
  0.1090  -16.35200
  0.1110  -17.11100
  0.1130  -17.84500
  0.1150  -18.54800
  0.1170  -19.22800
  0.1190  -19.88300
  0.1210  -20.51200
  0.1230  -21.11500
  0.1250  -21.68900
  0.1270  -22.24000
  0.1290  -22.76600
  0.1310  -23.26400
  0.1330  -23.73200
  0.1350  -24.16700
  0.1370  -24.57400
  0.1390  -24.95300
  0.1410  -25.30000
  0.1430  -25.61700
  0.1450  -25.90400
  0.1470  -26.16200
  0.1490  -26.39000
  0.1510  -26.58800
  0.1530  -26.75600
  0.1550  -26.89600
  0.1570  -27.00600
  0.1590  -27.08900
  0.1610  -27.14400
  0.1630  -27.17200
  0.1650  -27.17300
  0.1670  -27.15100
  0.1690  -27.10500
  0.1710  -27.03700
  0.1730  -26.94600
  0.1750  -26.83500
  0.1770  -26.70600
  0.1790  -26.55800
  0.1810  -26.39300
  0.1830  -26.21200
  0.1850  -26.01800
  0.1870  -25.81100
  0.1890  -25.59200
  0.1910  -25.36200
  0.1930  -25.12100
  0.1950  -24.87400
  0.1970  -24.62200
  0.1990  -24.36300
  0.2010  -24.10000
  0.2030  -23.83300
  0.2050  -23.56200
  0.2070  -23.29100
  0.2090  -23.01900
  0.2110  -22.74800
  0.2130  -22.47700
  0.2150  -22.20700
  0.2170  -21.94000
  0.2190  -21.67500
  0.2210  -21.41300
  0.2230  -21.15400
  0.2250  -20.90000
  0.2270  -20.65000
  0.2290  -20.40400
  0.2310  -20.16400
  0.2330  -19.92700
  0.2350  -19.69600
  0.2370  -19.46900
  0.2390  -19.24600
  0.2410  -19.02800
  0.2430  -18.81600
  0.2450  -18.60800
  0.2470  -18.40400
  0.2490  -18.20400
  0.2510  -18.00800
  0.2530  -17.81600
  0.2550  -17.62800
  0.2570  -17.44300
  0.2590  -17.26100
  0.2610  -17.08200
  0.2630  -16.90600
  0.2650  -16.73200
  0.2670  -16.56000
  0.2690  -16.39100
  0.2710  -16.22400
  0.2730  -16.05800
  0.2750  -15.89300
  0.2770  -15.72900
  0.2790  -15.56700
  0.2810  -15.40500
  0.2830  -15.24500
  0.2850  -15.08400
  0.2870  -14.92400
  0.2890  -14.76500
  0.2910  -14.60500
  0.2930  -14.44600
  0.2950  -14.28700
  0.2970  -14.12800
  0.2990  -13.96900
  0.3010  -13.81100
  0.3030  -13.65200
  0.3050  -13.49300
  0.3070  -13.33400
  0.3090  -13.17500
  0.3110  -13.01700
  0.3130  -12.85800
  0.3150  -12.70000
  0.3170  -12.54200
  0.3190  -12.38400
  0.3210  -12.22700
  0.3230  -12.07000
  0.3250  -11.91400
  0.3270  -11.75800
  0.3290  -11.60300
  0.3310  -11.44800
  0.3330  -11.29400
  0.3350  -11.14100
  0.3370  -10.98800
  0.3390  -10.83600
  0.3410  -10.68500
  0.3430  -10.53400
  0.3450  -10.38500
  0.3470  -10.23600
  0.3490  -10.08900
  0.3510   -9.94200
  0.3530   -9.79600
  0.3550   -9.65200
  0.3570   -9.50800
  0.3590   -9.36500
  0.3610   -9.22200
  0.3630   -9.08100
  0.3650   -8.94200
  0.3670   -8.80300
  0.3690   -8.66500
  0.3710   -8.52700
  0.3730   -8.39100
  0.3750   -8.25600
  0.3770   -8.12200
  0.3790   -7.98900
  0.3810   -7.85700
  0.3830   -7.72600
  0.3850   -7.59600
  0.3870   -7.46600
  0.3890   -7.33900
  0.3910   -7.21200
  0.3930   -7.08500
  0.3950   -6.96000
  0.3970   -6.83700
  0.3990   -6.71400
  0.4010   -6.59200
  0.4030   -6.47200
  0.4050   -6.35300
  0.4070   -6.23500
  0.4090   -6.11800
  0.4110   -6.00200
  0.4130   -5.88800
  0.4150   -5.77400
  0.4170   -5.66200
  0.4190   -5.55100
  0.4210   -5.44100
  0.4230   -5.33200
  0.4250   -5.22500
  0.4270   -5.12100
  0.4290   -5.01800
  0.4310   -4.91600
  0.4330   -4.81600
  0.4350   -4.71700
  0.4370   -4.62000
  0.4390   -4.52400
  0.4410   -4.43000
  0.4430   -4.33800
  0.4450   -4.24700
  0.4470   -4.15800
  0.4490   -4.07100
  0.4510   -3.98600
  0.4530   -3.90300
  0.4550   -3.82100
  0.4570   -3.74200
  0.4590   -3.66500
  0.4610   -3.58900
  0.4630   -3.51500
  0.4650   -3.44400
  0.4670   -3.37500
  0.4690   -3.30700
  0.4710   -3.24300
  0.4730   -3.18000
  0.4750   -3.11900
  0.4770   -3.06000
  0.4790   -3.00400
  0.4810   -2.95000
  0.4830   -2.89800
  0.4850   -2.84800
  0.4870   -2.80000
  0.4890   -2.75400
  0.4910   -2.71100
  0.4930   -2.66900
  0.4950   -2.63000
  0.4970   -2.59200
  0.4990   -2.55700
  0.5010   -2.52300
  0.5030   -2.49000
  0.5050   -2.45900
  0.5070   -2.43000
  0.5090   -2.40300
  0.5110   -2.37700
  0.5130   -2.35300
  0.5150   -2.33100
  0.5170   -2.31000
  0.5190   -2.29000
  0.5210   -2.27200
  0.5230   -2.25500
  0.5250   -2.23900
  0.5270   -2.22400
  0.5290   -2.21000
  0.5310   -2.19700
  0.5330   -2.18500
  0.5350   -2.17400
  0.5370   -2.16400
  0.5390   -2.15400
  0.5410   -2.14600
  0.5430   -2.13800
  0.5450   -2.13000
  0.5470   -2.12300
  0.5490   -2.11700
  0.5510   -2.11000
  0.5530   -2.10400
  0.5550   -2.09900
  0.5570   -2.09300
  0.5590   -2.08800
  0.5610   -2.08200
  0.5630   -2.07700
  0.5650   -2.07200
  0.5670   -2.06700
  0.5690   -2.06100
  0.5710   -2.05600
  0.5730   -2.05000
  0.5750   -2.04500
  0.5770   -2.03900
  0.5790   -2.03200
  0.5810   -2.02600
  0.5830   -2.01900
  0.5850   -2.01200
  0.5870   -2.00500
  0.5890   -1.99700
  0.5910   -1.98900
  0.5930   -1.98100
  0.5950   -1.97200
  0.5970   -1.96300
  0.5990   -1.95400
  0.6010   -1.94400
  0.6030   -1.93300
  0.6050   -1.92200
  0.6070   -1.91000
  0.6090   -1.89900
  0.6110   -1.88600
  0.6130   -1.87400
  0.6150   -1.86100
  0.6170   -1.84700
  0.6190   -1.83300
  0.6210   -1.81900
  0.6230   -1.80500
  0.6250   -1.79000
  0.6270   -1.77400
  0.6290   -1.75800
  0.6310   -1.74200
  0.6330   -1.72500
  0.6350   -1.70800
  0.6370   -1.69100
  0.6390   -1.67300
  0.6410   -1.65500
  0.6430   -1.63800
  0.6450   -1.61900
  0.6470   -1.60100
  0.6490   -1.58200
  0.6510   -1.56300
  0.6530   -1.54400
  0.6550   -1.52400
  0.6570   -1.50400
  0.6590   -1.48400
  0.6610   -1.46400
  0.6630   -1.44300
  0.6650   -1.42300
  0.6670   -1.40300
  0.6690   -1.38300
  0.6710   -1.36200
  0.6730   -1.34200
  0.6750   -1.32200
  0.6770   -1.30100
  0.6790   -1.28100
  0.6810   -1.26000
  0.6830   -1.24000
  0.6850   -1.21900
  0.6870   -1.19900
  0.6890   -1.17900
  0.6910   -1.15900
  0.6930   -1.13900
  0.6950   -1.11800
  0.6970   -1.09800
  0.6990   -1.07800
  0.7010   -1.05900
  0.7030   -1.03900
  0.7050   -1.02000
  0.7070   -1.00100
  0.7090   -0.98200
  0.7110   -0.96300
  0.7130   -0.94500
  0.7150   -0.92700
  0.7170   -0.90900
  0.7190   -0.89100
  0.7210   -0.87300
  0.7230   -0.85600
  0.7250   -0.83900
  0.7270   -0.82200
  0.7290   -0.80500
  0.7310   -0.78800
  0.7330   -0.77200
  0.7350   -0.75500
  0.7370   -0.74000
  0.7390   -0.72400
  0.7410   -0.70900
  0.7430   -0.69400
  0.7450   -0.67900
  0.7470   -0.66500
  0.7490   -0.65000
  0.7510   -0.63600
  0.7530   -0.62200
  0.7550   -0.60900
  0.7570   -0.59500
  0.7590   -0.58200
  0.7610   -0.56900
  0.7630   -0.55600
  0.7650   -0.54400
  0.7670   -0.53200
  0.7690   -0.52000
  0.7710   -0.50800
  0.7730   -0.49600
  0.7750   -0.48500
  0.7770   -0.47500
  0.7790   -0.46400
  0.7810   -0.45400
  0.7830   -0.44400
  0.7850   -0.43500
  0.7870   -0.42500
  0.7890   -0.41600
  0.7910   -0.40700
  0.7930   -0.39900
  0.7950   -0.39100
  0.7970   -0.38300
  0.7990   -0.37500
  0.8010   -0.36800
  0.8030   -0.36100
  0.8050   -0.35500
  0.8070   -0.34800
  0.8090   -0.34200
  0.8110   -0.33600
  0.8130   -0.33100
  0.8150   -0.32600
  0.8170   -0.32100
  0.8190   -0.31700
  0.8210   -0.31300
  0.8230   -0.30900
  0.8250   -0.30500
  0.8270   -0.30200
  0.8290   -0.30000
  0.8310   -0.29700
  0.8330   -0.29500
  0.8350   -0.29300
  0.8370   -0.29100
  0.8390   -0.29000
  0.8410   -0.28900
  0.8430   -0.28800
  0.8450   -0.28700
  0.8470   -0.28700
  0.8490   -0.28700
  0.8510   -0.28700
  0.8530   -0.28700
  0.8550   -0.28800
  0.8570   -0.28900
  0.8590   -0.29000
  0.8610   -0.29100
  0.8630   -0.29200
  0.8650   -0.29400
  0.8670   -0.29500
  0.8690   -0.29700
  0.8710   -0.29900
  0.8730   -0.30100
  0.8750   -0.30300
  0.8770   -0.30500
  0.8790   -0.30700
  0.8810   -0.30900
  0.8830   -0.31200
  0.8850   -0.31400
  0.8870   -0.31600
  0.8890   -0.31800
  0.8910   -0.32000
  0.8930   -0.32300
  0.8950   -0.32500
  0.8970   -0.32700
  0.8990   -0.32900
  0.9010   -0.33000
  0.9030   -0.33200
  0.9050   -0.33300
  0.9070   -0.33500
  0.9090   -0.33600
  0.9110   -0.33700
  0.9130   -0.33800
  0.9150   -0.33900
  0.9170   -0.33900
  0.9190   -0.34000
  0.9210   -0.34000
  0.9230   -0.34000
  0.9250   -0.34000
  0.9270   -0.33900
  0.9290   -0.33900
  0.9310   -0.33800
  0.9330   -0.33700
  0.9350   -0.33600
  0.9370   -0.33400
  0.9390   -0.33300
  0.9410   -0.33100
  0.9430   -0.32900
  0.9450   -0.32600
  0.9470   -0.32400
  0.9490   -0.32200
  0.9510   -0.31900
  0.9530   -0.31600
  0.9550   -0.31300
  0.9570   -0.31000
  0.9590   -0.30700
  0.9610   -0.30300
  0.9630   -0.30000
  0.9650   -0.29600
  0.9670   -0.29300
  0.9690   -0.28900
  0.9710   -0.28500
  0.9730   -0.28100
  0.9750   -0.27800
  0.9770   -0.27400
  0.9790   -0.27000
  0.9810   -0.26600
  0.9830   -0.26200
  0.9850   -0.25900
  0.9870   -0.25500
  0.9890   -0.25100
  0.9910   -0.24700
  0.9930   -0.24400
  0.9950   -0.24000
  0.9970   -0.23700
  0.9990   -0.23400
  1.0010   -0.23000
  1.0030   -0.22700
  1.0050   -0.22400
  1.0070   -0.22100
  1.0090   -0.21800
  1.0110   -0.21500
  1.0130   -0.21200
  1.0150   -0.21000
  1.0170   -0.20700
  1.0190   -0.20400
  1.0210   -0.20200
  1.0230   -0.20000
  1.0250   -0.19700
  1.0270   -0.19500
  1.0290   -0.19300
  1.0310   -0.19100
  1.0330   -0.18900
  1.0350   -0.18700
  1.0370   -0.18500
  1.0390   -0.18300
  1.0410   -0.18100
  1.0430   -0.17900
  1.0450   -0.17700
  1.0470   -0.17500
  1.0490   -0.17300
  1.0510   -0.17200
  1.0530   -0.17000
  1.0550   -0.16800
  1.0570   -0.16600
  1.0590   -0.16400
  1.0610   -0.16200
  1.0630   -0.16000
  1.0650   -0.15800
  1.0670   -0.15600
  1.0690   -0.15400
  1.0710   -0.15200
  1.0730   -0.15000
  1.0750   -0.14800
  1.0770   -0.14600
  1.0790   -0.14300
  1.0810   -0.14100
  1.0830   -0.13900
  1.0850   -0.13700
  1.0870   -0.13500
  1.0890   -0.13300
  1.0910   -0.13100
  1.0930   -0.12800
  1.0950   -0.12600
  1.0970   -0.12400
  1.0990   -0.12200
  1.1010   -0.12000
  1.1030   -0.11800
  1.1050   -0.11600
  1.1070   -0.11400
  1.1090   -0.11200
  1.1110   -0.11000
  1.1130   -0.10800
  1.1150   -0.10600
  1.1170   -0.10400
  1.1190   -0.10300
  1.1210   -0.10100
  1.1230   -0.09900
  1.1250   -0.09800
  1.1270   -0.09600
  1.1290   -0.09500
  1.1310   -0.09300
  1.1330   -0.09200
  1.1350   -0.09100
  1.1370   -0.08900
  1.1390   -0.08800
  1.1410   -0.08700
  1.1430   -0.08600
  1.1450   -0.08500
  1.1470   -0.08300
  1.1490   -0.08200
  1.1510   -0.08100
  1.1530   -0.08000
  1.1550   -0.07900
  1.1570   -0.07800
  1.1590   -0.07700
  1.1610   -0.07600
  1.1630   -0.07500
  1.1650   -0.07400
  1.1670   -0.07300
  1.1690   -0.07200
  1.1710   -0.07100
  1.1730   -0.07000
  1.1750   -0.06900
  1.1770   -0.06800
  1.1790   -0.06700
  1.1810   -0.06600
  1.1830   -0.06500
  1.1850   -0.06300
  1.1870   -0.06200
  1.1890   -0.06100
  1.1910   -0.06000
  1.1930   -0.05900
  1.1950   -0.05700
  1.1970   -0.05600
  1.1990   -0.05500
  1.2010   -0.05300
  1.2030   -0.05200
  1.2050   -0.05000
  1.2070   -0.04900
  1.2090   -0.04800
  1.2110   -0.04600
  1.2130   -0.04500
  1.2150   -0.04300
  1.2170   -0.04100
  1.2190   -0.04000
  1.2210   -0.03800
  1.2230   -0.03700
  1.2250   -0.03500
  1.2270   -0.03400
  1.2290   -0.03200
  1.2310   -0.03100
  1.2330   -0.03000
  1.2350   -0.02800
  1.2370   -0.02700
  1.2390   -0.02600
  1.2410   -0.02400
  1.2430   -0.02300
  1.2450   -0.02200
  1.2470   -0.02100
  1.2490   -0.02000
  1.2510   -0.01900
  1.2530   -0.01800
  1.2550   -0.01700
  1.2570   -0.01600
  1.2590   -0.01500
  1.2610   -0.01400
  1.2630   -0.01300
  1.2650   -0.01300
  1.2670   -0.01200
  1.2690   -0.01100
  1.2710   -0.01000
  1.2730   -0.01000
  1.2750   -0.00900
  1.2770   -0.00800
  1.2790   -0.00800
  1.2810   -0.00700
  1.2830   -0.00600
  1.2850   -0.00600
  1.2870   -0.00500
  1.2890   -0.00400
  1.2910   -0.00300
  1.2930   -0.00200
  1.2950   -0.00200
  1.2970   -0.00100
  1.2990    0.00000
  1.3010    0.00100
  1.3030    0.00100
  1.3050    0.00200
  1.3070    0.00300
  1.3090    0.00400
  1.3110    0.00500
  1.3130    0.00500
  1.3150    0.00600
  1.3170    0.00700
  1.3190    0.00800
  1.3210    0.00900
  1.3230    0.01000
  1.3250    0.01100
  1.3270    0.01200
  1.3290    0.01300
  1.3310    0.01400
  1.3330    0.01500
  1.3350    0.01600
  1.3370    0.01700
  1.3390    0.01800
  1.3410    0.01900
  1.3430    0.02000
  1.3450    0.02100
  1.3470    0.02300
  1.3490    0.02400
  1.3510    0.02500
  1.3530    0.02600
  1.3550    0.02700
  1.3570    0.02800
  1.3590    0.02900
  1.3610    0.03000
  1.3630    0.03100
  1.3650    0.03200
  1.3670    0.03300
  1.3690    0.03400
  1.3710    0.03500
  1.3730    0.03600
  1.3750    0.03700
  1.3770    0.03800
  1.3790    0.03800
  1.3810    0.03900
  1.3830    0.04000
  1.3850    0.04100
  1.3870    0.04100
  1.3890    0.04200
  1.3910    0.04200
  1.3930    0.04200
  1.3950    0.04200
  1.3970    0.04100
  1.3990    0.04000
