# z (nm)   (kJ/mol)
  0.0790   -5.13200
  0.0810   -5.98500
  0.0830   -6.78400
  0.0850   -7.61000
  0.0870   -8.42600
  0.0890   -9.22300
  0.0910  -10.03800
  0.0930  -10.84800
  0.0950  -11.65900
  0.0970  -12.46800
  0.0990  -13.27000
  0.1010  -14.06400
  0.1030  -14.83600
  0.1050  -15.59200
  0.1070  -16.33700
  0.1090  -17.06400
  0.1110  -17.76800
  0.1130  -18.45600
  0.1150  -19.12400
  0.1170  -19.77000
  0.1190  -20.39500
  0.1210  -20.99300
  0.1230  -21.56400
  0.1250  -22.10800
  0.1270  -22.62600
  0.1290  -23.11800
  0.1310  -23.58400
  0.1330  -24.02300
  0.1350  -24.43200
  0.1370  -24.81100
  0.1390  -25.16400
  0.1410  -25.48700
  0.1430  -25.78200
  0.1450  -26.04900
  0.1470  -26.28700
  0.1490  -26.49600
  0.1510  -26.67700
  0.1530  -26.83000
  0.1550  -26.95400
  0.1570  -27.05200
  0.1590  -27.12400
  0.1610  -27.16800
  0.1630  -27.18700
  0.1650  -27.18100
  0.1670  -27.15100
  0.1690  -27.09700
  0.1710  -27.02300
  0.1730  -26.92600
  0.1750  -26.80900
  0.1770  -26.67400
  0.1790  -26.52000
  0.1810  -26.34900
  0.1830  -26.16200
  0.1850  -25.96200
  0.1870  -25.75000
  0.1890  -25.52700
  0.1910  -25.29400
  0.1930  -25.05000
  0.1950  -24.79800
  0.1970  -24.54000
  0.1990  -24.27700
  0.2010  -24.00900
  0.2030  -23.73700
  0.2050  -23.46200
  0.2070  -23.18600
  0.2090  -22.90800
  0.2110  -22.63100
  0.2130  -22.35400
  0.2150  -22.07900
  0.2170  -21.80600
  0.2190  -21.53500
  0.2210  -21.26700
  0.2230  -21.00100
  0.2250  -20.74000
  0.2270  -20.48100
  0.2290  -20.22700
  0.2310  -19.97700
  0.2330  -19.73100
  0.2350  -19.49000
  0.2370  -19.25300
  0.2390  -19.02100
  0.2410  -18.79400
  0.2430  -18.57000
  0.2450  -18.34900
  0.2470  -18.13300
  0.2490  -17.92200
  0.2510  -17.71700
  0.2530  -17.51400
  0.2550  -17.31500
  0.2570  -17.11900
  0.2590  -16.92700
  0.2610  -16.73900
  0.2630  -16.55400
  0.2650  -16.37000
  0.2670  -16.19100
  0.2690  -16.01400
  0.2710  -15.83900
  0.2730  -15.66800
  0.2750  -15.49800
  0.2770  -15.33000
  0.2790  -15.16400
  0.2810  -15.00000
  0.2830  -14.83700
  0.2850  -14.67500
  0.2870  -14.51500
  0.2890  -14.35500
  0.2910  -14.19700
  0.2930  -14.04100
  0.2950  -13.88500
  0.2970  -13.73100
  0.2990  -13.57700
  0.3010  -13.42400
  0.3030  -13.27200
  0.3050  -13.12100
  0.3070  -12.97100
  0.3090  -12.82200
  0.3110  -12.67400
  0.3130  -12.52600
  0.3150  -12.37900
  0.3170  -12.23200
  0.3190  -12.08600
  0.3210  -11.94100
  0.3230  -11.79700
  0.3250  -11.65400
  0.3270  -11.51000
  0.3290  -11.36800
  0.3310  -11.22600
  0.3330  -11.08400
  0.3350  -10.94300
  0.3370  -10.80300
  0.3390  -10.66300
  0.3410  -10.52300
  0.3430  -10.38300
  0.3450  -10.24500
  0.3470  -10.10600
  0.3490   -9.96800
  0.3510   -9.83100
  0.3530   -9.69300
  0.3550   -9.55600
  0.3570   -9.42000
  0.3590   -9.28300
  0.3610   -9.14700
  0.3630   -9.01100
  0.3650   -8.87600
  0.3670   -8.74100
  0.3690   -8.60600
  0.3710   -8.47100
  0.3730   -8.33600
  0.3750   -8.20200
  0.3770   -8.06800
  0.3790   -7.93500
  0.3810   -7.80200
  0.3830   -7.66900
  0.3850   -7.53700
  0.3870   -7.40500
  0.3890   -7.27300
  0.3910   -7.14200
  0.3930   -7.01100
  0.3950   -6.88100
  0.3970   -6.75200
  0.3990   -6.62400
  0.4010   -6.49500
  0.4030   -6.36700
  0.4050   -6.24100
  0.4070   -6.11500
  0.4090   -5.99000
  0.4110   -5.86600
  0.4130   -5.74300
  0.4150   -5.62000
  0.4170   -5.49900
  0.4190   -5.38000
  0.4210   -5.26100
  0.4230   -5.14500
  0.4250   -5.02900
  0.4270   -4.91500
  0.4290   -4.80200
  0.4310   -4.69100
  0.4330   -4.58300
  0.4350   -4.47600
  0.4370   -4.37000
  0.4390   -4.26700
  0.4410   -4.16600
  0.4430   -4.06600
  0.4450   -3.96900
  0.4470   -3.87300
  0.4490   -3.78000
  0.4510   -3.69000
  0.4530   -3.60200
  0.4550   -3.51600
  0.4570   -3.43300
  0.4590   -3.35100
  0.4610   -3.27300
  0.4630   -3.19700
  0.4650   -3.12300
  0.4670   -3.05300
  0.4690   -2.98500
  0.4710   -2.91900
  0.4730   -2.85600
  0.4750   -2.79500
  0.4770   -2.73700
  0.4790   -2.68200
  0.4810   -2.62900
  0.4830   -2.57900
  0.4850   -2.53200
  0.4870   -2.48700
  0.4890   -2.44500
  0.4910   -2.40500
  0.4930   -2.36700
  0.4950   -2.33200
  0.4970   -2.29900
  0.4990   -2.26900
  0.5010   -2.24000
  0.5030   -2.21400
  0.5050   -2.19000
  0.5070   -2.16800
  0.5090   -2.14800
  0.5110   -2.13000
  0.5130   -2.11400
  0.5150   -2.09900
  0.5170   -2.08700
  0.5190   -2.07500
  0.5210   -2.06600
  0.5230   -2.05700
  0.5250   -2.05000
  0.5270   -2.04400
  0.5290   -2.03900
  0.5310   -2.03500
  0.5330   -2.03200
  0.5350   -2.03000
  0.5370   -2.02900
  0.5390   -2.02800
  0.5410   -2.02800
  0.5430   -2.02900
  0.5450   -2.03000
  0.5470   -2.03100
  0.5490   -2.03200
  0.5510   -2.03400
  0.5530   -2.03600
  0.5550   -2.03800
  0.5570   -2.04000
  0.5590   -2.04100
  0.5610   -2.04300
  0.5630   -2.04400
  0.5650   -2.04600
  0.5670   -2.04700
  0.5690   -2.04700
  0.5710   -2.04700
  0.5730   -2.04700
  0.5750   -2.04700
  0.5770   -2.04600
  0.5790   -2.04400
  0.5810   -2.04200
  0.5830   -2.04000
  0.5850   -2.03600
  0.5870   -2.03300
  0.5890   -2.02800
  0.5910   -2.02300
  0.5930   -2.01800
  0.5950   -2.01100
  0.5970   -2.00500
  0.5990   -1.99700
  0.6010   -1.98900
  0.6030   -1.98000
  0.6050   -1.97100
  0.6070   -1.96200
  0.6090   -1.95100
  0.6110   -1.94000
  0.6130   -1.92900
  0.6150   -1.91700
  0.6170   -1.90400
  0.6190   -1.89100
  0.6210   -1.87800
  0.6230   -1.86400
  0.6250   -1.85000
  0.6270   -1.83500
  0.6290   -1.81900
  0.6310   -1.80400
  0.6330   -1.78700
  0.6350   -1.77100
  0.6370   -1.75500
  0.6390   -1.73800
  0.6410   -1.72000
  0.6430   -1.70300
  0.6450   -1.68500
  0.6470   -1.66700
  0.6490   -1.64900
  0.6510   -1.63100
  0.6530   -1.61300
  0.6550   -1.59500
  0.6570   -1.57600
  0.6590   -1.55800
  0.6610   -1.53900
  0.6630   -1.52100
  0.6650   -1.50200
  0.6670   -1.48300
  0.6690   -1.46400
  0.6710   -1.44500
  0.6730   -1.42600
  0.6750   -1.40700
  0.6770   -1.38900
  0.6790   -1.37000
  0.6810   -1.35100
  0.6830   -1.33200
  0.6850   -1.31300
  0.6870   -1.29500
  0.6890   -1.27600
  0.6910   -1.25700
  0.6930   -1.23900
  0.6950   -1.22100
  0.6970   -1.20200
  0.6990   -1.18400
  0.7010   -1.16600
  0.7030   -1.14800
  0.7050   -1.13000
  0.7070   -1.11200
  0.7090   -1.09400
  0.7110   -1.07700
  0.7130   -1.05900
  0.7150   -1.04200
  0.7170   -1.02500
  0.7190   -1.00700
  0.7210   -0.99000
  0.7230   -0.97300
  0.7250   -0.95600
  0.7270   -0.94000
  0.7290   -0.92300
  0.7310   -0.90700
  0.7330   -0.89100
  0.7350   -0.87500
  0.7370   -0.85900
  0.7390   -0.84400
  0.7410   -0.82800
  0.7430   -0.81300
  0.7450   -0.79800
  0.7470   -0.78300
  0.7490   -0.76900
  0.7510   -0.75400
  0.7530   -0.74000
  0.7550   -0.72600
  0.7570   -0.71200
  0.7590   -0.69800
  0.7610   -0.68500
  0.7630   -0.67200
  0.7650   -0.65900
  0.7670   -0.64600
  0.7690   -0.63300
  0.7710   -0.62100
  0.7730   -0.60900
  0.7750   -0.59700
  0.7770   -0.58500
  0.7790   -0.57300
  0.7810   -0.56200
  0.7830   -0.55100
  0.7850   -0.54000
  0.7870   -0.52900
  0.7890   -0.51900
  0.7910   -0.50900
  0.7930   -0.49900
  0.7950   -0.49000
  0.7970   -0.48100
  0.7990   -0.47200
  0.8010   -0.46300
  0.8030   -0.45500
  0.8050   -0.44700
  0.8070   -0.43900
  0.8090   -0.43200
  0.8110   -0.42500
  0.8130   -0.41800
  0.8150   -0.41200
  0.8170   -0.40600
  0.8190   -0.40000
  0.8210   -0.39500
  0.8230   -0.39000
  0.8250   -0.38500
  0.8270   -0.38000
  0.8290   -0.37600
  0.8310   -0.37200
  0.8330   -0.36900
  0.8350   -0.36500
  0.8370   -0.36300
  0.8390   -0.36000
  0.8410   -0.35800
  0.8430   -0.35600
  0.8450   -0.35500
  0.8470   -0.35400
  0.8490   -0.35300
  0.8510   -0.35200
  0.8530   -0.35200
  0.8550   -0.35200
  0.8570   -0.35200
  0.8590   -0.35200
  0.8610   -0.35300
  0.8630   -0.35400
  0.8650   -0.35500
  0.8670   -0.35600
  0.8690   -0.35800
  0.8710   -0.35900
  0.8730   -0.36100
  0.8750   -0.36300
  0.8770   -0.36500
  0.8790   -0.36800
  0.8810   -0.37000
  0.8830   -0.37200
  0.8850   -0.37500
  0.8870   -0.37700
  0.8890   -0.38000
  0.8910   -0.38200
  0.8930   -0.38500
  0.8950   -0.38700
  0.8970   -0.39000
  0.8990   -0.39200
  0.9010   -0.39500
  0.9030   -0.39700
  0.9050   -0.39900
  0.9070   -0.40100
  0.9090   -0.40300
  0.9110   -0.40500
  0.9130   -0.40700
  0.9150   -0.40800
  0.9170   -0.41000
  0.9190   -0.41100
  0.9210   -0.41200
  0.9230   -0.41300
  0.9250   -0.41400
  0.9270   -0.41400
  0.9290   -0.41400
  0.9310   -0.41400
  0.9330   -0.41400
  0.9350   -0.41400
  0.9370   -0.41300
  0.9390   -0.41200
  0.9410   -0.41100
  0.9430   -0.40900
  0.9450   -0.40800
  0.9470   -0.40600
  0.9490   -0.40400
  0.9510   -0.40200
  0.9530   -0.40000
  0.9550   -0.39700
  0.9570   -0.39400
  0.9590   -0.39100
  0.9610   -0.38800
  0.9630   -0.38400
  0.9650   -0.38100
  0.9670   -0.37700
  0.9690   -0.37300
  0.9710   -0.36900
  0.9730   -0.36400
  0.9750   -0.36000
  0.9770   -0.35600
  0.9790   -0.35200
  0.9810   -0.34700
  0.9830   -0.34300
  0.9850   -0.33800
  0.9870   -0.33300
  0.9890   -0.32800
  0.9910   -0.32300
  0.9930   -0.31800
  0.9950   -0.31400
  0.9970   -0.30900
  0.9990   -0.30300
  1.0010   -0.29800
  1.0030   -0.29300
  1.0050   -0.28800
  1.0070   -0.28300
  1.0090   -0.27800
  1.0110   -0.27300
  1.0130   -0.26800
  1.0150   -0.26300
  1.0170   -0.25800
  1.0190   -0.25300
  1.0210   -0.24800
  1.0230   -0.24300
  1.0250   -0.23800
  1.0270   -0.23300
  1.0290   -0.22800
  1.0310   -0.22300
  1.0330   -0.21800
  1.0350   -0.21400
  1.0370   -0.20900
  1.0390   -0.20400
  1.0410   -0.19900
  1.0430   -0.19500
  1.0450   -0.19000
  1.0470   -0.18500
  1.0490   -0.18100
  1.0510   -0.17600
  1.0530   -0.17100
  1.0550   -0.16700
  1.0570   -0.16200
  1.0590   -0.15800
  1.0610   -0.15300
  1.0630   -0.14800
  1.0650   -0.14400
  1.0670   -0.14000
  1.0690   -0.13500
  1.0710   -0.13100
  1.0730   -0.12700
  1.0750   -0.12300
  1.0770   -0.11900
  1.0790   -0.11500
  1.0810   -0.11100
  1.0830   -0.10700
  1.0850   -0.10300
  1.0870   -0.10000
  1.0890   -0.09600
  1.0910   -0.09300
  1.0930   -0.08900
  1.0950   -0.08600
  1.0970   -0.08300
  1.0990   -0.08000
  1.1010   -0.07700
  1.1030   -0.07400
  1.1050   -0.07200
  1.1070   -0.06900
  1.1090   -0.06600
  1.1110   -0.06400
  1.1130   -0.06100
  1.1150   -0.05900
  1.1170   -0.05700
  1.1190   -0.05500
  1.1210   -0.05300
  1.1230   -0.05100
  1.1250   -0.04900
  1.1270   -0.04700
  1.1290   -0.04600
  1.1310   -0.04400
  1.1330   -0.04200
  1.1350   -0.04100
  1.1370   -0.04000
  1.1390   -0.03800
  1.1410   -0.03700
  1.1430   -0.03600
  1.1450   -0.03500
  1.1470   -0.03300
  1.1490   -0.03300
  1.1510   -0.03200
  1.1530   -0.03100
  1.1550   -0.03000
  1.1570   -0.02900
  1.1590   -0.02800
  1.1610   -0.02800
  1.1630   -0.02700
  1.1650   -0.02700
  1.1670   -0.02600
  1.1690   -0.02500
  1.1710   -0.02500
  1.1730   -0.02500
  1.1750   -0.02400
  1.1770   -0.02400
  1.1790   -0.02400
  1.1810   -0.02400
  1.1830   -0.02300
  1.1850   -0.02300
  1.1870   -0.02300
  1.1890   -0.02300
  1.1910   -0.02300
  1.1930   -0.02300
  1.1950   -0.02300
  1.1970   -0.02300
  1.1990   -0.02300
  1.2010   -0.02300
  1.2030   -0.02300
  1.2050   -0.02300
  1.2070   -0.02300
  1.2090   -0.02300
  1.2110   -0.02300
  1.2130   -0.02300
  1.2150   -0.02300
  1.2170   -0.02400
  1.2190   -0.02400
  1.2210   -0.02400
  1.2230   -0.02400
  1.2250   -0.02400
  1.2270   -0.02400
  1.2290   -0.02400
  1.2310   -0.02400
  1.2330   -0.02400
  1.2350   -0.02400
  1.2370   -0.02400
  1.2390   -0.02400
  1.2410   -0.02400
  1.2430   -0.02400
  1.2450   -0.02400
  1.2470   -0.02400
  1.2490   -0.02400
  1.2510   -0.02400
  1.2530   -0.02400
  1.2550   -0.02400
  1.2570   -0.02300
  1.2590   -0.02300
  1.2610   -0.02300
  1.2630   -0.02300
  1.2650   -0.02200
  1.2670   -0.02200
  1.2690   -0.02200
  1.2710   -0.02100
  1.2730   -0.02100
  1.2750   -0.02000
  1.2770   -0.01900
  1.2790   -0.01900
  1.2810   -0.01800
  1.2830   -0.01800
  1.2850   -0.01700
  1.2870   -0.01600
  1.2890   -0.01500
  1.2910   -0.01500
  1.2930   -0.01400
  1.2950   -0.01300
  1.2970   -0.01200
  1.2990   -0.01100
  1.3010   -0.01000
  1.3030   -0.00900
  1.3050   -0.00800
  1.3070   -0.00700
  1.3090   -0.00600
  1.3110   -0.00500
  1.3130   -0.00400
  1.3150   -0.00300
  1.3170   -0.00100
  1.3190    0.00000
  1.3210    0.00100
  1.3230    0.00200
  1.3250    0.00300
  1.3270    0.00500
  1.3290    0.00600
  1.3310    0.00700
  1.3330    0.00900
  1.3350    0.01000
  1.3370    0.01200
  1.3390    0.01300
  1.3410    0.01500
  1.3430    0.01600
  1.3450    0.01800
  1.3470    0.01900
  1.3490    0.02100
  1.3510    0.02300
  1.3530    0.02400
  1.3550    0.02600
  1.3570    0.02700
  1.3590    0.02900
  1.3610    0.03100
  1.3630    0.03300
  1.3650    0.03400
  1.3670    0.03600
  1.3690    0.03700
  1.3710    0.03900
  1.3730    0.04000
  1.3750    0.04200
  1.3770    0.04300
  1.3790    0.04500
  1.3810    0.04600
  1.3830    0.04700
  1.3850    0.04900
  1.3870    0.05000
  1.3890    0.05000
  1.3910    0.05100
  1.3930    0.05200
  1.3950    0.05200
  1.3970    0.05100
  1.3990    0.05100
