# z (nm)   (kJ/mol)
  0.0680  275.87144
  0.0700  273.46079
  0.0720  271.07338
  0.0740  268.47488
  0.0760  265.76486
  0.0780  263.21554
  0.0800  260.60243
  0.0820  257.88721
  0.0840  255.18378
  0.0860  252.38913
  0.0880  249.51369
  0.0900  246.53880
  0.0920  243.45383
  0.0940  240.24667
  0.0960  236.92114
  0.0980  233.46654
  0.1000  229.88564
  0.1020  226.17137
  0.1040  222.32776
  0.1060  218.35344
  0.1080  214.25504
  0.1100  210.04803
  0.1120  205.75493
  0.1140  201.39951
  0.1160  197.01332
  0.1180  192.61654
  0.1200  188.21482
  0.1220  183.82933
  0.1240  179.44775
  0.1260  175.07708
  0.1280  170.72137
  0.1300  166.39087
  0.1320  162.11468
  0.1340  157.92172
  0.1360  153.83535
  0.1380  149.88559
  0.1400  146.07821
  0.1420  142.41248
  0.1440  138.86874
  0.1460  135.43558
  0.1480  132.08203
  0.1500  128.78874
  0.1520  125.53982
  0.1540  122.31705
  0.1560  119.11959
  0.1580  115.94240
  0.1600  112.77315
  0.1620  109.61234
  0.1640  106.45313
  0.1660  103.29052
  0.1680  100.13146
  0.1700   96.98699
  0.1720   93.87387
  0.1740   90.81420
  0.1760   87.83140
  0.1780   84.94568
  0.1800   82.16440
  0.1820   79.47704
  0.1840   76.86467
  0.1860   74.30894
  0.1880   71.77909
  0.1900   69.25463
  0.1920   66.73151
  0.1940   64.20287
  0.1960   61.68164
  0.1980   59.17866
  0.2000   56.71760
  0.2020   54.31187
  0.2040   51.98058
  0.2060   49.72734
  0.2080   47.54963
  0.2100   45.44418
  0.2120   43.39387
  0.2140   41.39261
  0.2160   39.41857
  0.2180   37.47403
  0.2200   35.55295
  0.2220   33.66380
  0.2240   31.80409
  0.2260   29.98590
  0.2280   28.21314
  0.2300   26.49145
  0.2320   24.82613
  0.2340   23.21523
  0.2360   21.65685
  0.2380   20.15940
  0.2400   18.71558
  0.2420   17.32715
  0.2440   15.98352
  0.2460   14.68468
  0.2480   13.41169
  0.2500   12.15421
  0.2520   10.92140
  0.2540    9.70478
  0.2560    8.51889
  0.2580    7.36124
  0.2600    6.24771
  0.2620    5.18526
  0.2640    4.16791
  0.2660    3.20081
  0.2680    2.28541
  0.2700    1.40841
  0.2720    0.57183
  0.2740   -0.23857
  0.2760   -1.03201
  0.2780   -1.79954
  0.2800   -2.53330
  0.2820   -3.24138
  0.2840   -3.90856
  0.2860   -4.53278
  0.2880   -5.12087
  0.2900   -5.67183
  0.2920   -6.18594
  0.2940   -6.67219
  0.2960   -7.13851
  0.2980   -7.58810
  0.3000   -8.02179
  0.3020   -8.44379
  0.3040   -8.85064
  0.3060   -9.23373
  0.3080   -9.59566
  0.3100   -9.92828
  0.3120  -10.22375
  0.3140  -10.48388
  0.3160  -10.70402
  0.3180  -10.89110
  0.3200  -11.04502
  0.3220  -11.17317
  0.3240  -11.29126
  0.3260  -11.38913
  0.3280  -11.47985
  0.3300  -11.55772
  0.3320  -11.62977
  0.3340  -11.67966
  0.3360  -11.71875
  0.3380  -11.74169
  0.3400  -11.74313
  0.3420  -11.73056
  0.3440  -11.70076
  0.3460  -11.65714
  0.3480  -11.59488
  0.3500  -11.51535
  0.3520  -11.41950
  0.3540  -11.31261
  0.3560  -11.19721
  0.3580  -11.07225
  0.3600  -10.94193
  0.3620  -10.81457
  0.3640  -10.69177
  0.3660  -10.57064
  0.3680  -10.45678
  0.3700  -10.33882
  0.3720  -10.23277
  0.3740  -10.11803
  0.3760   -9.99428
  0.3780   -9.86225
  0.3800   -9.71745
  0.3820   -9.55548
  0.3840   -9.39550
  0.3860   -9.22232
  0.3880   -9.04457
  0.3900   -8.86386
  0.3920   -8.68398
  0.3940   -8.50980
  0.3960   -8.33284
  0.3980   -8.16433
  0.4000   -8.00590
  0.4020   -7.85507
  0.4040   -7.70793
  0.4060   -7.55994
  0.4080   -7.42463
  0.4100   -7.29896
  0.4120   -7.17735
  0.4140   -7.05930
  0.4160   -6.93990
  0.4180   -6.82069
  0.4200   -6.70042
  0.4220   -6.57159
  0.4240   -6.43987
  0.4260   -6.30550
  0.4280   -6.17576
  0.4300   -6.04867
  0.4320   -5.93460
  0.4340   -5.82422
  0.4360   -5.72345
  0.4380   -5.63040
  0.4400   -5.54485
  0.4420   -5.45968
  0.4440   -5.37454
  0.4460   -5.28534
  0.4480   -5.19824
  0.4500   -5.10459
  0.4520   -5.00718
  0.4540   -4.91788
  0.4560   -4.83559
  0.4580   -4.76286
  0.4600   -4.69963
  0.4620   -4.64341
  0.4640   -4.60647
  0.4660   -4.57787
  0.4680   -4.56088
  0.4700   -4.53999
  0.4720   -4.52180
  0.4740   -4.51093
  0.4760   -4.48975
  0.4780   -4.46530
  0.4800   -4.43779
  0.4820   -4.40519
  0.4840   -4.37063
  0.4860   -4.34089
  0.4880   -4.31700
  0.4900   -4.29633
  0.4920   -4.27500
  0.4940   -4.25581
  0.4960   -4.22870
  0.4980   -4.19408
  0.5000   -4.15642
  0.5020   -4.10388
  0.5040   -4.04398
  0.5060   -3.97322
  0.5080   -3.89189
  0.5100   -3.80956
  0.5120   -3.71795
  0.5140   -3.62107
  0.5160   -3.52122
  0.5180   -3.42045
  0.5200   -3.30674
  0.5220   -3.18770
  0.5240   -3.06365
  0.5260   -2.93299
  0.5280   -2.80363
  0.5300   -2.67058
  0.5320   -2.52958
  0.5340   -2.38734
  0.5360   -2.23482
  0.5380   -2.09038
  0.5400   -1.93961
  0.5420   -1.78431
  0.5440   -1.63152
  0.5460   -1.46933
  0.5480   -1.30588
  0.5500   -1.14473
  0.5520   -0.98159
  0.5540   -0.82217
  0.5560   -0.67061
  0.5580   -0.52560
  0.5600   -0.38687
  0.5620   -0.25669
  0.5640   -0.14021
  0.5660   -0.02655
  0.5680    0.07954
  0.5700    0.18573
  0.5720    0.28415
  0.5740    0.37894
  0.5760    0.47174
  0.5780    0.55191
  0.5800    0.63291
  0.5820    0.71161
  0.5840    0.77383
  0.5860    0.83866
  0.5880    0.89379
  0.5900    0.95595
  0.5920    1.01295
  0.5940    1.06561
  0.5960    1.12002
  0.5980    1.16804
  0.6000    1.21241
  0.6020    1.25125
  0.6040    1.27242
  0.6060    1.28808
  0.6080    1.28533
  0.6100    1.27086
  0.6120    1.23777
  0.6140    1.19398
  0.6160    1.14961
  0.6180    1.09715
  0.6200    1.04415
  0.6220    0.99535
  0.6240    0.94446
  0.6260    0.88807
  0.6280    0.84273
  0.6300    0.79983
  0.6320    0.75466
  0.6340    0.71846
  0.6360    0.68568
  0.6380    0.65870
  0.6400    0.63693
  0.6420    0.61051
  0.6440    0.58355
  0.6460    0.55162
  0.6480    0.52238
  0.6500    0.48585
  0.6520    0.45350
  0.6540    0.41022
  0.6560    0.36259
  0.6580    0.31030
  0.6600    0.25605
  0.6620    0.20272
  0.6640    0.15982
  0.6660    0.12516
  0.6680    0.09798
  0.6700    0.08064
  0.6720    0.08053
  0.6740    0.08620
  0.6760    0.10108
  0.6780    0.11234
  0.6800    0.12150
  0.6820    0.12382
  0.6840    0.11801
  0.6860    0.10822
  0.6880    0.09174
  0.6900    0.07139
  0.6920    0.05170
  0.6940    0.03133
  0.6960    0.01846
  0.6980    0.01316
  0.7000    0.01646
  0.7020    0.02725
  0.7040    0.03781
  0.7060    0.04721
  0.7080    0.05284
  0.7100    0.04554
  0.7120    0.03483
  0.7140    0.01321
  0.7160   -0.00898
  0.7180   -0.03467
  0.7200   -0.06252
  0.7220   -0.08328
  0.7240   -0.08839
  0.7260   -0.08710
  0.7280   -0.08254
  0.7300   -0.06216
  0.7320   -0.03657
  0.7340   -0.01238
  0.7360    0.01833
  0.7380    0.04473
  0.7400    0.06785
  0.7420    0.08717
  0.7440    0.09802
  0.7460    0.09531
  0.7480    0.07672
  0.7500    0.05767
  0.7520    0.03078
  0.7540   -0.00122
  0.7560   -0.03354
  0.7580   -0.07053
  0.7600   -0.10359
  0.7620   -0.13571
  0.7640   -0.16469
  0.7660   -0.18113
  0.7680   -0.19761
  0.7700   -0.20191
  0.7720   -0.20454
  0.7740   -0.19442
  0.7760   -0.18245
  0.7780   -0.16599
  0.7800   -0.14446
  0.7820   -0.12677
  0.7840   -0.11003
  0.7860   -0.10927
  0.7880   -0.11372
  0.7900   -0.12894
  0.7920   -0.14506
  0.7940   -0.16856
  0.7960   -0.19782
  0.7980   -0.22401
  0.8000   -0.24431
  0.8020   -0.26262
  0.8040   -0.27390
  0.8060   -0.26995
  0.8080   -0.26112
  0.8100   -0.23830
  0.8120   -0.20382
  0.8140   -0.17085
  0.8160   -0.13796
  0.8180   -0.10590
  0.8200   -0.07808
  0.8220   -0.05303
  0.8240   -0.03733
  0.8260   -0.02836
  0.8280   -0.02628
  0.8300   -0.03501
  0.8320   -0.04477
  0.8340   -0.05914
  0.8360   -0.06496
  0.8380   -0.06061
  0.8400   -0.05417
  0.8420   -0.03701
  0.8440   -0.01219
  0.8460    0.01860
  0.8480    0.05285
  0.8500    0.09641
  0.8520    0.13215
  0.8540    0.16849
  0.8560    0.19508
  0.8580    0.21295
  0.8600    0.22182
  0.8620    0.22740
  0.8640    0.22685
  0.8660    0.21977
  0.8680    0.20975
  0.8700    0.19800
  0.8720    0.18942
  0.8740    0.18007
  0.8760    0.16933
  0.8780    0.16281
  0.8800    0.16078
  0.8820    0.16151
  0.8840    0.16415
  0.8860    0.16943
  0.8880    0.18146
  0.8900    0.20332
  0.8920    0.22917
  0.8940    0.25480
  0.8960    0.28506
  0.8980    0.31368
  0.9000    0.33796
  0.9020    0.35664
  0.9040    0.35840
  0.9060    0.35113
  0.9080    0.33761
  0.9100    0.31706
  0.9120    0.27736
  0.9140    0.24014
  0.9160    0.20291
  0.9180    0.16974
  0.9200    0.15016
  0.9220    0.12321
  0.9240    0.11079
  0.9260    0.11342
  0.9280    0.12267
  0.9300    0.13110
  0.9320    0.14804
  0.9340    0.16730
  0.9360    0.18977
  0.9380    0.19199
  0.9400    0.19122
  0.9420    0.17926
  0.9440    0.16312
  0.9460    0.13637
  0.9480    0.10168
  0.9500    0.06971
  0.9520    0.03162
  0.9540   -0.00675
  0.9560   -0.04354
  0.9580   -0.07672
  0.9600   -0.10804
  0.9620   -0.13166
  0.9640   -0.15117
  0.9660   -0.16045
  0.9680   -0.16853
  0.9700   -0.17186
  0.9720   -0.17342
  0.9740   -0.17682
  0.9760   -0.17932
  0.9780   -0.18592
  0.9800   -0.19728
  0.9820   -0.20978
  0.9840   -0.22648
  0.9860   -0.24611
  0.9880   -0.27028
  0.9900   -0.29332
  0.9920   -0.32049
  0.9940   -0.34326
  0.9960   -0.35597
  0.9980   -0.36608
  1.0000   -0.36916
