# z (nm)   (kJ/mol)
  0.235000, 17.412300
  0.243000, 16.871100
  0.245000, 16.531900
  0.249000, 15.956200
  0.251000, 15.587300
  0.253000, 15.212200
  0.255000, 14.852900
  0.257000, 14.505900
  0.259000, 14.165400
  0.261000, 13.832000
  0.263000, 13.468100
  0.265000, 13.076600
  0.267000, 12.680000
  0.269000, 12.285200
  0.271000, 11.888300
  0.273000, 11.485700
  0.275000, 11.078800
  0.277000, 10.667800
  0.279000, 10.258900
  0.281000,  9.843100
  0.283000,  9.420800
  0.285000,  9.002800
  0.287000,  8.585700
  0.289000,  8.169700
  0.291000,  7.751900
  0.293000,  7.335700
  0.295000,  6.926600
  0.297000,  6.517200
  0.299000,  6.106300
  0.301000,  5.705200
  0.303000,  5.306700
  0.305000,  4.908900
  0.307000,  4.520000
  0.309000,  4.143300
  0.311000,  3.774800
  0.313000,  3.409600
  0.315000,  3.049100
  0.317000,  2.692700
  0.319000,  2.342200
  0.321000,  2.003000
  0.323000,  1.675900
  0.325000,  1.353700
  0.327000,  1.039600
  0.329000,  0.734300
  0.331000,  0.435600
  0.333000,  0.144700
  0.335000, -0.138800
  0.337000, -0.416200
  0.339000, -0.684700
  0.341000, -0.945000
  0.343000, -1.198200
  0.345000, -1.441500
  0.347000, -1.677300
  0.349000, -1.908300
  0.351000, -2.132600
  0.353000, -2.348700
  0.355000, -2.558100
  0.357000, -2.760900
  0.359000, -2.956400
  0.361000, -3.144300
  0.363000, -3.325100
  0.365000, -3.499600
  0.367000, -3.668100
  0.369000, -3.830400
  0.371000, -3.986500
  0.373000, -4.136000
  0.375000, -4.279200
  0.377000, -4.416200
  0.379000, -4.548200
  0.381000, -4.675100
  0.383000, -4.795600
  0.385000, -4.911300
  0.387000, -5.022500
  0.389000, -5.129100
  0.391000, -5.231800
  0.393000, -5.330300
  0.395000, -5.425000
  0.397000, -5.515900
  0.399000, -5.602700
  0.401000, -5.684900
  0.403000, -5.764000
  0.405000, -5.840900
  0.407000, -5.914200
  0.409000, -5.984100
  0.411000, -6.050400
  0.413000, -6.113400
  0.415000, -6.173800
  0.417000, -6.231500
  0.419000, -6.286500
  0.421000, -6.338500
  0.423000, -6.387300
  0.425000, -6.433200
  0.427000, -6.475800
  0.429000, -6.515200
  0.431000, -6.551100
  0.433000, -6.583400
  0.435000, -6.612300
  0.437000, -6.637200
  0.439000, -6.657800
  0.441000, -6.674300
  0.443000, -6.686700
  0.445000, -6.694500
  0.447000, -6.697400
  0.449000, -6.695100
  0.451000, -6.687700
  0.453000, -6.675300
  0.455000, -6.657300
  0.457000, -6.633600
  0.459000, -6.604400
  0.461000, -6.569500
  0.463000, -6.528600
  0.465000, -6.481800
  0.467000, -6.428900
  0.469000, -6.370200
  0.471000, -6.305600
  0.473000, -6.235100
  0.475000, -6.158400
  0.477000, -6.075600
  0.479000, -5.987200
  0.481000, -5.893600
  0.483000, -5.794400
  0.485000, -5.689600
  0.487000, -5.579600
  0.489000, -5.464700
  0.491000, -5.345200
  0.493000, -5.221900
  0.495000, -5.094800
  0.497000, -4.963500
  0.499000, -4.828900
  0.501000, -4.691400
  0.503000, -4.551200
  0.505000, -4.408800
  0.507000, -4.264700
  0.509000, -4.119200
  0.511000, -3.972100
  0.513000, -3.824700
  0.515000, -3.676500
  0.517000, -3.528900
  0.519000, -3.383900
  0.521000, -3.239100
  0.523000, -3.094300
  0.525000, -2.951600
  0.527000, -2.812400
  0.529000, -2.675800
  0.531000, -2.543300
  0.533000, -2.414700
  0.535000, -2.289400
  0.537000, -2.168100
  0.539000, -2.050800
  0.541000, -1.939100
  0.543000, -1.832300
  0.545000, -1.730300
  0.547000, -1.634000
  0.549000, -1.543500
  0.551000, -1.458800
  0.553000, -1.380000
  0.555000, -1.308000
  0.557000, -1.242300
  0.559000, -1.182600
  0.561000, -1.129100
  0.563000, -1.082200
  0.565000, -1.041900
  0.567000, -1.007600
  0.569000, -0.979100
  0.571000, -0.956200
  0.573000, -0.939500
  0.575000, -0.928900
  0.577000, -0.923300
  0.579000, -0.922500
  0.581000, -0.926800
  0.583000, -0.935300
  0.585000, -0.947600
  0.587000, -0.964500
  0.589000, -0.985400
  0.591000, -1.009700
  0.593000, -1.037400
  0.595000, -1.068200
  0.597000, -1.101400
  0.599000, -1.136300
  0.601000, -1.173000
  0.603000, -1.211500
  0.605000, -1.251400
  0.607000, -1.292800
  0.609000, -1.335200
  0.611000, -1.377500
  0.613000, -1.419000
  0.615000, -1.460700
  0.617000, -1.502300
  0.619000, -1.542700
  0.621000, -1.581900
  0.623000, -1.619900
  0.625000, -1.656300
  0.627000, -1.691200
  0.629000, -1.724400
  0.631000, -1.755400
  0.633000, -1.784700
  0.635000, -1.811900
  0.637000, -1.837200
  0.639000, -1.860000
  0.641000, -1.880300
  0.643000, -1.898000
  0.645000, -1.913100
  0.647000, -1.925800
  0.649000, -1.936200
  0.651000, -1.944000
  0.653000, -1.949300
  0.655000, -1.952000
  0.657000, -1.952300
  0.659000, -1.950300
  0.661000, -1.946000
  0.663000, -1.939200
  0.665000, -1.930300
  0.667000, -1.919200
  0.669000, -1.906000
  0.671000, -1.891000
  0.673000, -1.874000
  0.675000, -1.855300
  0.677000, -1.835200
  0.679000, -1.813900
  0.681000, -1.791200
  0.683000, -1.766900
  0.685000, -1.741600
  0.687000, -1.715500
  0.689000, -1.688400
  0.691000, -1.660600
  0.693000, -1.632200
  0.695000, -1.603200
  0.697000, -1.574000
  0.699000, -1.544600
  0.701000, -1.515000
  0.703000, -1.485300
  0.705000, -1.455500
  0.707000, -1.425900
  0.709000, -1.396400
  0.711000, -1.367100
  0.713000, -1.338000
  0.715000, -1.309500
  0.717000, -1.281700
  0.719000, -1.254500
  0.721000, -1.227800
  0.723000, -1.201600
  0.725000, -1.175700
  0.727000, -1.150500
  0.729000, -1.126100
  0.731000, -1.102200
  0.733000, -1.078900
  0.735000, -1.056600
  0.737000, -1.035100
  0.739000, -1.014300
  0.741000, -0.994300
  0.743000, -0.975000
  0.745000, -0.956200
  0.747000, -0.938200
  0.749000, -0.920800
  0.751000, -0.903700
  0.753000, -0.887300
  0.755000, -0.871600
  0.757000, -0.856600
  0.759000, -0.842000
  0.761000, -0.827800
  0.763000, -0.814100
  0.765000, -0.800700
  0.767000, -0.787900
  0.769000, -0.775700
  0.771000, -0.763700
  0.773000, -0.752000
  0.775000, -0.740700
  0.777000, -0.729700
  0.779000, -0.718900
  0.781000, -0.708300
  0.783000, -0.697900
  0.785000, -0.687800
  0.787000, -0.677800
  0.789000, -0.667800
  0.791000, -0.658100
  0.793000, -0.648600
  0.795000, -0.639100
  0.797000, -0.629700
  0.799000, -0.620300
  0.801000, -0.611200
  0.803000, -0.602100
  0.805000, -0.593100
  0.807000, -0.584200
  0.809000, -0.575500
  0.811000, -0.566900
  0.813000, -0.558300
  0.815000, -0.549800
  0.817000, -0.541400
  0.819000, -0.533300
  0.821000, -0.525300
  0.823000, -0.517200
  0.825000, -0.509200
  0.827000, -0.501400
  0.829000, -0.493600
  0.831000, -0.486200
  0.833000, -0.478900
  0.835000, -0.471700
  0.837000, -0.464700
  0.839000, -0.457900
  0.841000, -0.451400
  0.843000, -0.445000
  0.845000, -0.438800
  0.847000, -0.432700
  0.849000, -0.426700
  0.851000, -0.420800
  0.853000, -0.415200
  0.855000, -0.409800
  0.857000, -0.404500
  0.859000, -0.399300
  0.861000, -0.394300
  0.863000, -0.389300
  0.865000, -0.384500
  0.867000, -0.379900
  0.869000, -0.375400
  0.871000, -0.370800
  0.873000, -0.366400
  0.875000, -0.362100
  0.877000, -0.357800
  0.879000, -0.353400
  0.881000, -0.348900
  0.883000, -0.344500
  0.885000, -0.340200
  0.887000, -0.335900
  0.889000, -0.331500
  0.891000, -0.327200
  0.893000, -0.322900
  0.895000, -0.318400
  0.897000, -0.314000
  0.899000, -0.309700
  0.901000, -0.305300
  0.903000, -0.300800
  0.905000, -0.296200
  0.907000, -0.291800
  0.909000, -0.287400
  0.911000, -0.282700
  0.913000, -0.278000
  0.915000, -0.273300
  0.917000, -0.268500
  0.919000, -0.263700
  0.921000, -0.258800
  0.923000, -0.254100
  0.925000, -0.249400
  0.927000, -0.244500
  0.929000, -0.239700
  0.931000, -0.235100
  0.933000, -0.230600
  0.935000, -0.226100
  0.937000, -0.221800
  0.939000, -0.217300
  0.941000, -0.212800
  0.943000, -0.208800
  0.945000, -0.204900
  0.947000, -0.201000
  0.949000, -0.197500
  0.951000, -0.194300
  0.953000, -0.191200
  0.955000, -0.188400
  0.957000, -0.185500
  0.959000, -0.182800
  0.961000, -0.180400
  0.963000, -0.178300
  0.965000, -0.176700
  0.967000, -0.175100
  0.969000, -0.173700
  0.971000, -0.172600
  0.973000, -0.171900
  0.975000, -0.171300
  0.977000, -0.171200
  0.979000, -0.171400
  0.981000, -0.171800
  0.983000, -0.172500
  0.985000, -0.173400
  0.987000, -0.174700
  0.989000, -0.176100
  0.991000, -0.177800
  0.993000, -0.179700
  0.995000, -0.181800
  0.997000, -0.184100
  0.999000, -0.186500
  1.001000, -0.189200
  1.003000, -0.192000
  1.005000, -0.195000
  1.007000, -0.198000
  1.009000, -0.201300
  1.011000, -0.204400
  1.013000, -0.207800
  1.015000, -0.211300
  1.017000, -0.215000
  1.019000, -0.218500
  1.021000, -0.222000
  1.023000, -0.225400
  1.025000, -0.228800
  1.027000, -0.232200
  1.029000, -0.235300
  1.031000, -0.238000
  1.033000, -0.240700
  1.035000, -0.243300
  1.037000, -0.245900
  1.039000, -0.248200
  1.041000, -0.250300
  1.043000, -0.252000
  1.045000, -0.253400
  1.047000, -0.254500
  1.049000, -0.255400
  1.051000, -0.256200
  1.053000, -0.256700
  1.055000, -0.256700
  1.057000, -0.256200
  1.059000, -0.255400
  1.061000, -0.254400
  1.063000, -0.253000
  1.065000, -0.251400
  1.067000, -0.249500
  1.069000, -0.247100
  1.071000, -0.244400
  1.073000, -0.241500
  1.075000, -0.238300
  1.077000, -0.234700
  1.079000, -0.230900
  1.081000, -0.227000
  1.083000, -0.222700
  1.085000, -0.218100
  1.087000, -0.213400
  1.089000, -0.208300
  1.091000, -0.203100
  1.093000, -0.197700
  1.095000, -0.192200
  1.097000, -0.186500
  1.099000, -0.180800
  1.101000, -0.175000
  1.103000, -0.169100
  1.105000, -0.163100
  1.107000, -0.157100
  1.109000, -0.151100
  1.111000, -0.144800
  1.113000, -0.138500
  1.115000, -0.132300
  1.117000, -0.126200
  1.119000, -0.120300
  1.121000, -0.114400
  1.123000, -0.108500
  1.125000, -0.102700
  1.127000, -0.097100
  1.129000, -0.091400
  1.131000, -0.085900
  1.133000, -0.080500
  1.135000, -0.075200
  1.137000, -0.070000
  1.139000, -0.064800
  1.141000, -0.060000
  1.143000, -0.055300
  1.145000, -0.050600
  1.147000, -0.046100
  1.149000, -0.041700
  1.151000, -0.037600
  1.153000, -0.033500
  1.155000, -0.029600
  1.157000, -0.025800
  1.159000, -0.022100
  1.161000, -0.018500
  1.163000, -0.015000
  1.165000, -0.011700
  1.167000, -0.008500
  1.169000, -0.005600
  1.171000, -0.002800
  1.173000,  0.000000
  1.175000,  0.002700
  1.177000,  0.005200
  1.179000,  0.007600
  1.181000,  0.010000
  1.183000,  0.012100
  1.185000,  0.014300
  1.187000,  0.016300
  1.189000,  0.018200
  1.191000,  0.020000
  1.193000,  0.021700
  1.195000,  0.023300
  1.197000,  0.024800
  1.199000,  0.026300
  1.201000,  0.027500
  1.203000,  0.028700
  1.205000,  0.029700
  1.207000,  0.030700
  1.209000,  0.031600
  1.211000,  0.032400
  1.213000,  0.033100
  1.215000,  0.033700
  1.217000,  0.034200
  1.219000,  0.034600
  1.221000,  0.034800
  1.223000,  0.035000
  1.225000,  0.035000
  1.227000,  0.035000
  1.229000,  0.034900
  1.231000,  0.034600
  1.233000,  0.034200
  1.235000,  0.033800
  1.237000,  0.033300
  1.239000,  0.032500
  1.241000,  0.031700
  1.243000,  0.030800
  1.245000,  0.029900
  1.247000,  0.028700
  1.249000,  0.027400
  1.251000,  0.026000
  1.253000,  0.024500
  1.255000,  0.023000
  1.257000,  0.021500
  1.259000,  0.019700
  1.261000,  0.017900
  1.263000,  0.015900
  1.265000,  0.013800
  1.267000,  0.011700
  1.269000,  0.009600
  1.271000,  0.007400
  1.273000,  0.005100
  1.275000,  0.002800
  1.277000,  0.000500
  1.279000, -0.001800
  1.281000, -0.004200
  1.283000, -0.006800
  1.285000, -0.009300
  1.287000, -0.011700
  1.289000, -0.014200
  1.291000, -0.016600
  1.293000, -0.019200
  1.295000, -0.021700
  1.297000, -0.024200
  1.299000, -0.026400
  1.301000, -0.028500
  1.303000, -0.030700
  1.305000, -0.032900
  1.307000, -0.034900
  1.309000, -0.036800
  1.311000, -0.038700
  1.313000, -0.040300
  1.315000, -0.041800
  1.317000, -0.043200
  1.319000, -0.044400
  1.321000, -0.045300
  1.323000, -0.046100
  1.325000, -0.046700
  1.327000, -0.047100
  1.329000, -0.047200
  1.331000, -0.047100
  1.333000, -0.046800
  1.335000, -0.046200
  1.337000, -0.045300
  1.339000, -0.044300
  1.341000, -0.043000
  1.343000, -0.041600
  1.345000, -0.039900
  1.347000, -0.038000
  1.349000, -0.035800
  1.351000, -0.033300
  1.353000, -0.030700
  1.355000, -0.028000
  1.357000, -0.025200
  1.359000, -0.022100
  1.361000, -0.018800
  1.363000, -0.015400
  1.365000, -0.011900
  1.367000, -0.008100
  1.369000, -0.004200
  1.371000, -0.000200
  1.373000,  0.003700
  1.375000,  0.007600
  1.377000,  0.011700
  1.379000,  0.015700
  1.381000,  0.019700
  1.383000,  0.023600
  1.385000,  0.027400
  1.387000,  0.031000
  1.389000,  0.034400
  1.391000,  0.037600
  1.393000,  0.040600
  1.395000,  0.043500
  1.397000,  0.045800
  1.399000,  0.047300
