# z (nm)   (kJ/mol)
  0.267000, 19.464500
  0.273000, 19.060800
  0.275000, 18.855500
  0.277000, 18.650700
  0.279000, 18.429900
  0.281000, 18.179500
  0.283000, 17.938500
  0.285000, 17.713800
  0.287000, 17.474900
  0.289000, 17.209200
  0.291000, 16.933900
  0.293000, 16.650700
  0.295000, 16.357200
  0.297000, 16.057200
  0.299000, 15.754600
  0.301000, 15.459800
  0.303000, 15.157700
  0.305000, 14.842900
  0.307000, 14.522400
  0.309000, 14.188800
  0.311000, 13.847800
  0.313000, 13.506000
  0.315000, 13.156400
  0.317000, 12.799700
  0.319000, 12.445300
  0.321000, 12.087100
  0.323000, 11.719700
  0.325000, 11.355600
  0.327000, 10.987100
  0.329000, 10.605300
  0.331000, 10.224300
  0.333000,  9.845100
  0.335000,  9.460500
  0.337000,  9.073600
  0.339000,  8.682000
  0.341000,  8.287200
  0.343000,  7.895300
  0.345000,  7.505100
  0.347000,  7.109300
  0.349000,  6.709000
  0.351000,  6.308300
  0.353000,  5.908000
  0.355000,  5.509600
  0.357000,  5.107300
  0.359000,  4.706500
  0.361000,  4.309600
  0.363000,  3.916000
  0.365000,  3.524000
  0.367000,  3.129100
  0.369000,  2.738600
  0.371000,  2.351800
  0.373000,  1.967700
  0.375000,  1.586400
  0.377000,  1.210000
  0.379000,  0.837800
  0.381000,  0.470200
  0.383000,  0.111000
  0.385000, -0.242400
  0.387000, -0.591900
  0.389000, -0.935100
  0.391000, -1.270200
  0.393000, -1.596500
  0.395000, -1.914400
  0.397000, -2.225200
  0.399000, -2.526200
  0.401000, -2.816000
  0.403000, -3.098100
  0.405000, -3.371500
  0.407000, -3.633500
  0.409000, -3.885400
  0.411000, -4.126200
  0.413000, -4.354100
  0.415000, -4.570000
  0.417000, -4.774700
  0.419000, -4.967200
  0.421000, -5.147800
  0.423000, -5.316200
  0.425000, -5.472200
  0.427000, -5.615500
  0.429000, -5.745100
  0.431000, -5.861200
  0.433000, -5.964000
  0.435000, -6.053900
  0.437000, -6.131000
  0.439000, -6.193700
  0.441000, -6.243800
  0.443000, -6.281900
  0.445000, -6.306500
  0.447000, -6.319100
  0.449000, -6.320000
  0.451000, -6.308100
  0.453000, -6.283700
  0.455000, -6.247800
  0.457000, -6.200900
  0.459000, -6.143700
  0.461000, -6.075900
  0.463000, -5.998200
  0.465000, -5.910500
  0.467000, -5.813600
  0.469000, -5.708400
  0.471000, -5.595500
  0.473000, -5.476200
  0.475000, -5.350000
  0.477000, -5.217700
  0.479000, -5.080500
  0.481000, -4.938100
  0.483000, -4.791100
  0.485000, -4.640700
  0.487000, -4.487000
  0.489000, -4.331600
  0.491000, -4.175800
  0.493000, -4.018200
  0.495000, -3.860100
  0.497000, -3.702400
  0.499000, -3.544700
  0.501000, -3.388100
  0.503000, -3.233500
  0.505000, -3.081400
  0.507000, -2.932000
  0.509000, -2.785100
  0.511000, -2.641700
  0.513000, -2.502500
  0.515000, -2.367700
  0.517000, -2.237400
  0.519000, -2.111700
  0.521000, -1.991400
  0.523000, -1.877000
  0.525000, -1.767800
  0.527000, -1.663800
  0.529000, -1.565900
  0.531000, -1.474000
  0.533000, -1.387800
  0.535000, -1.308300
  0.537000, -1.234500
  0.539000, -1.166200
  0.541000, -1.104600
  0.543000, -1.049800
  0.545000, -1.000600
  0.547000, -0.956700
  0.549000, -0.918400
  0.551000, -0.884500
  0.553000, -0.855800
  0.555000, -0.832800
  0.557000, -0.814500
  0.559000, -0.800600
  0.561000, -0.791100
  0.563000, -0.786300
  0.565000, -0.785300
  0.567000, -0.787300
  0.569000, -0.792100
  0.571000, -0.799500
  0.573000, -0.810300
  0.575000, -0.823600
  0.577000, -0.838700
  0.579000, -0.855700
  0.581000, -0.875000
  0.583000, -0.895300
  0.585000, -0.916100
  0.587000, -0.938200
  0.589000, -0.961100
  0.591000, -0.984200
  0.593000, -1.007700
  0.595000, -1.031100
  0.597000, -1.053600
  0.599000, -1.075900
  0.601000, -1.097800
  0.603000, -1.118500
  0.605000, -1.138400
  0.607000, -1.157300
  0.609000, -1.174700
  0.611000, -1.191100
  0.613000, -1.206300
  0.615000, -1.220200
  0.617000, -1.232600
  0.619000, -1.243400
  0.621000, -1.252800
  0.623000, -1.260800
  0.625000, -1.267200
  0.627000, -1.271800
  0.629000, -1.274900
  0.631000, -1.276700
  0.633000, -1.276900
  0.635000, -1.275700
  0.637000, -1.273300
  0.639000, -1.269200
  0.641000, -1.263800
  0.643000, -1.257100
  0.645000, -1.249400
  0.647000, -1.240800
  0.649000, -1.231100
  0.651000, -1.220400
  0.653000, -1.209000
  0.655000, -1.197100
  0.657000, -1.184500
  0.659000, -1.171300
  0.661000, -1.157700
  0.663000, -1.143500
  0.665000, -1.128800
  0.667000, -1.114100
  0.669000, -1.099200
  0.671000, -1.084500
  0.673000, -1.069800
  0.675000, -1.055400
  0.677000, -1.041200
  0.679000, -1.027100
  0.681000, -1.013400
  0.683000, -1.000000
  0.685000, -0.986700
  0.687000, -0.973900
  0.689000, -0.961500
  0.691000, -0.949600
  0.693000, -0.938200
  0.695000, -0.927400
  0.697000, -0.917100
  0.699000, -0.907400
  0.701000, -0.898300
  0.703000, -0.889600
  0.705000, -0.881400
  0.707000, -0.873800
  0.709000, -0.866800
  0.711000, -0.860200
  0.713000, -0.854000
  0.715000, -0.848400
  0.717000, -0.843200
  0.719000, -0.838400
  0.721000, -0.834000
  0.723000, -0.829900
  0.725000, -0.826200
  0.727000, -0.822600
  0.729000, -0.819300
  0.731000, -0.816100
  0.733000, -0.813200
  0.735000, -0.810400
  0.737000, -0.807600
  0.739000, -0.804900
  0.741000, -0.802200
  0.743000, -0.799600
  0.745000, -0.796800
  0.747000, -0.793800
  0.749000, -0.790800
  0.751000, -0.787800
  0.753000, -0.784500
  0.755000, -0.781000
  0.757000, -0.777300
  0.759000, -0.773400
  0.761000, -0.769200
  0.763000, -0.764800
  0.765000, -0.760200
  0.767000, -0.755100
  0.769000, -0.749800
  0.771000, -0.744100
  0.773000, -0.738100
  0.775000, -0.731900
  0.777000, -0.725400
  0.779000, -0.718500
  0.781000, -0.711400
  0.783000, -0.703900
  0.785000, -0.696200
  0.787000, -0.688200
  0.789000, -0.679800
  0.791000, -0.671400
  0.793000, -0.662800
  0.795000, -0.653800
  0.797000, -0.644400
  0.799000, -0.634900
  0.801000, -0.625300
  0.803000, -0.615500
  0.805000, -0.605300
  0.807000, -0.595200
  0.809000, -0.585000
  0.811000, -0.574500
  0.813000, -0.563900
  0.815000, -0.553400
  0.817000, -0.542900
  0.819000, -0.532100
  0.821000, -0.521400
  0.823000, -0.510700
  0.825000, -0.500200
  0.827000, -0.489700
  0.829000, -0.479100
  0.831000, -0.468800
  0.833000, -0.458700
  0.835000, -0.448600
  0.837000, -0.438400
  0.839000, -0.428300
  0.841000, -0.418500
  0.843000, -0.408800
  0.845000, -0.399400
  0.847000, -0.390000
  0.849000, -0.380900
  0.851000, -0.371900
  0.853000, -0.363300
  0.855000, -0.355000
  0.857000, -0.346800
  0.859000, -0.338900
  0.861000, -0.331200
  0.863000, -0.323800
  0.865000, -0.316500
  0.867000, -0.309300
  0.869000, -0.302600
  0.871000, -0.296300
  0.873000, -0.290000
  0.875000, -0.283900
  0.877000, -0.278200
  0.879000, -0.272800
  0.881000, -0.267500
  0.883000, -0.262400
  0.885000, -0.257400
  0.887000, -0.252700
  0.889000, -0.248200
  0.891000, -0.243900
  0.893000, -0.240000
  0.895000, -0.236200
  0.897000, -0.232600
  0.899000, -0.229200
  0.901000, -0.226000
  0.903000, -0.222900
  0.905000, -0.220100
  0.907000, -0.217400
  0.909000, -0.215000
  0.911000, -0.212700
  0.913000, -0.210500
  0.915000, -0.208400
  0.917000, -0.206300
  0.919000, -0.204300
  0.921000, -0.202600
  0.923000, -0.201100
  0.925000, -0.199800
  0.927000, -0.198400
  0.929000, -0.197200
  0.931000, -0.196100
  0.933000, -0.195400
  0.935000, -0.194500
  0.937000, -0.193600
  0.939000, -0.192800
  0.941000, -0.192300
  0.943000, -0.192000
  0.945000, -0.191700
  0.947000, -0.191400
  0.949000, -0.191300
  0.951000, -0.191100
  0.953000, -0.191000
  0.955000, -0.191000
  0.957000, -0.191100
  0.959000, -0.191300
  0.961000, -0.191500
  0.963000, -0.192000
  0.965000, -0.192300
  0.967000, -0.192600
  0.969000, -0.192800
  0.971000, -0.193300
  0.973000, -0.194000
  0.975000, -0.194800
  0.977000, -0.195600
  0.979000, -0.196300
  0.981000, -0.197000
  0.983000, -0.197700
  0.985000, -0.198200
  0.987000, -0.198700
  0.989000, -0.199300
  0.991000, -0.199900
  0.993000, -0.200400
  0.995000, -0.201000
  0.997000, -0.201700
  0.999000, -0.202200
  1.001000, -0.202500
  1.003000, -0.202900
  1.005000, -0.203100
  1.007000, -0.203400
  1.009000, -0.203500
  1.011000, -0.203400
  1.013000, -0.203300
  1.015000, -0.203200
  1.017000, -0.203000
  1.019000, -0.202600
  1.021000, -0.202100
  1.023000, -0.201600
  1.025000, -0.200900
  1.027000, -0.200100
  1.029000, -0.199100
  1.031000, -0.197700
  1.033000, -0.196200
  1.035000, -0.194500
  1.037000, -0.192500
  1.039000, -0.190500
  1.041000, -0.188400
  1.043000, -0.186100
  1.045000, -0.183600
  1.047000, -0.181000
  1.049000, -0.178100
  1.051000, -0.175200
  1.053000, -0.172000
  1.055000, -0.168400
  1.057000, -0.164700
  1.059000, -0.160800
  1.061000, -0.156700
  1.063000, -0.152300
  1.065000, -0.147900
  1.067000, -0.143300
  1.069000, -0.138600
  1.071000, -0.133600
  1.073000, -0.128600
  1.075000, -0.123500
  1.077000, -0.118100
  1.079000, -0.112400
  1.081000, -0.106800
  1.083000, -0.101100
  1.085000, -0.095200
  1.087000, -0.089100
  1.089000, -0.083000
  1.091000, -0.076900
  1.093000, -0.070500
  1.095000, -0.064200
  1.097000, -0.057900
  1.099000, -0.051600
  1.101000, -0.045200
  1.103000, -0.038600
  1.105000, -0.032000
  1.107000, -0.025500
  1.109000, -0.018900
  1.111000, -0.012300
  1.113000, -0.005800
  1.115000,  0.000800
  1.117000,  0.007200
  1.119000,  0.013600
  1.121000,  0.019900
  1.123000,  0.026300
  1.125000,  0.032500
  1.127000,  0.038600
  1.129000,  0.044500
  1.131000,  0.050200
  1.133000,  0.056000
  1.135000,  0.061600
  1.137000,  0.066900
  1.139000,  0.072100
  1.141000,  0.077100
  1.143000,  0.081800
  1.145000,  0.086400
  1.147000,  0.090900
  1.149000,  0.095100
  1.151000,  0.099000
  1.153000,  0.102700
  1.155000,  0.106100
  1.157000,  0.109200
  1.159000,  0.112000
  1.161000,  0.114700
  1.163000,  0.117100
  1.165000,  0.119200
  1.167000,  0.120900
  1.169000,  0.122400
  1.171000,  0.123600
  1.173000,  0.124500
  1.175000,  0.125100
  1.177000,  0.125600
  1.179000,  0.125900
  1.181000,  0.125800
  1.183000,  0.125300
  1.185000,  0.124600
  1.187000,  0.123600
  1.189000,  0.122400
  1.191000,  0.120800
  1.193000,  0.119200
  1.195000,  0.117400
  1.197000,  0.115300
  1.199000,  0.113000
  1.201000,  0.110600
  1.203000,  0.108000
  1.205000,  0.105300
  1.207000,  0.102400
  1.209000,  0.099300
  1.211000,  0.096100
  1.213000,  0.092900
  1.215000,  0.089700
  1.217000,  0.086300
  1.219000,  0.082800
  1.221000,  0.079300
  1.223000,  0.075800
  1.225000,  0.072200
  1.227000,  0.068600
  1.229000,  0.065100
  1.231000,  0.061700
  1.233000,  0.058200
  1.235000,  0.054800
  1.237000,  0.051400
  1.239000,  0.047900
  1.241000,  0.044600
  1.243000,  0.041500
  1.245000,  0.038300
  1.247000,  0.035300
  1.249000,  0.032400
  1.251000,  0.029400
  1.253000,  0.026300
  1.255000,  0.023400
  1.257000,  0.020600
  1.259000,  0.018100
  1.261000,  0.015500
  1.263000,  0.013000
  1.265000,  0.010600
  1.267000,  0.008200
  1.269000,  0.005600
  1.271000,  0.003100
  1.273000,  0.000700
  1.275000, -0.001600
  1.277000, -0.003800
  1.279000, -0.006000
  1.281000, -0.008100
  1.283000, -0.010300
  1.285000, -0.012500
  1.287000, -0.014600
  1.289000, -0.016900
  1.291000, -0.019000
  1.293000, -0.021000
  1.295000, -0.023000
  1.297000, -0.025100
  1.299000, -0.027200
  1.301000, -0.029200
  1.303000, -0.031400
  1.305000, -0.033600
  1.307000, -0.035700
  1.309000, -0.037600
  1.311000, -0.039600
  1.313000, -0.041500
  1.315000, -0.043200
  1.317000, -0.044900
  1.319000, -0.046600
  1.321000, -0.048300
  1.323000, -0.049700
  1.325000, -0.051000
  1.327000, -0.052300
  1.329000, -0.053300
  1.331000, -0.054200
  1.333000, -0.054900
  1.335000, -0.055400
  1.337000, -0.055900
  1.339000, -0.056200
  1.341000, -0.056300
  1.343000, -0.056100
  1.345000, -0.055700
  1.347000, -0.055100
  1.349000, -0.054300
  1.351000, -0.053400
  1.353000, -0.052300
  1.355000, -0.051000
  1.357000, -0.049400
  1.359000, -0.047500
  1.361000, -0.045500
  1.363000, -0.043300
  1.365000, -0.041000
  1.367000, -0.038600
  1.369000, -0.036000
  1.371000, -0.033200
  1.373000, -0.030300
  1.375000, -0.027300
  1.377000, -0.024200
  1.379000, -0.021100
  1.381000, -0.018100
  1.383000, -0.014800
  1.385000, -0.011600
  1.387000, -0.008600
  1.389000, -0.005800
  1.391000, -0.003400
  1.393000, -0.001000
  1.395000,  0.001400
  1.397000,  0.003400
  1.399000,  0.005100
