# z (nm)   (kJ/mol)
  0.235000, 11.520100
  0.237000, 11.112200
  0.239000, 10.625800
  0.241000, 10.158200
  0.243000,  9.672200
  0.245000,  9.143500
  0.247000,  8.610300
  0.249000,  8.079600
  0.251000,  7.556900
  0.253000,  7.016900
  0.255000,  6.458400
  0.257000,  5.895500
  0.259000,  5.314600
  0.261000,  4.730900
  0.263000,  4.161500
  0.265000,  3.594100
  0.267000,  3.014700
  0.269000,  2.430500
  0.271000,  1.848100
  0.273000,  1.267800
  0.275000,  0.678600
  0.277000,  0.093600
  0.279000, -0.483000
  0.281000, -1.061100
  0.283000, -1.632400
  0.285000, -2.201900
  0.287000, -2.763800
  0.289000, -3.314300
  0.291000, -3.857400
  0.293000, -4.398300
  0.295000, -4.935800
  0.297000, -5.463600
  0.299000, -5.979900
  0.301000, -6.481800
  0.303000, -6.970000
  0.305000, -7.453300
  0.307000, -7.925800
  0.309000, -8.386500
  0.311000, -8.834900
  0.313000, -9.266400
  0.315000, -9.685100
  0.317000,-10.091000
  0.319000,-10.484100
  0.321000,-10.861800
  0.323000,-11.224700
  0.325000,-11.572500
  0.327000,-11.904100
  0.329000,-12.219800
  0.331000,-12.518300
  0.333000,-12.799800
  0.335000,-13.065200
  0.337000,-13.313500
  0.339000,-13.545500
  0.341000,-13.760300
  0.343000,-13.957700
  0.345000,-14.138000
  0.347000,-14.300500
  0.349000,-14.445700
  0.351000,-14.573300
  0.353000,-14.683800
  0.355000,-14.777700
  0.357000,-14.855900
  0.359000,-14.918700
  0.361000,-14.965900
  0.363000,-14.996100
  0.365000,-15.008900
  0.367000,-15.006500
  0.369000,-14.990900
  0.371000,-14.962600
  0.373000,-14.920600
  0.375000,-14.866200
  0.377000,-14.800600
  0.379000,-14.722600
  0.381000,-14.633900
  0.383000,-14.535600
  0.385000,-14.427600
  0.387000,-14.310800
  0.389000,-14.186700
  0.391000,-14.055300
  0.393000,-13.916700
  0.395000,-13.772200
  0.397000,-13.622400
  0.399000,-13.468000
  0.401000,-13.309900
  0.403000,-13.148700
  0.405000,-12.984000
  0.407000,-12.816300
  0.409000,-12.646600
  0.411000,-12.475600
  0.413000,-12.304000
  0.415000,-12.131700
  0.417000,-11.959300
  0.419000,-11.787200
  0.421000,-11.615600
  0.423000,-11.444800
  0.425000,-11.275400
  0.427000,-11.107600
  0.429000,-10.941500
  0.431000,-10.777500
  0.433000,-10.615600
  0.435000,-10.456000
  0.437000,-10.298800
  0.439000,-10.144200
  0.441000, -9.992100
  0.443000, -9.842600
  0.445000, -9.695800
  0.447000, -9.552100
  0.449000, -9.411100
  0.451000, -9.272100
  0.453000, -9.135300
  0.455000, -9.001200
  0.457000, -8.870000
  0.459000, -8.741100
  0.461000, -8.614700
  0.463000, -8.490500
  0.465000, -8.368300
  0.467000, -8.247900
  0.469000, -8.129200
  0.471000, -8.011900
  0.473000, -7.895800
  0.475000, -7.781300
  0.477000, -7.668200
  0.479000, -7.555600
  0.481000, -7.443500
  0.483000, -7.332200
  0.485000, -7.221200
  0.487000, -7.110300
  0.489000, -6.999700
  0.491000, -6.889000
  0.493000, -6.778100
  0.495000, -6.666700
  0.497000, -6.554800
  0.499000, -6.442000
  0.501000, -6.328600
  0.503000, -6.214300
  0.505000, -6.098900
  0.507000, -5.982400
  0.509000, -5.864500
  0.511000, -5.745300
  0.513000, -5.624900
  0.515000, -5.503000
  0.517000, -5.379500
  0.519000, -5.254300
  0.521000, -5.128000
  0.523000, -5.000500
  0.525000, -4.871300
  0.527000, -4.740800
  0.529000, -4.608900
  0.531000, -4.475300
  0.533000, -4.340900
  0.535000, -4.205300
  0.537000, -4.068300
  0.539000, -3.930800
  0.541000, -3.792700
  0.543000, -3.652800
  0.545000, -3.511800
  0.547000, -3.371700
  0.549000, -3.231600
  0.551000, -3.091500
  0.553000, -2.951800
  0.555000, -2.812100
  0.557000, -2.672400
  0.559000, -2.533300
  0.561000, -2.396200
  0.563000, -2.260500
  0.565000, -2.126000
  0.567000, -1.993700
  0.569000, -1.863500
  0.571000, -1.735400
  0.573000, -1.610000
  0.575000, -1.487800
  0.577000, -1.368100
  0.579000, -1.251100
  0.581000, -1.137600
  0.583000, -1.027700
  0.585000, -0.921900
  0.587000, -0.820400
  0.589000, -0.723400
  0.591000, -0.631200
  0.593000, -0.543900
  0.595000, -0.461400
  0.597000, -0.383900
  0.599000, -0.311300
  0.601000, -0.244200
  0.603000, -0.182600
  0.605000, -0.126300
  0.607000, -0.075400
  0.609000, -0.030100
  0.611000,  0.010000
  0.613000,  0.044600
  0.615000,  0.073500
  0.617000,  0.096800
  0.619000,  0.115100
  0.621000,  0.128300
  0.623000,  0.136400
  0.625000,  0.139200
  0.627000,  0.136900
  0.629000,  0.129900
  0.631000,  0.118300
  0.633000,  0.102500
  0.635000,  0.082100
  0.637000,  0.057800
  0.639000,  0.030400
  0.641000, -0.000600
  0.643000, -0.035200
  0.645000, -0.073100
  0.647000, -0.113500
  0.649000, -0.156400
  0.651000, -0.202000
  0.653000, -0.249900
  0.655000, -0.299700
  0.657000, -0.350400
  0.659000, -0.401600
  0.661000, -0.453800
  0.663000, -0.506700
  0.665000, -0.561200
  0.667000, -0.616400
  0.669000, -0.670900
  0.671000, -0.725600
  0.673000, -0.779900
  0.675000, -0.833800
  0.677000, -0.887400
  0.679000, -0.939900
  0.681000, -0.991000
  0.683000, -1.041100
  0.685000, -1.089700
  0.687000, -1.136000
  0.689000, -1.180500
  0.691000, -1.223500
  0.693000, -1.265500
  0.695000, -1.305200
  0.697000, -1.342600
  0.699000, -1.378400
  0.701000, -1.411800
  0.703000, -1.442800
  0.705000, -1.471200
  0.707000, -1.497300
  0.709000, -1.521000
  0.711000, -1.542200
  0.713000, -1.561000
  0.715000, -1.577700
  0.717000, -1.592200
  0.719000, -1.604000
  0.721000, -1.613600
  0.723000, -1.621000
  0.725000, -1.626200
  0.727000, -1.629200
  0.729000, -1.629700
  0.731000, -1.628100
  0.733000, -1.624500
  0.735000, -1.619200
  0.737000, -1.611700
  0.739000, -1.602400
  0.741000, -1.591600
  0.743000, -1.579200
  0.745000, -1.565000
  0.747000, -1.549200
  0.749000, -1.532100
  0.751000, -1.513700
  0.753000, -1.493800
  0.755000, -1.472800
  0.757000, -1.450500
  0.759000, -1.427200
  0.761000, -1.403000
  0.763000, -1.377700
  0.765000, -1.351700
  0.767000, -1.325000
  0.769000, -1.297200
  0.771000, -1.268900
  0.773000, -1.240200
  0.775000, -1.211200
  0.777000, -1.181400
  0.779000, -1.150900
  0.781000, -1.120400
  0.783000, -1.089700
  0.785000, -1.058800
  0.787000, -1.027700
  0.789000, -0.996300
  0.791000, -0.964800
  0.793000, -0.933400
  0.795000, -0.901700
  0.797000, -0.870300
  0.799000, -0.838700
  0.801000, -0.806900
  0.803000, -0.775500
  0.805000, -0.744300
  0.807000, -0.713000
  0.809000, -0.681900
  0.811000, -0.650800
  0.813000, -0.620000
  0.815000, -0.589500
  0.817000, -0.559000
  0.819000, -0.528600
  0.821000, -0.498500
  0.823000, -0.468800
  0.825000, -0.439500
  0.827000, -0.410400
  0.829000, -0.381400
  0.831000, -0.352800
  0.833000, -0.324500
  0.835000, -0.296600
  0.837000, -0.269000
  0.839000, -0.241900
  0.841000, -0.215200
  0.843000, -0.188900
  0.845000, -0.163000
  0.847000, -0.137700
  0.849000, -0.112800
  0.851000, -0.088400
  0.853000, -0.064400
  0.855000, -0.041000
  0.857000, -0.018100
  0.859000,  0.004200
  0.861000,  0.026100
  0.863000,  0.047200
  0.865000,  0.067600
  0.867000,  0.087500
  0.869000,  0.106800
  0.871000,  0.125400
  0.873000,  0.143200
  0.875000,  0.160200
  0.877000,  0.176600
  0.879000,  0.192300
  0.881000,  0.207200
  0.883000,  0.221300
  0.885000,  0.234400
  0.887000,  0.246700
  0.889000,  0.258300
  0.891000,  0.268900
  0.893000,  0.278700
  0.895000,  0.287600
  0.897000,  0.295600
  0.899000,  0.302800
  0.901000,  0.309000
  0.903000,  0.314300
  0.905000,  0.318600
  0.907000,  0.322100
  0.909000,  0.324700
  0.911000,  0.326100
  0.913000,  0.326700
  0.915000,  0.326600
  0.917000,  0.325700
  0.919000,  0.323800
  0.921000,  0.321200
  0.923000,  0.317700
  0.925000,  0.313300
  0.927000,  0.308100
  0.929000,  0.302300
  0.931000,  0.295800
  0.933000,  0.288500
  0.935000,  0.280400
  0.937000,  0.271800
  0.939000,  0.262400
  0.941000,  0.252300
  0.943000,  0.241700
  0.945000,  0.230600
  0.947000,  0.219000
  0.949000,  0.206800
  0.951000,  0.194100
  0.953000,  0.181100
  0.955000,  0.167900
  0.957000,  0.154400
  0.959000,  0.140800
  0.961000,  0.127100
  0.963000,  0.112900
  0.965000,  0.098500
  0.967000,  0.084200
  0.969000,  0.069800
  0.971000,  0.055300
  0.973000,  0.040800
  0.975000,  0.026300
  0.977000,  0.011600
  0.979000, -0.002800
  0.981000, -0.017000
  0.983000, -0.031000
  0.985000, -0.045100
  0.987000, -0.059100
  0.989000, -0.072400
  0.991000, -0.085400
  0.993000, -0.098400
  0.995000, -0.111200
  0.997000, -0.123600
  0.999000, -0.135900
  1.001000, -0.147700
  1.003000, -0.158900
  1.005000, -0.169900
  1.007000, -0.180500
  1.009000, -0.190700
  1.011000, -0.200500
  1.013000, -0.210000
  1.015000, -0.218800
  1.017000, -0.227400
  1.019000, -0.235600
  1.021000, -0.243200
  1.023000, -0.250400
  1.025000, -0.257300
  1.027000, -0.263800
  1.029000, -0.269900
  1.031000, -0.275500
  1.033000, -0.280600
  1.035000, -0.285200
  1.037000, -0.289300
  1.039000, -0.293100
  1.041000, -0.296400
  1.043000, -0.299400
  1.045000, -0.301900
  1.047000, -0.304000
  1.049000, -0.305700
  1.051000, -0.307100
  1.053000, -0.308100
  1.055000, -0.308600
  1.057000, -0.308700
  1.059000, -0.308500
  1.061000, -0.307900
  1.063000, -0.307000
  1.065000, -0.305700
  1.067000, -0.304100
  1.069000, -0.302200
  1.071000, -0.299900
  1.073000, -0.297300
  1.075000, -0.294300
  1.077000, -0.291000
  1.079000, -0.287400
  1.081000, -0.283600
  1.083000, -0.279400
  1.085000, -0.275100
  1.087000, -0.270600
  1.089000, -0.265700
  1.091000, -0.260600
  1.093000, -0.255400
  1.095000, -0.249900
  1.097000, -0.244300
  1.099000, -0.238500
  1.101000, -0.232400
  1.103000, -0.226300
  1.105000, -0.220000
  1.107000, -0.213400
  1.109000, -0.206800
  1.111000, -0.200000
  1.113000, -0.193200
  1.115000, -0.186300
  1.117000, -0.179100
  1.119000, -0.172000
  1.121000, -0.164600
  1.123000, -0.157000
  1.125000, -0.149500
  1.127000, -0.142200
  1.129000, -0.134900
  1.131000, -0.127600
  1.133000, -0.120200
  1.135000, -0.113000
  1.137000, -0.105600
  1.139000, -0.098200
  1.141000, -0.090900
  1.143000, -0.083600
  1.145000, -0.076400
  1.147000, -0.069200
  1.149000, -0.062000
  1.151000, -0.055100
  1.153000, -0.048200
  1.155000, -0.041600
  1.157000, -0.035000
  1.159000, -0.028500
  1.161000, -0.022100
  1.163000, -0.015800
  1.165000, -0.009800
  1.167000, -0.003900
  1.169000,  0.001800
  1.171000,  0.007400
  1.173000,  0.012700
  1.175000,  0.017800
  1.177000,  0.022700
  1.179000,  0.027500
  1.181000,  0.031900
  1.183000,  0.036200
  1.185000,  0.040200
  1.187000,  0.044100
  1.189000,  0.047800
  1.191000,  0.051300
  1.193000,  0.054500
  1.195000,  0.057500
  1.197000,  0.060200
  1.199000,  0.062700
  1.201000,  0.065100
  1.203000,  0.067200
  1.205000,  0.069000
  1.207000,  0.070600
  1.209000,  0.072000
  1.211000,  0.073200
  1.213000,  0.074200
  1.215000,  0.074800
  1.217000,  0.075300
  1.219000,  0.075600
  1.221000,  0.075800
  1.223000,  0.075800
  1.225000,  0.075500
  1.227000,  0.075100
  1.229000,  0.074600
  1.231000,  0.073900
  1.233000,  0.073100
  1.235000,  0.072100
  1.237000,  0.071000
  1.239000,  0.069700
  1.241000,  0.068400
  1.243000,  0.066900
  1.245000,  0.065300
  1.247000,  0.063600
  1.249000,  0.061800
  1.251000,  0.059900
  1.253000,  0.057800
  1.255000,  0.055700
  1.257000,  0.053400
  1.259000,  0.051100
  1.261000,  0.048600
  1.263000,  0.046100
  1.265000,  0.043600
  1.267000,  0.041200
  1.269000,  0.038400
  1.271000,  0.035600
  1.273000,  0.032600
  1.275000,  0.029700
  1.277000,  0.026600
  1.279000,  0.023500
  1.281000,  0.020400
  1.283000,  0.017300
  1.285000,  0.014000
  1.287000,  0.010700
  1.289000,  0.007300
  1.291000,  0.003900
  1.293000,  0.000400
  1.295000, -0.003100
  1.297000, -0.006600
  1.299000, -0.010100
  1.301000, -0.013600
  1.303000, -0.017200
  1.305000, -0.020800
  1.307000, -0.024400
  1.309000, -0.028000
  1.311000, -0.031500
  1.313000, -0.035000
  1.315000, -0.038400
  1.317000, -0.041800
  1.319000, -0.045000
  1.321000, -0.048000
  1.323000, -0.051000
  1.325000, -0.053900
  1.327000, -0.056600
  1.329000, -0.059300
  1.331000, -0.061800
  1.333000, -0.064000
  1.335000, -0.066000
  1.337000, -0.067800
  1.339000, -0.069400
  1.341000, -0.070700
  1.343000, -0.071800
  1.345000, -0.072700
  1.347000, -0.073300
  1.349000, -0.073700
  1.351000, -0.073900
  1.353000, -0.073800
  1.355000, -0.073400
  1.357000, -0.072800
  1.359000, -0.071700
  1.361000, -0.070400
  1.363000, -0.068800
  1.365000, -0.067100
  1.367000, -0.065000
  1.369000, -0.062600
  1.371000, -0.060000
  1.373000, -0.057400
  1.375000, -0.054600
  1.377000, -0.051300
  1.379000, -0.047900
  1.381000, -0.044400
  1.383000, -0.041000
  1.385000, -0.037500
  1.387000, -0.033900
  1.389000, -0.030300
  1.391000, -0.026900
  1.393000, -0.023500
  1.395000, -0.020300
  1.397000, -0.017300
  1.399000, -0.014500
