# z (nm)   (kJ/mol)
  0.223000,  7.713700
  0.227000,  6.739100
  0.229000,  6.282300
  0.231000,  5.733100
  0.233000,  5.143000
  0.235000,  4.554800
  0.237000,  3.969700
  0.239000,  3.372000
  0.241000,  2.770400
  0.243000,  2.153200
  0.245000,  1.534600
  0.247000,  0.909800
  0.249000,  0.270800
  0.251000, -0.377900
  0.253000, -1.025600
  0.255000, -1.666700
  0.257000, -2.315000
  0.259000, -2.972400
  0.261000, -3.627500
  0.263000, -4.279100
  0.265000, -4.931500
  0.267000, -5.579600
  0.269000, -6.228800
  0.271000, -6.879400
  0.273000, -7.522100
  0.275000, -8.155600
  0.277000, -8.783500
  0.279000, -9.401200
  0.281000,-10.011900
  0.283000,-10.621700
  0.285000,-11.218100
  0.287000,-11.797400
  0.289000,-12.365700
  0.291000,-12.922000
  0.293000,-13.466600
  0.295000,-13.997000
  0.297000,-14.511900
  0.299000,-15.013200
  0.301000,-15.494700
  0.303000,-15.959300
  0.305000,-16.407300
  0.307000,-16.835200
  0.309000,-17.244000
  0.311000,-17.632600
  0.313000,-18.002200
  0.315000,-18.350900
  0.317000,-18.678400
  0.319000,-18.985300
  0.321000,-19.270100
  0.323000,-19.531700
  0.325000,-19.770400
  0.327000,-19.986600
  0.329000,-20.180500
  0.331000,-20.351000
  0.333000,-20.497700
  0.335000,-20.621200
  0.337000,-20.721600
  0.339000,-20.800500
  0.341000,-20.856000
  0.343000,-20.887600
  0.345000,-20.899700
  0.347000,-20.891500
  0.349000,-20.861200
  0.351000,-20.810900
  0.353000,-20.741200
  0.355000,-20.651800
  0.357000,-20.544700
  0.359000,-20.421000
  0.361000,-20.279800
  0.363000,-20.123500
  0.365000,-19.953300
  0.367000,-19.768300
  0.369000,-19.570400
  0.371000,-19.361300
  0.373000,-19.141800
  0.375000,-18.912600
  0.377000,-18.673800
  0.379000,-18.426100
  0.381000,-18.172200
  0.383000,-17.912600
  0.385000,-17.647800
  0.387000,-17.378600
  0.389000,-17.105700
  0.391000,-16.830800
  0.393000,-16.554200
  0.395000,-16.276900
  0.397000,-16.000100
  0.399000,-15.724100
  0.401000,-15.449400
  0.403000,-15.176700
  0.405000,-14.906800
  0.407000,-14.640100
  0.409000,-14.376600
  0.411000,-14.117100
  0.413000,-13.862100
  0.415000,-13.611800
  0.417000,-13.367000
  0.419000,-13.127700
  0.421000,-12.894100
  0.423000,-12.666000
  0.425000,-12.443700
  0.427000,-12.227700
  0.429000,-12.017900
  0.431000,-11.814500
  0.433000,-11.617600
  0.435000,-11.426700
  0.437000,-11.241600
  0.439000,-11.062200
  0.441000,-10.889300
  0.443000,-10.722700
  0.445000,-10.560900
  0.447000,-10.404500
  0.449000,-10.253700
  0.451000,-10.107200
  0.453000, -9.966000
  0.455000, -9.830100
  0.457000, -9.698700
  0.459000, -9.571300
  0.461000, -9.448000
  0.463000, -9.328200
  0.465000, -9.211700
  0.467000, -9.098500
  0.469000, -8.988000
  0.471000, -8.880400
  0.473000, -8.776100
  0.475000, -8.674200
  0.477000, -8.574200
  0.479000, -8.476000
  0.481000, -8.379000
  0.483000, -8.283600
  0.485000, -8.189900
  0.487000, -8.097100
  0.489000, -8.005000
  0.491000, -7.913500
  0.493000, -7.822500
  0.495000, -7.731700
  0.497000, -7.641000
  0.499000, -7.550800
  0.501000, -7.460400
  0.503000, -7.370000
  0.505000, -7.279200
  0.507000, -7.187900
  0.509000, -7.096000
  0.511000, -7.003500
  0.513000, -6.910300
  0.515000, -6.816400
  0.517000, -6.721400
  0.519000, -6.625100
  0.521000, -6.527800
  0.523000, -6.429400
  0.525000, -6.329800
  0.527000, -6.229300
  0.529000, -6.127600
  0.531000, -6.024200
  0.533000, -5.919300
  0.535000, -5.813200
  0.537000, -5.705900
  0.539000, -5.597300
  0.541000, -5.487300
  0.543000, -5.375900
  0.545000, -5.263200
  0.547000, -5.149300
  0.549000, -5.034300
  0.551000, -4.917800
  0.553000, -4.800400
  0.555000, -4.681600
  0.557000, -4.561100
  0.559000, -4.440000
  0.561000, -4.318200
  0.563000, -4.195100
  0.565000, -4.071500
  0.567000, -3.948000
  0.569000, -3.824500
  0.571000, -3.701200
  0.573000, -3.578200
  0.575000, -3.455100
  0.577000, -3.331700
  0.579000, -3.208800
  0.581000, -3.087300
  0.583000, -2.967400
  0.585000, -2.849000
  0.587000, -2.731900
  0.589000, -2.616100
  0.591000, -2.502600
  0.593000, -2.391300
  0.595000, -2.282100
  0.597000, -2.175100
  0.599000, -2.071200
  0.601000, -1.970800
  0.603000, -1.873800
  0.605000, -1.780100
  0.607000, -1.689800
  0.609000, -1.603700
  0.611000, -1.521200
  0.613000, -1.442400
  0.615000, -1.367900
  0.617000, -1.297600
  0.619000, -1.231700
  0.621000, -1.170100
  0.623000, -1.113200
  0.625000, -1.061100
  0.627000, -1.013400
  0.629000, -0.970700
  0.631000, -0.933000
  0.633000, -0.899700
  0.635000, -0.870800
  0.637000, -0.846300
  0.639000, -0.826300
  0.641000, -0.810600
  0.643000, -0.798900
  0.645000, -0.790900
  0.647000, -0.787000
  0.649000, -0.788000
  0.651000, -0.791700
  0.653000, -0.797600
  0.655000, -0.807200
  0.657000, -0.820000
  0.659000, -0.835800
  0.661000, -0.854700
  0.663000, -0.875700
  0.665000, -0.897500
  0.667000, -0.921500
  0.669000, -0.947200
  0.671000, -0.974100
  0.673000, -1.003600
  0.675000, -1.034600
  0.677000, -1.065500
  0.679000, -1.097000
  0.681000, -1.128300
  0.683000, -1.159000
  0.685000, -1.190000
  0.687000, -1.221500
  0.689000, -1.253200
  0.691000, -1.284300
  0.693000, -1.314300
  0.695000, -1.343400
  0.697000, -1.372000
  0.699000, -1.400200
  0.701000, -1.426900
  0.703000, -1.452400
  0.705000, -1.476600
  0.707000, -1.499300
  0.709000, -1.520600
  0.711000, -1.540000
  0.713000, -1.558000
  0.715000, -1.575000
  0.717000, -1.590400
  0.719000, -1.603800
  0.721000, -1.615700
  0.723000, -1.625900
  0.725000, -1.634200
  0.727000, -1.641100
  0.729000, -1.646400
  0.731000, -1.650000
  0.733000, -1.652000
  0.735000, -1.652600
  0.737000, -1.651600
  0.739000, -1.649100
  0.741000, -1.645200
  0.743000, -1.640000
  0.745000, -1.633300
  0.747000, -1.625000
  0.749000, -1.615400
  0.751000, -1.604700
  0.753000, -1.593000
  0.755000, -1.580000
  0.757000, -1.566300
  0.759000, -1.551900
  0.761000, -1.536600
  0.763000, -1.520400
  0.765000, -1.503300
  0.767000, -1.485500
  0.769000, -1.466600
  0.771000, -1.447200
  0.773000, -1.427500
  0.775000, -1.407000
  0.777000, -1.385900
  0.779000, -1.364200
  0.781000, -1.341900
  0.783000, -1.319700
  0.785000, -1.297500
  0.787000, -1.274500
  0.789000, -1.251500
  0.791000, -1.228500
  0.793000, -1.204900
  0.795000, -1.181000
  0.797000, -1.157300
  0.799000, -1.133400
  0.801000, -1.109300
  0.803000, -1.085600
  0.805000, -1.062000
  0.807000, -1.037900
  0.809000, -1.013300
  0.811000, -0.989200
  0.813000, -0.965300
  0.815000, -0.941400
  0.817000, -0.917600
  0.819000, -0.893900
  0.821000, -0.870200
  0.823000, -0.846700
  0.825000, -0.823200
  0.827000, -0.799900
  0.829000, -0.776600
  0.831000, -0.753500
  0.833000, -0.730700
  0.835000, -0.708200
  0.837000, -0.685800
  0.839000, -0.663500
  0.841000, -0.641500
  0.843000, -0.619700
  0.845000, -0.598200
  0.847000, -0.576900
  0.849000, -0.555900
  0.851000, -0.535200
  0.853000, -0.514800
  0.855000, -0.494800
  0.857000, -0.475100
  0.859000, -0.455500
  0.861000, -0.436100
  0.863000, -0.417000
  0.865000, -0.398300
  0.867000, -0.380100
  0.869000, -0.362200
  0.871000, -0.344700
  0.873000, -0.327500
  0.875000, -0.310700
  0.877000, -0.294200
  0.879000, -0.277900
  0.881000, -0.262200
  0.883000, -0.247000
  0.885000, -0.232200
  0.887000, -0.217800
  0.889000, -0.203800
  0.891000, -0.190300
  0.893000, -0.177200
  0.895000, -0.164500
  0.897000, -0.152400
  0.899000, -0.140600
  0.901000, -0.129300
  0.903000, -0.118600
  0.905000, -0.108300
  0.907000, -0.098700
  0.909000, -0.089500
  0.911000, -0.080700
  0.913000, -0.072500
  0.915000, -0.064800
  0.917000, -0.057600
  0.919000, -0.050900
  0.921000, -0.044800
  0.923000, -0.039200
  0.925000, -0.034100
  0.927000, -0.029700
  0.929000, -0.025700
  0.931000, -0.022300
  0.933000, -0.019300
  0.935000, -0.016900
  0.937000, -0.015000
  0.939000, -0.013600
  0.941000, -0.012500
  0.943000, -0.012000
  0.945000, -0.012100
  0.947000, -0.012600
  0.949000, -0.013500
  0.951000, -0.015000
  0.953000, -0.016900
  0.955000, -0.019300
  0.957000, -0.022000
  0.959000, -0.025100
  0.961000, -0.028600
  0.963000, -0.032400
  0.965000, -0.036600
  0.967000, -0.040800
  0.969000, -0.045600
  0.971000, -0.050800
  0.973000, -0.056300
  0.975000, -0.062000
  0.977000, -0.068000
  0.979000, -0.074200
  0.981000, -0.080500
  0.983000, -0.086900
  0.985000, -0.093600
  0.987000, -0.100300
  0.989000, -0.107000
  0.991000, -0.113800
  0.993000, -0.120700
  0.995000, -0.127600
  0.997000, -0.134300
  0.999000, -0.141300
  1.001000, -0.148400
  1.003000, -0.155300
  1.005000, -0.162300
  1.007000, -0.169400
  1.009000, -0.176400
  1.011000, -0.183300
  1.013000, -0.190100
  1.015000, -0.196800
  1.017000, -0.203300
  1.019000, -0.209700
  1.021000, -0.216000
  1.023000, -0.222100
  1.025000, -0.228200
  1.027000, -0.234000
  1.029000, -0.239800
  1.031000, -0.245300
  1.033000, -0.250700
  1.035000, -0.255900
  1.037000, -0.260900
  1.039000, -0.265800
  1.041000, -0.270500
  1.043000, -0.274900
  1.045000, -0.279200
  1.047000, -0.283300
  1.049000, -0.287200
  1.051000, -0.291000
  1.053000, -0.294500
  1.055000, -0.297700
  1.057000, -0.300700
  1.059000, -0.303500
  1.061000, -0.306100
  1.063000, -0.308600
  1.065000, -0.310800
  1.067000, -0.312800
  1.069000, -0.314600
  1.071000, -0.316200
  1.073000, -0.317400
  1.075000, -0.318500
  1.077000, -0.319500
  1.079000, -0.320100
  1.081000, -0.320400
  1.083000, -0.320600
  1.085000, -0.320500
  1.087000, -0.320400
  1.089000, -0.320000
  1.091000, -0.319200
  1.093000, -0.318200
  1.095000, -0.316900
  1.097000, -0.315500
  1.099000, -0.313900
  1.101000, -0.312000
  1.103000, -0.309800
  1.105000, -0.307400
  1.107000, -0.304800
  1.109000, -0.302000
  1.111000, -0.298900
  1.113000, -0.295700
  1.115000, -0.292300
  1.117000, -0.288600
  1.119000, -0.284600
  1.121000, -0.280400
  1.123000, -0.276000
  1.125000, -0.271500
  1.127000, -0.266800
  1.129000, -0.261900
  1.131000, -0.256700
  1.133000, -0.251300
  1.135000, -0.245600
  1.137000, -0.239500
  1.139000, -0.233300
  1.141000, -0.227100
  1.143000, -0.220900
  1.145000, -0.214500
  1.147000, -0.208000
  1.149000, -0.201200
  1.151000, -0.194200
  1.153000, -0.187200
  1.155000, -0.180200
  1.157000, -0.173000
  1.159000, -0.165700
  1.161000, -0.158400
  1.163000, -0.151000
  1.165000, -0.143500
  1.167000, -0.136100
  1.169000, -0.128900
  1.171000, -0.121500
  1.173000, -0.114200
  1.175000, -0.106900
  1.177000, -0.099600
  1.179000, -0.092500
  1.181000, -0.085500
  1.183000, -0.078700
  1.185000, -0.072100
  1.187000, -0.065600
  1.189000, -0.059400
  1.191000, -0.053200
  1.193000, -0.047200
  1.195000, -0.041400
  1.197000, -0.036000
  1.199000, -0.030900
  1.201000, -0.025900
  1.203000, -0.021200
  1.205000, -0.016700
  1.207000, -0.012500
  1.209000, -0.008600
  1.211000, -0.005000
  1.213000, -0.001800
  1.215000,  0.001300
  1.217000,  0.004100
  1.219000,  0.006700
  1.221000,  0.008900
  1.223000,  0.010800
  1.225000,  0.012600
  1.227000,  0.014200
  1.229000,  0.015400
  1.231000,  0.016400
  1.233000,  0.017300
  1.235000,  0.018000
  1.237000,  0.018400
  1.239000,  0.018600
  1.241000,  0.018800
  1.243000,  0.018800
  1.245000,  0.018700
  1.247000,  0.018400
  1.249000,  0.018100
  1.251000,  0.017600
  1.253000,  0.017200
  1.255000,  0.016600
  1.257000,  0.016000
  1.259000,  0.015200
  1.261000,  0.014500
  1.263000,  0.013700
  1.265000,  0.013000
  1.267000,  0.012400
  1.269000,  0.011600
  1.271000,  0.010900
  1.273000,  0.010300
  1.275000,  0.009600
  1.277000,  0.009000
  1.279000,  0.008400
  1.281000,  0.007700
  1.283000,  0.007000
  1.285000,  0.006400
  1.287000,  0.005700
  1.289000,  0.005100
  1.291000,  0.004700
  1.293000,  0.004100
  1.295000,  0.003600
  1.297000,  0.003200
  1.299000,  0.002800
  1.301000,  0.002400
  1.303000,  0.002000
  1.305000,  0.001500
  1.307000,  0.001000
  1.309000,  0.000500
  1.311000, -0.000100
  1.313000, -0.000800
  1.315000, -0.001400
  1.317000, -0.002000
  1.319000, -0.002600
  1.321000, -0.003200
  1.323000, -0.003800
  1.325000, -0.004200
  1.327000, -0.004700
  1.329000, -0.005200
  1.331000, -0.005800
  1.333000, -0.006400
  1.335000, -0.007100
  1.337000, -0.007700
  1.339000, -0.008300
  1.341000, -0.008900
  1.343000, -0.009400
  1.345000, -0.009800
  1.347000, -0.010600
  1.349000, -0.011300
  1.351000, -0.011700
  1.353000, -0.012000
  1.355000, -0.012300
  1.357000, -0.012600
  1.359000, -0.012900
  1.361000, -0.013200
  1.363000, -0.013400
  1.365000, -0.013400
  1.367000, -0.013200
  1.369000, -0.013000
  1.371000, -0.012800
  1.373000, -0.012500
  1.375000, -0.012200
  1.377000, -0.012000
  1.379000, -0.011800
  1.381000, -0.011600
  1.383000, -0.011200
  1.385000, -0.010800
  1.387000, -0.010500
  1.389000, -0.010400
  1.391000, -0.010400
  1.393000, -0.010300
  1.395000, -0.010300
  1.397000, -0.010500
  1.399000, -0.011100
