# z (nm)   (kJ/mol)
  0.2630   13.35370
  0.2650   12.89640
  0.2670   12.43060
  0.2690   11.96600
  0.2710   11.49040
  0.2730   10.99960
  0.2750   10.49300
  0.2770    9.97590
  0.2790    9.47110
  0.2810    8.95100
  0.2830    8.41440
  0.2850    7.86890
  0.2870    7.31250
  0.2890    6.75550
  0.2910    6.20600
  0.2930    5.64960
  0.2950    5.09680
  0.2970    4.54770
  0.2990    3.98560
  0.3010    3.43030
  0.3030    2.88760
  0.3050    2.34180
  0.3070    1.79570
  0.3090    1.25210
  0.3110    0.71660
  0.3130    0.19210
  0.3150   -0.33210
  0.3170   -0.85560
  0.3190   -1.37000
  0.3210   -1.87250
  0.3230   -2.36540
  0.3250   -2.85110
  0.3270   -3.32700
  0.3290   -3.79180
  0.3310   -4.24710
  0.3330   -4.69290
  0.3350   -5.12650
  0.3370   -5.54870
  0.3390   -5.95970
  0.3410   -6.35690
  0.3430   -6.74030
  0.3450   -7.11140
  0.3470   -7.47020
  0.3490   -7.81690
  0.3510   -8.14900
  0.3530   -8.46680
  0.3550   -8.77270
  0.3570   -9.06420
  0.3590   -9.34030
  0.3610   -9.60190
  0.3630   -9.84890
  0.3650  -10.08110
  0.3670  -10.29870
  0.3690  -10.50070
  0.3710  -10.68760
  0.3730  -10.86060
  0.3750  -11.01860
  0.3770  -11.16170
  0.3790  -11.29100
  0.3810  -11.40570
  0.3830  -11.50550
  0.3850  -11.59130
  0.3870  -11.66340
  0.3890  -11.72230
  0.3910  -11.76820
  0.3930  -11.80120
  0.3950  -11.82230
  0.3970  -11.83310
  0.3990  -11.83330
  0.4010  -11.82150
  0.4030  -11.79890
  0.4050  -11.76570
  0.4070  -11.72230
  0.4090  -11.67070
  0.4110  -11.61060
  0.4130  -11.54390
  0.4150  -11.47150
  0.4170  -11.39060
  0.4190  -11.30200
  0.4210  -11.20720
  0.4230  -11.10660
  0.4250  -11.00110
  0.4270  -10.89160
  0.4290  -10.77790
  0.4310  -10.66040
  0.4330  -10.54040
  0.4350  -10.41750
  0.4370  -10.29190
  0.4390  -10.16380
  0.4410  -10.03410
  0.4430   -9.90370
  0.4450   -9.77240
  0.4470   -9.64060
  0.4490   -9.50830
  0.4510   -9.37600
  0.4530   -9.24410
  0.4550   -9.11240
  0.4570   -8.98130
  0.4590   -8.85130
  0.4610   -8.72220
  0.4630   -8.59390
  0.4650   -8.46640
  0.4670   -8.34010
  0.4690   -8.21490
  0.4710   -8.09100
  0.4730   -7.96860
  0.4750   -7.84790
  0.4770   -7.72880
  0.4790   -7.61130
  0.4810   -7.49520
  0.4830   -7.38020
  0.4850   -7.26700
  0.4870   -7.15570
  0.4890   -7.04560
  0.4910   -6.93720
  0.4930   -6.83060
  0.4950   -6.72560
  0.4970   -6.62200
  0.4990   -6.51950
  0.5010   -6.41830
  0.5030   -6.31850
  0.5050   -6.21960
  0.5070   -6.12160
  0.5090   -6.02500
  0.5110   -5.92950
  0.5130   -5.83460
  0.5150   -5.74080
  0.5170   -5.64810
  0.5190   -5.55590
  0.5210   -5.46410
  0.5230   -5.37300
  0.5250   -5.28250
  0.5270   -5.19210
  0.5290   -5.10200
  0.5310   -5.01250
  0.5330   -4.92330
  0.5350   -4.83410
  0.5370   -4.74560
  0.5390   -4.65690
  0.5410   -4.56830
  0.5430   -4.47970
  0.5450   -4.39080
  0.5470   -4.30210
  0.5490   -4.21330
  0.5510   -4.12430
  0.5530   -4.03520
  0.5550   -3.94590
  0.5570   -3.85690
  0.5590   -3.76790
  0.5610   -3.67880
  0.5630   -3.58970
  0.5650   -3.50070
  0.5670   -3.41190
  0.5690   -3.32350
  0.5710   -3.23540
  0.5730   -3.14760
  0.5750   -3.06050
  0.5770   -2.97360
  0.5790   -2.88720
  0.5810   -2.80130
  0.5830   -2.71590
  0.5850   -2.63220
  0.5870   -2.54960
  0.5890   -2.46720
  0.5910   -2.38640
  0.5930   -2.30680
  0.5950   -2.22900
  0.5970   -2.15340
  0.5990   -2.07960
  0.6010   -2.00790
  0.6030   -1.93880
  0.6050   -1.87140
  0.6070   -1.80490
  0.6090   -1.74080
  0.6110   -1.67970
  0.6130   -1.62140
  0.6150   -1.56670
  0.6170   -1.51520
  0.6190   -1.46630
  0.6210   -1.42020
  0.6230   -1.37690
  0.6250   -1.33690
  0.6270   -1.30030
  0.6290   -1.26700
  0.6310   -1.23730
  0.6330   -1.21150
  0.6350   -1.18850
  0.6370   -1.16840
  0.6390   -1.15210
  0.6410   -1.13880
  0.6430   -1.12820
  0.6450   -1.12100
  0.6470   -1.11740
  0.6490   -1.11700
  0.6510   -1.11920
  0.6530   -1.12380
  0.6550   -1.13090
  0.6570   -1.14040
  0.6590   -1.15190
  0.6610   -1.16560
  0.6630   -1.18140
  0.6650   -1.19950
  0.6670   -1.21930
  0.6690   -1.24040
  0.6710   -1.26290
  0.6730   -1.28640
  0.6750   -1.31100
  0.6770   -1.33670
  0.6790   -1.36290
  0.6810   -1.38940
  0.6830   -1.41620
  0.6850   -1.44320
  0.6870   -1.47050
  0.6890   -1.49790
  0.6910   -1.52480
  0.6930   -1.55120
  0.6950   -1.57730
  0.6970   -1.60290
  0.6990   -1.62720
  0.7010   -1.65020
  0.7030   -1.67220
  0.7050   -1.69340
  0.7070   -1.71360
  0.7090   -1.73250
  0.7110   -1.74980
  0.7130   -1.76560
  0.7150   -1.78000
  0.7170   -1.79300
  0.7190   -1.80420
  0.7210   -1.81360
  0.7230   -1.82120
  0.7250   -1.82700
  0.7270   -1.83120
  0.7290   -1.83380
  0.7310   -1.83480
  0.7330   -1.83430
  0.7350   -1.83220
  0.7370   -1.82850
  0.7390   -1.82320
  0.7410   -1.81630
  0.7430   -1.80780
  0.7450   -1.79770
  0.7470   -1.78620
  0.7490   -1.77330
  0.7510   -1.75920
  0.7530   -1.74380
  0.7550   -1.72700
  0.7570   -1.70910
  0.7590   -1.69040
  0.7610   -1.67090
  0.7630   -1.65020
  0.7650   -1.62850
  0.7670   -1.60590
  0.7690   -1.58240
  0.7710   -1.55840
  0.7730   -1.53390
  0.7750   -1.50870
  0.7770   -1.48310
  0.7790   -1.45710
  0.7810   -1.43060
  0.7830   -1.40370
  0.7850   -1.37660
  0.7870   -1.34920
  0.7890   -1.32190
  0.7910   -1.29450
  0.7930   -1.26700
  0.7950   -1.23920
  0.7970   -1.21150
  0.7990   -1.18380
  0.8010   -1.15630
  0.8030   -1.12900
  0.8050   -1.10180
  0.8070   -1.07470
  0.8090   -1.04790
  0.8110   -1.02140
  0.8130   -0.99530
  0.8150   -0.96960
  0.8170   -0.94400
  0.8190   -0.91890
  0.8210   -0.89430
  0.8230   -0.87000
  0.8250   -0.84600
  0.8270   -0.82250
  0.8290   -0.79930
  0.8310   -0.77650
  0.8330   -0.75420
  0.8350   -0.73230
  0.8370   -0.71090
  0.8390   -0.68990
  0.8410   -0.66950
  0.8430   -0.64970
  0.8450   -0.63030
  0.8470   -0.61120
  0.8490   -0.59280
  0.8510   -0.57490
  0.8530   -0.55750
  0.8550   -0.54060
  0.8570   -0.52430
  0.8590   -0.50850
  0.8610   -0.49330
  0.8630   -0.47850
  0.8650   -0.46420
  0.8670   -0.45050
  0.8690   -0.43740
  0.8710   -0.42480
  0.8730   -0.41280
  0.8750   -0.40120
  0.8770   -0.39020
  0.8790   -0.37960
  0.8810   -0.36970
  0.8830   -0.36030
  0.8850   -0.35130
  0.8870   -0.34280
  0.8890   -0.33490
  0.8910   -0.32750
  0.8930   -0.32060
  0.8950   -0.31410
  0.8970   -0.30810
  0.8990   -0.30280
  0.9010   -0.29800
  0.9030   -0.29340
  0.9050   -0.28930
  0.9070   -0.28590
  0.9090   -0.28290
  0.9110   -0.28010
  0.9130   -0.27780
  0.9150   -0.27610
  0.9170   -0.27490
  0.9190   -0.27420
  0.9210   -0.27380
  0.9230   -0.27380
  0.9250   -0.27440
  0.9270   -0.27510
  0.9290   -0.27620
  0.9310   -0.27780
  0.9330   -0.27950
  0.9350   -0.28160
  0.9370   -0.28390
  0.9390   -0.28650
  0.9410   -0.28940
  0.9430   -0.29260
  0.9450   -0.29600
  0.9470   -0.29960
  0.9490   -0.30350
  0.9510   -0.30740
  0.9530   -0.31130
  0.9550   -0.31550
  0.9570   -0.31980
  0.9590   -0.32420
  0.9610   -0.32870
  0.9630   -0.33330
  0.9650   -0.33790
  0.9670   -0.34250
  0.9690   -0.34710
  0.9710   -0.35150
  0.9730   -0.35570
  0.9750   -0.36000
  0.9770   -0.36430
  0.9790   -0.36840
  0.9810   -0.37270
  0.9830   -0.37650
  0.9850   -0.38000
  0.9870   -0.38330
  0.9890   -0.38640
  0.9910   -0.38950
  0.9930   -0.39230
  0.9950   -0.39480
  0.9970   -0.39720
  0.9990   -0.39930
  1.0010   -0.40120
  1.0030   -0.40300
  1.0050   -0.40450
  1.0070   -0.40580
  1.0090   -0.40690
  1.0110   -0.40770
  1.0130   -0.40820
  1.0150   -0.40850
  1.0170   -0.40850
  1.0190   -0.40840
  1.0210   -0.40800
  1.0230   -0.40750
  1.0250   -0.40680
  1.0270   -0.40600
  1.0290   -0.40490
  1.0310   -0.40380
  1.0330   -0.40250
  1.0350   -0.40080
  1.0370   -0.39900
  1.0390   -0.39710
  1.0410   -0.39510
  1.0430   -0.39290
  1.0450   -0.39050
  1.0470   -0.38800
  1.0490   -0.38540
  1.0510   -0.38280
  1.0530   -0.38010
  1.0550   -0.37730
  1.0570   -0.37440
  1.0590   -0.37130
  1.0610   -0.36820
  1.0630   -0.36500
  1.0650   -0.36170
  1.0670   -0.35840
  1.0690   -0.35500
  1.0710   -0.35140
  1.0730   -0.34790
  1.0750   -0.34440
  1.0770   -0.34070
  1.0790   -0.33690
  1.0810   -0.33320
  1.0830   -0.32940
  1.0850   -0.32540
  1.0870   -0.32150
  1.0890   -0.31750
  1.0910   -0.31350
  1.0930   -0.30950
  1.0950   -0.30540
  1.0970   -0.30120
  1.0990   -0.29690
  1.1010   -0.29250
  1.1030   -0.28780
  1.1050   -0.28320
  1.1070   -0.27860
  1.1090   -0.27400
  1.1110   -0.26920
  1.1130   -0.26450
  1.1150   -0.25960
  1.1170   -0.25470
  1.1190   -0.24970
  1.1210   -0.24460
  1.1230   -0.23960
  1.1250   -0.23460
  1.1270   -0.22960
  1.1290   -0.22450
  1.1310   -0.21940
  1.1330   -0.21450
  1.1350   -0.20940
  1.1370   -0.20420
  1.1390   -0.19900
  1.1410   -0.19400
  1.1430   -0.18880
  1.1450   -0.18360
  1.1470   -0.17860
  1.1490   -0.17360
  1.1510   -0.16860
  1.1530   -0.16370
  1.1550   -0.15880
  1.1570   -0.15400
  1.1590   -0.14930
  1.1610   -0.14470
  1.1630   -0.14020
  1.1650   -0.13570
  1.1670   -0.13120
  1.1690   -0.12680
  1.1710   -0.12250
  1.1730   -0.11840
  1.1750   -0.11440
  1.1770   -0.11050
  1.1790   -0.10670
  1.1810   -0.10310
  1.1830   -0.09950
  1.1850   -0.09610
  1.1870   -0.09290
  1.1890   -0.08960
  1.1910   -0.08640
  1.1930   -0.08330
  1.1950   -0.08020
  1.1970   -0.07730
  1.1990   -0.07450
  1.2010   -0.07180
  1.2030   -0.06910
  1.2050   -0.06650
  1.2070   -0.06400
  1.2090   -0.06150
  1.2110   -0.05910
  1.2130   -0.05690
  1.2150   -0.05460
  1.2170   -0.05250
  1.2190   -0.05040
  1.2210   -0.04830
  1.2230   -0.04610
  1.2250   -0.04410
  1.2270   -0.04200
  1.2290   -0.04000
  1.2310   -0.03790
  1.2330   -0.03570
  1.2350   -0.03370
  1.2370   -0.03170
  1.2390   -0.02980
  1.2410   -0.02770
  1.2430   -0.02570
  1.2450   -0.02370
  1.2470   -0.02160
  1.2490   -0.01960
  1.2510   -0.01770
  1.2530   -0.01580
  1.2550   -0.01390
  1.2570   -0.01200
  1.2590   -0.01010
  1.2610   -0.00820
  1.2630   -0.00620
  1.2650   -0.00430
  1.2670   -0.00240
  1.2690   -0.00070
  1.2710    0.00090
  1.2730    0.00250
  1.2750    0.00420
  1.2770    0.00570
  1.2790    0.00720
  1.2810    0.00850
  1.2830    0.00990
  1.2850    0.01120
  1.2870    0.01230
  1.2890    0.01350
  1.2910    0.01460
  1.2930    0.01540
  1.2950    0.01600
  1.2970    0.01670
  1.2990    0.01730
  1.3010    0.01770
  1.3030    0.01800
  1.3050    0.01830
  1.3070    0.01860
  1.3090    0.01880
  1.3110    0.01870
  1.3130    0.01870
  1.3150    0.01860
  1.3170    0.01850
  1.3190    0.01820
  1.3210    0.01800
  1.3230    0.01760
  1.3250    0.01730
  1.3270    0.01690
  1.3290    0.01660
  1.3310    0.01630
  1.3330    0.01600
  1.3350    0.01570
  1.3370    0.01550
  1.3390    0.01530
  1.3410    0.01520
  1.3430    0.01510
  1.3450    0.01500
  1.3470    0.01500
  1.3490    0.01510
  1.3510    0.01530
  1.3530    0.01560
  1.3550    0.01580
  1.3570    0.01630
  1.3590    0.01690
  1.3610    0.01770
  1.3630    0.01860
  1.3650    0.01940
  1.3670    0.02030
  1.3690    0.02140
  1.3710    0.02280
  1.3730    0.02420
  1.3750    0.02570
  1.3770    0.02720
  1.3790    0.02870
  1.3810    0.03030
  1.3830    0.03210
  1.3850    0.03400
  1.3870    0.03580
  1.3890    0.03760
  1.3910    0.03920
  1.3930    0.04060
  1.3950    0.04160
  1.3970    0.04270
  1.3990    0.04340
