# z (nm)   (kJ/mol)
  0.263000, 13.353700
  0.265000, 12.896400
  0.267000, 12.430600
  0.269000, 11.966000
  0.271000, 11.490400
  0.273000, 10.999600
  0.275000, 10.493000
  0.277000,  9.975900
  0.279000,  9.471100
  0.281000,  8.951000
  0.283000,  8.414400
  0.285000,  7.868900
  0.287000,  7.312500
  0.289000,  6.755500
  0.291000,  6.206000
  0.293000,  5.649600
  0.295000,  5.096800
  0.297000,  4.547700
  0.299000,  3.985600
  0.301000,  3.430300
  0.303000,  2.887600
  0.305000,  2.341800
  0.307000,  1.795700
  0.309000,  1.252100
  0.311000,  0.716600
  0.313000,  0.192100
  0.315000, -0.332100
  0.317000, -0.855600
  0.319000, -1.370000
  0.321000, -1.872500
  0.323000, -2.365400
  0.325000, -2.851100
  0.327000, -3.327000
  0.329000, -3.791800
  0.331000, -4.247100
  0.333000, -4.692900
  0.335000, -5.126500
  0.337000, -5.548700
  0.339000, -5.959700
  0.341000, -6.356900
  0.343000, -6.740300
  0.345000, -7.111400
  0.347000, -7.470200
  0.349000, -7.816900
  0.351000, -8.149000
  0.353000, -8.466800
  0.355000, -8.772700
  0.357000, -9.064200
  0.359000, -9.340300
  0.361000, -9.601900
  0.363000, -9.848900
  0.365000,-10.081100
  0.367000,-10.298700
  0.369000,-10.500700
  0.371000,-10.687600
  0.373000,-10.860600
  0.375000,-11.018600
  0.377000,-11.161700
  0.379000,-11.291000
  0.381000,-11.405700
  0.383000,-11.505500
  0.385000,-11.591300
  0.387000,-11.663400
  0.389000,-11.722300
  0.391000,-11.768200
  0.393000,-11.801200
  0.395000,-11.822300
  0.397000,-11.833100
  0.399000,-11.833300
  0.401000,-11.821500
  0.403000,-11.798900
  0.405000,-11.765700
  0.407000,-11.722300
  0.409000,-11.670700
  0.411000,-11.610600
  0.413000,-11.543900
  0.415000,-11.471500
  0.417000,-11.390600
  0.419000,-11.302000
  0.421000,-11.207200
  0.423000,-11.106600
  0.425000,-11.001100
  0.427000,-10.891600
  0.429000,-10.777900
  0.431000,-10.660400
  0.433000,-10.540400
  0.435000,-10.417500
  0.437000,-10.291900
  0.439000,-10.163800
  0.441000,-10.034100
  0.443000, -9.903700
  0.445000, -9.772400
  0.447000, -9.640600
  0.449000, -9.508300
  0.451000, -9.376000
  0.453000, -9.244100
  0.455000, -9.112400
  0.457000, -8.981300
  0.459000, -8.851300
  0.461000, -8.722200
  0.463000, -8.593900
  0.465000, -8.466400
  0.467000, -8.340100
  0.469000, -8.214900
  0.471000, -8.091000
  0.473000, -7.968600
  0.475000, -7.847900
  0.477000, -7.728800
  0.479000, -7.611300
  0.481000, -7.495200
  0.483000, -7.380200
  0.485000, -7.267000
  0.487000, -7.155700
  0.489000, -7.045600
  0.491000, -6.937200
  0.493000, -6.830600
  0.495000, -6.725600
  0.497000, -6.622000
  0.499000, -6.519500
  0.501000, -6.418300
  0.503000, -6.318500
  0.505000, -6.219600
  0.507000, -6.121600
  0.509000, -6.025000
  0.511000, -5.929500
  0.513000, -5.834600
  0.515000, -5.740800
  0.517000, -5.648100
  0.519000, -5.555900
  0.521000, -5.464100
  0.523000, -5.373000
  0.525000, -5.282500
  0.527000, -5.192100
  0.529000, -5.102000
  0.531000, -5.012500
  0.533000, -4.923300
  0.535000, -4.834100
  0.537000, -4.745600
  0.539000, -4.656900
  0.541000, -4.568300
  0.543000, -4.479700
  0.545000, -4.390800
  0.547000, -4.302100
  0.549000, -4.213300
  0.551000, -4.124300
  0.553000, -4.035200
  0.555000, -3.945900
  0.557000, -3.856900
  0.559000, -3.767900
  0.561000, -3.678800
  0.563000, -3.589700
  0.565000, -3.500700
  0.567000, -3.411900
  0.569000, -3.323500
  0.571000, -3.235400
  0.573000, -3.147600
  0.575000, -3.060500
  0.577000, -2.973600
  0.579000, -2.887200
  0.581000, -2.801300
  0.583000, -2.715900
  0.585000, -2.632200
  0.587000, -2.549600
  0.589000, -2.467200
  0.591000, -2.386400
  0.593000, -2.306800
  0.595000, -2.229000
  0.597000, -2.153400
  0.599000, -2.079600
  0.601000, -2.007900
  0.603000, -1.938800
  0.605000, -1.871400
  0.607000, -1.804900
  0.609000, -1.740800
  0.611000, -1.679700
  0.613000, -1.621400
  0.615000, -1.566700
  0.617000, -1.515200
  0.619000, -1.466300
  0.621000, -1.420200
  0.623000, -1.376900
  0.625000, -1.336900
  0.627000, -1.300300
  0.629000, -1.267000
  0.631000, -1.237300
  0.633000, -1.211500
  0.635000, -1.188500
  0.637000, -1.168400
  0.639000, -1.152100
  0.641000, -1.138800
  0.643000, -1.128200
  0.645000, -1.121000
  0.647000, -1.117400
  0.649000, -1.117000
  0.651000, -1.119200
  0.653000, -1.123800
  0.655000, -1.130900
  0.657000, -1.140400
  0.659000, -1.151900
  0.661000, -1.165600
  0.663000, -1.181400
  0.665000, -1.199500
  0.667000, -1.219300
  0.669000, -1.240400
  0.671000, -1.262900
  0.673000, -1.286400
  0.675000, -1.311000
  0.677000, -1.336700
  0.679000, -1.362900
  0.681000, -1.389400
  0.683000, -1.416200
  0.685000, -1.443200
  0.687000, -1.470500
  0.689000, -1.497900
  0.691000, -1.524800
  0.693000, -1.551200
  0.695000, -1.577300
  0.697000, -1.602900
  0.699000, -1.627200
  0.701000, -1.650200
  0.703000, -1.672200
  0.705000, -1.693400
  0.707000, -1.713600
  0.709000, -1.732500
  0.711000, -1.749800
  0.713000, -1.765600
  0.715000, -1.780000
  0.717000, -1.793000
  0.719000, -1.804200
  0.721000, -1.813600
  0.723000, -1.821200
  0.725000, -1.827000
  0.727000, -1.831200
  0.729000, -1.833800
  0.731000, -1.834800
  0.733000, -1.834300
  0.735000, -1.832200
  0.737000, -1.828500
  0.739000, -1.823200
  0.741000, -1.816300
  0.743000, -1.807800
  0.745000, -1.797700
  0.747000, -1.786200
  0.749000, -1.773300
  0.751000, -1.759200
  0.753000, -1.743800
  0.755000, -1.727000
  0.757000, -1.709100
  0.759000, -1.690400
  0.761000, -1.670900
  0.763000, -1.650200
  0.765000, -1.628500
  0.767000, -1.605900
  0.769000, -1.582400
  0.771000, -1.558400
  0.773000, -1.533900
  0.775000, -1.508700
  0.777000, -1.483100
  0.779000, -1.457100
  0.781000, -1.430600
  0.783000, -1.403700
  0.785000, -1.376600
  0.787000, -1.349200
  0.789000, -1.321900
  0.791000, -1.294500
  0.793000, -1.267000
  0.795000, -1.239200
  0.797000, -1.211500
  0.799000, -1.183800
  0.801000, -1.156300
  0.803000, -1.129000
  0.805000, -1.101800
  0.807000, -1.074700
  0.809000, -1.047900
  0.811000, -1.021400
  0.813000, -0.995300
  0.815000, -0.969600
  0.817000, -0.944000
  0.819000, -0.918900
  0.821000, -0.894300
  0.823000, -0.870000
  0.825000, -0.846000
  0.827000, -0.822500
  0.829000, -0.799300
  0.831000, -0.776500
  0.833000, -0.754200
  0.835000, -0.732300
  0.837000, -0.710900
  0.839000, -0.689900
  0.841000, -0.669500
  0.843000, -0.649700
  0.845000, -0.630300
  0.847000, -0.611200
  0.849000, -0.592800
  0.851000, -0.574900
  0.853000, -0.557500
  0.855000, -0.540600
  0.857000, -0.524300
  0.859000, -0.508500
  0.861000, -0.493300
  0.863000, -0.478500
  0.865000, -0.464200
  0.867000, -0.450500
  0.869000, -0.437400
  0.871000, -0.424800
  0.873000, -0.412800
  0.875000, -0.401200
  0.877000, -0.390200
  0.879000, -0.379600
  0.881000, -0.369700
  0.883000, -0.360300
  0.885000, -0.351300
  0.887000, -0.342800
  0.889000, -0.334900
  0.891000, -0.327500
  0.893000, -0.320600
  0.895000, -0.314100
  0.897000, -0.308100
  0.899000, -0.302800
  0.901000, -0.298000
  0.903000, -0.293400
  0.905000, -0.289300
  0.907000, -0.285900
  0.909000, -0.282900
  0.911000, -0.280100
  0.913000, -0.277800
  0.915000, -0.276100
  0.917000, -0.274900
  0.919000, -0.274200
  0.921000, -0.273800
  0.923000, -0.273800
  0.925000, -0.274400
  0.927000, -0.275100
  0.929000, -0.276200
  0.931000, -0.277800
  0.933000, -0.279500
  0.935000, -0.281600
  0.937000, -0.283900
  0.939000, -0.286500
  0.941000, -0.289400
  0.943000, -0.292600
  0.945000, -0.296000
  0.947000, -0.299600
  0.949000, -0.303500
  0.951000, -0.307400
  0.953000, -0.311300
  0.955000, -0.315500
  0.957000, -0.319800
  0.959000, -0.324200
  0.961000, -0.328700
  0.963000, -0.333300
  0.965000, -0.337900
  0.967000, -0.342500
  0.969000, -0.347100
  0.971000, -0.351500
  0.973000, -0.355700
  0.975000, -0.360000
  0.977000, -0.364300
  0.979000, -0.368400
  0.981000, -0.372700
  0.983000, -0.376500
  0.985000, -0.380000
  0.987000, -0.383300
  0.989000, -0.386400
  0.991000, -0.389500
  0.993000, -0.392300
  0.995000, -0.394800
  0.997000, -0.397200
  0.999000, -0.399300
  1.001000, -0.401200
  1.003000, -0.403000
  1.005000, -0.404500
  1.007000, -0.405800
  1.009000, -0.406900
  1.011000, -0.407700
  1.013000, -0.408200
  1.015000, -0.408500
  1.017000, -0.408500
  1.019000, -0.408400
  1.021000, -0.408000
  1.023000, -0.407500
  1.025000, -0.406800
  1.027000, -0.406000
  1.029000, -0.404900
  1.031000, -0.403800
  1.033000, -0.402500
  1.035000, -0.400800
  1.037000, -0.399000
  1.039000, -0.397100
  1.041000, -0.395100
  1.043000, -0.392900
  1.045000, -0.390500
  1.047000, -0.388000
  1.049000, -0.385400
  1.051000, -0.382800
  1.053000, -0.380100
  1.055000, -0.377300
  1.057000, -0.374400
  1.059000, -0.371300
  1.061000, -0.368200
  1.063000, -0.365000
  1.065000, -0.361700
  1.067000, -0.358400
  1.069000, -0.355000
  1.071000, -0.351400
  1.073000, -0.347900
  1.075000, -0.344400
  1.077000, -0.340700
  1.079000, -0.336900
  1.081000, -0.333200
  1.083000, -0.329400
  1.085000, -0.325400
  1.087000, -0.321500
  1.089000, -0.317500
  1.091000, -0.313500
  1.093000, -0.309500
  1.095000, -0.305400
  1.097000, -0.301200
  1.099000, -0.296900
  1.101000, -0.292500
  1.103000, -0.287800
  1.105000, -0.283200
  1.107000, -0.278600
  1.109000, -0.274000
  1.111000, -0.269200
  1.113000, -0.264500
  1.115000, -0.259600
  1.117000, -0.254700
  1.119000, -0.249700
  1.121000, -0.244600
  1.123000, -0.239600
  1.125000, -0.234600
  1.127000, -0.229600
  1.129000, -0.224500
  1.131000, -0.219400
  1.133000, -0.214500
  1.135000, -0.209400
  1.137000, -0.204200
  1.139000, -0.199000
  1.141000, -0.194000
  1.143000, -0.188800
  1.145000, -0.183600
  1.147000, -0.178600
  1.149000, -0.173600
  1.151000, -0.168600
  1.153000, -0.163700
  1.155000, -0.158800
  1.157000, -0.154000
  1.159000, -0.149300
  1.161000, -0.144700
  1.163000, -0.140200
  1.165000, -0.135700
  1.167000, -0.131200
  1.169000, -0.126800
  1.171000, -0.122500
  1.173000, -0.118400
  1.175000, -0.114400
  1.177000, -0.110500
  1.179000, -0.106700
  1.181000, -0.103100
  1.183000, -0.099500
  1.185000, -0.096100
  1.187000, -0.092900
  1.189000, -0.089600
  1.191000, -0.086400
  1.193000, -0.083300
  1.195000, -0.080200
  1.197000, -0.077300
  1.199000, -0.074500
  1.201000, -0.071800
  1.203000, -0.069100
  1.205000, -0.066500
  1.207000, -0.064000
  1.209000, -0.061500
  1.211000, -0.059100
  1.213000, -0.056900
  1.215000, -0.054600
  1.217000, -0.052500
  1.219000, -0.050400
  1.221000, -0.048300
  1.223000, -0.046100
  1.225000, -0.044100
  1.227000, -0.042000
  1.229000, -0.040000
  1.231000, -0.037900
  1.233000, -0.035700
  1.235000, -0.033700
  1.237000, -0.031700
  1.239000, -0.029800
  1.241000, -0.027700
  1.243000, -0.025700
  1.245000, -0.023700
  1.247000, -0.021600
  1.249000, -0.019600
  1.251000, -0.017700
  1.253000, -0.015800
  1.255000, -0.013900
  1.257000, -0.012000
  1.259000, -0.010100
  1.261000, -0.008200
  1.263000, -0.006200
  1.265000, -0.004300
  1.267000, -0.002400
  1.269000, -0.000700
  1.271000,  0.000900
  1.273000,  0.002500
  1.275000,  0.004200
  1.277000,  0.005700
  1.279000,  0.007200
  1.281000,  0.008500
  1.283000,  0.009900
  1.285000,  0.011200
  1.287000,  0.012300
  1.289000,  0.013500
  1.291000,  0.014600
  1.293000,  0.015400
  1.295000,  0.016000
  1.297000,  0.016700
  1.299000,  0.017300
  1.301000,  0.017700
  1.303000,  0.018000
  1.305000,  0.018300
  1.307000,  0.018600
  1.309000,  0.018800
  1.311000,  0.018700
  1.313000,  0.018700
  1.315000,  0.018600
  1.317000,  0.018500
  1.319000,  0.018200
  1.321000,  0.018000
  1.323000,  0.017600
  1.325000,  0.017300
  1.327000,  0.016900
  1.329000,  0.016600
  1.331000,  0.016300
  1.333000,  0.016000
  1.335000,  0.015700
  1.337000,  0.015500
  1.339000,  0.015300
  1.341000,  0.015200
  1.343000,  0.015100
  1.345000,  0.015000
  1.347000,  0.015000
  1.349000,  0.015100
  1.351000,  0.015300
  1.353000,  0.015600
  1.355000,  0.015800
  1.357000,  0.016300
  1.359000,  0.016900
  1.361000,  0.017700
  1.363000,  0.018600
  1.365000,  0.019400
  1.367000,  0.020300
  1.369000,  0.021400
  1.371000,  0.022800
  1.373000,  0.024200
  1.375000,  0.025700
  1.377000,  0.027200
  1.379000,  0.028700
  1.381000,  0.030300
  1.383000,  0.032100
  1.385000,  0.034000
  1.387000,  0.035800
  1.389000,  0.037600
  1.391000,  0.039200
  1.393000,  0.040600
  1.395000,  0.041600
  1.397000,  0.042700
  1.399000,  0.043400
