# z (nm)   (kJ/mol)
  0.2250    6.91350
  0.2290    5.67310
  0.2310    5.04690
  0.2330    4.41780
  0.2350    3.77920
  0.2370    3.11410
  0.2390    2.44460
  0.2410    1.75950
  0.2430    1.06410
  0.2450    0.36450
  0.2470   -0.34410
  0.2490   -1.05590
  0.2510   -1.77940
  0.2530   -2.50890
  0.2550   -3.22870
  0.2570   -3.93970
  0.2590   -4.65710
  0.2610   -5.37740
  0.2630   -6.09310
  0.2650   -6.80890
  0.2670   -7.52400
  0.2690   -8.22820
  0.2710   -8.92330
  0.2730   -9.61470
  0.2750  -10.29880
  0.2770  -10.97450
  0.2790  -11.64260
  0.2810  -12.29660
  0.2830  -12.93880
  0.2850  -13.56780
  0.2870  -14.17810
  0.2890  -14.77610
  0.2910  -15.36220
  0.2930  -15.93100
  0.2950  -16.48160
  0.2970  -17.01370
  0.2990  -17.52840
  0.3010  -18.02600
  0.3030  -18.50150
  0.3050  -18.95490
  0.3070  -19.38760
  0.3090  -19.79740
  0.3110  -20.18400
  0.3130  -20.54760
  0.3150  -20.88690
  0.3170  -21.20220
  0.3190  -21.49330
  0.3210  -21.75920
  0.3230  -21.99990
  0.3250  -22.21510
  0.3270  -22.40520
  0.3290  -22.56930
  0.3310  -22.70680
  0.3330  -22.81890
  0.3350  -22.90630
  0.3370  -22.96900
  0.3390  -23.00650
  0.3410  -23.01880
  0.3430  -23.00750
  0.3450  -22.97340
  0.3470  -22.91570
  0.3490  -22.83680
  0.3510  -22.73590
  0.3530  -22.61170
  0.3550  -22.47090
  0.3570  -22.31250
  0.3590  -22.13600
  0.3610  -21.94380
  0.3630  -21.73680
  0.3650  -21.51700
  0.3670  -21.28380
  0.3690  -21.03890
  0.3710  -20.78210
  0.3730  -20.51640
  0.3750  -20.24370
  0.3770  -19.96340
  0.3790  -19.67740
  0.3810  -19.38680
  0.3830  -19.09240
  0.3850  -18.79570
  0.3870  -18.49810
  0.3890  -18.20080
  0.3910  -17.90340
  0.3930  -17.60730
  0.3950  -17.31430
  0.3970  -17.02470
  0.3990  -16.73920
  0.4010  -16.45830
  0.4030  -16.18280
  0.4050  -15.91320
  0.4070  -15.65030
  0.4090  -15.39520
  0.4110  -15.14790
  0.4130  -14.90790
  0.4150  -14.67590
  0.4170  -14.45280
  0.4190  -14.23760
  0.4210  -14.03130
  0.4230  -13.83390
  0.4250  -13.64520
  0.4270  -13.46500
  0.4290  -13.29280
  0.4310  -13.12920
  0.4330  -12.97360
  0.4350  -12.82660
  0.4370  -12.68760
  0.4390  -12.55540
  0.4410  -12.43060
  0.4430  -12.31220
  0.4450  -12.19930
  0.4470  -12.09260
  0.4490  -11.99220
  0.4510  -11.89730
  0.4530  -11.80730
  0.4550  -11.72120
  0.4570  -11.63850
  0.4590  -11.55940
  0.4610  -11.48290
  0.4630  -11.40880
  0.4650  -11.33660
  0.4670  -11.26550
  0.4690  -11.19540
  0.4710  -11.12610
  0.4730  -11.05760
  0.4750  -10.98900
  0.4770  -10.91990
  0.4790  -10.85010
  0.4810  -10.77890
  0.4830  -10.70640
  0.4850  -10.63230
  0.4870  -10.55640
  0.4890  -10.47860
  0.4910  -10.39850
  0.4930  -10.31590
  0.4950  -10.23090
  0.4970  -10.14300
  0.4990  -10.05240
  0.5010   -9.95910
  0.5030   -9.86290
  0.5050   -9.76360
  0.5070   -9.66120
  0.5090   -9.55520
  0.5110   -9.44640
  0.5130   -9.33490
  0.5150   -9.22030
  0.5170   -9.10270
  0.5190   -8.98200
  0.5210   -8.85880
  0.5230   -8.73270
  0.5250   -8.60370
  0.5270   -8.47220
  0.5290   -8.33840
  0.5310   -8.20220
  0.5330   -8.06360
  0.5350   -7.92280
  0.5370   -7.78010
  0.5390   -7.63560
  0.5410   -7.48920
  0.5430   -7.34110
  0.5450   -7.19170
  0.5470   -7.04070
  0.5490   -6.88830
  0.5510   -6.73500
  0.5530   -6.58080
  0.5550   -6.42550
  0.5570   -6.26970
  0.5590   -6.11370
  0.5610   -5.95690
  0.5630   -5.79900
  0.5650   -5.64060
  0.5670   -5.48210
  0.5690   -5.32370
  0.5710   -5.16530
  0.5730   -5.00660
  0.5750   -4.84800
  0.5770   -4.69040
  0.5790   -4.53380
  0.5810   -4.37790
  0.5830   -4.22250
  0.5850   -4.06810
  0.5870   -3.91480
  0.5890   -3.76290
  0.5910   -3.61220
  0.5930   -3.46340
  0.5950   -3.31640
  0.5970   -3.17060
  0.5990   -3.02670
  0.6010   -2.88440
  0.6030   -2.74420
  0.6050   -2.60710
  0.6070   -2.47250
  0.6090   -2.33990
  0.6110   -2.20940
  0.6130   -2.08150
  0.6150   -1.95680
  0.6170   -1.83530
  0.6190   -1.71650
  0.6210   -1.60110
  0.6230   -1.48940
  0.6250   -1.38100
  0.6270   -1.27520
  0.6290   -1.17330
  0.6310   -1.07600
  0.6330   -0.98110
  0.6350   -0.88920
  0.6370   -0.80170
  0.6390   -0.71840
  0.6410   -0.63910
  0.6430   -0.56380
  0.6450   -0.49160
  0.6470   -0.42330
  0.6490   -0.35980
  0.6510   -0.30020
  0.6530   -0.24420
  0.6550   -0.19210
  0.6570   -0.14400
  0.6590   -0.09940
  0.6610   -0.05840
  0.6630   -0.02110
  0.6650    0.01240
  0.6670    0.04200
  0.6690    0.06820
  0.6710    0.09080
  0.6730    0.11020
  0.6750    0.12640
  0.6770    0.13950
  0.6790    0.14980
  0.6810    0.15750
  0.6830    0.16210
  0.6850    0.16380
  0.6870    0.16260
  0.6890    0.15870
  0.6910    0.15270
  0.6930    0.14440
  0.6950    0.13390
  0.6970    0.12070
  0.6990    0.10560
  0.7010    0.08960
  0.7030    0.07150
  0.7050    0.05170
  0.7070    0.02990
  0.7090    0.00630
  0.7110   -0.01860
  0.7130   -0.04460
  0.7150   -0.07140
  0.7170   -0.09940
  0.7190   -0.12900
  0.7210   -0.15920
  0.7230   -0.18960
  0.7250   -0.22130
  0.7270   -0.25380
  0.7290   -0.28630
  0.7310   -0.31950
  0.7330   -0.35300
  0.7350   -0.38720
  0.7370   -0.42120
  0.7390   -0.45540
  0.7410   -0.48980
  0.7430   -0.52400
  0.7450   -0.55840
  0.7470   -0.59250
  0.7490   -0.62600
  0.7510   -0.65930
  0.7530   -0.69220
  0.7550   -0.72480
  0.7570   -0.75690
  0.7590   -0.78830
  0.7610   -0.81920
  0.7630   -0.84910
  0.7650   -0.87830
  0.7670   -0.90690
  0.7690   -0.93450
  0.7710   -0.96140
  0.7730   -0.98700
  0.7750   -1.01120
  0.7770   -1.03450
  0.7790   -1.05650
  0.7810   -1.07750
  0.7830   -1.09750
  0.7850   -1.11630
  0.7870   -1.13360
  0.7890   -1.14950
  0.7910   -1.16400
  0.7930   -1.17710
  0.7950   -1.18890
  0.7970   -1.19940
  0.7990   -1.20810
  0.8010   -1.21560
  0.8030   -1.22160
  0.8050   -1.22600
  0.8070   -1.22900
  0.8090   -1.23040
  0.8110   -1.23060
  0.8130   -1.22930
  0.8150   -1.22650
  0.8170   -1.22220
  0.8190   -1.21650
  0.8210   -1.20940
  0.8230   -1.20080
  0.8250   -1.19080
  0.8270   -1.17940
  0.8290   -1.16660
  0.8310   -1.15250
  0.8330   -1.13740
  0.8350   -1.12100
  0.8370   -1.10340
  0.8390   -1.08450
  0.8410   -1.06450
  0.8430   -1.04330
  0.8450   -1.02110
  0.8470   -0.99800
  0.8490   -0.97410
  0.8510   -0.94940
  0.8530   -0.92370
  0.8550   -0.89700
  0.8570   -0.86950
  0.8590   -0.84170
  0.8610   -0.81310
  0.8630   -0.78340
  0.8650   -0.75320
  0.8670   -0.72240
  0.8690   -0.69160
  0.8710   -0.66090
  0.8730   -0.62950
  0.8750   -0.59760
  0.8770   -0.56580
  0.8790   -0.53370
  0.8810   -0.50130
  0.8830   -0.46890
  0.8850   -0.43720
  0.8870   -0.40520
  0.8890   -0.37330
  0.8910   -0.34150
  0.8930   -0.31000
  0.8950   -0.27930
  0.8970   -0.24870
  0.8990   -0.21840
  0.9010   -0.18860
  0.9030   -0.15920
  0.9050   -0.13020
  0.9070   -0.10190
  0.9090   -0.07460
  0.9110   -0.04750
  0.9130   -0.02090
  0.9150    0.00470
  0.9170    0.02950
  0.9190    0.05330
  0.9210    0.07630
  0.9230    0.09850
  0.9250    0.11980
  0.9270    0.14020
  0.9290    0.15950
  0.9310    0.17780
  0.9330    0.19500
  0.9350    0.21130
  0.9370    0.22660
  0.9390    0.24100
  0.9410    0.25460
  0.9430    0.26710
  0.9450    0.27840
  0.9470    0.28880
  0.9490    0.29820
  0.9510    0.30670
  0.9530    0.31420
  0.9550    0.32070
  0.9570    0.32620
  0.9590    0.33070
  0.9610    0.33420
  0.9630    0.33690
  0.9650    0.33880
  0.9670    0.33990
  0.9690    0.34010
  0.9710    0.33930
  0.9730    0.33780
  0.9750    0.33550
  0.9770    0.33220
  0.9790    0.32820
  0.9810    0.32360
  0.9830    0.31830
  0.9850    0.31230
  0.9870    0.30580
  0.9890    0.29860
  0.9910    0.29070
  0.9930    0.28220
  0.9950    0.27320
  0.9970    0.26380
  0.9990    0.25410
  1.0010    0.24400
  1.0030    0.23360
  1.0050    0.22270
  1.0070    0.21130
  1.0090    0.19960
  1.0110    0.18770
  1.0130    0.17520
  1.0150    0.16240
  1.0170    0.14940
  1.0190    0.13640
  1.0210    0.12350
  1.0230    0.11010
  1.0250    0.09670
  1.0270    0.08330
  1.0290    0.07000
  1.0310    0.05680
  1.0330    0.04330
  1.0350    0.02990
  1.0370    0.01690
  1.0390    0.00370
  1.0410   -0.00950
  1.0430   -0.02260
  1.0450   -0.03560
  1.0470   -0.04830
  1.0490   -0.06060
  1.0510   -0.07250
  1.0530   -0.08440
  1.0550   -0.09600
  1.0570   -0.10720
  1.0590   -0.11810
  1.0610   -0.12880
  1.0630   -0.13930
  1.0650   -0.14950
  1.0670   -0.15930
  1.0690   -0.16880
  1.0710   -0.17780
  1.0730   -0.18660
  1.0750   -0.19500
  1.0770   -0.20320
  1.0790   -0.21090
  1.0810   -0.21820
  1.0830   -0.22510
  1.0850   -0.23150
  1.0870   -0.23760
  1.0890   -0.24330
  1.0910   -0.24860
  1.0930   -0.25360
  1.0950   -0.25820
  1.0970   -0.26240
  1.0990   -0.26630
  1.1010   -0.26980
  1.1030   -0.27300
  1.1050   -0.27600
  1.1070   -0.27850
  1.1090   -0.28080
  1.1110   -0.28260
  1.1130   -0.28400
  1.1150   -0.28510
  1.1170   -0.28580
  1.1190   -0.28620
  1.1210   -0.28620
  1.1230   -0.28600
  1.1250   -0.28540
  1.1270   -0.28450
  1.1290   -0.28320
  1.1310   -0.28180
  1.1330   -0.28010
  1.1350   -0.27800
  1.1370   -0.27560
  1.1390   -0.27290
  1.1410   -0.27000
  1.1430   -0.26690
  1.1450   -0.26360
  1.1470   -0.26000
  1.1490   -0.25610
  1.1510   -0.25200
  1.1530   -0.24770
  1.1550   -0.24330
  1.1570   -0.23860
  1.1590   -0.23370
  1.1610   -0.22850
  1.1630   -0.22280
  1.1650   -0.21700
  1.1670   -0.21110
  1.1690   -0.20530
  1.1710   -0.19940
  1.1730   -0.19330
  1.1750   -0.18700
  1.1770   -0.18060
  1.1790   -0.17430
  1.1810   -0.16780
  1.1830   -0.16110
  1.1850   -0.15460
  1.1870   -0.14790
  1.1890   -0.14120
  1.1910   -0.13460
  1.1930   -0.12810
  1.1950   -0.12150
  1.1970   -0.11490
  1.1990   -0.10850
  1.2010   -0.10220
  1.2030   -0.09570
  1.2050   -0.08920
  1.2070   -0.08300
  1.2090   -0.07700
  1.2110   -0.07100
  1.2130   -0.06500
  1.2150   -0.05930
  1.2170   -0.05360
  1.2190   -0.04800
  1.2210   -0.04240
  1.2230   -0.03690
  1.2250   -0.03160
  1.2270   -0.02660
  1.2290   -0.02180
  1.2310   -0.01700
  1.2330   -0.01260
  1.2350   -0.00830
  1.2370   -0.00400
  1.2390    0.00030
  1.2410    0.00430
  1.2430    0.00830
  1.2450    0.01200
  1.2470    0.01560
  1.2490    0.01900
  1.2510    0.02230
  1.2530    0.02560
  1.2550    0.02870
  1.2570    0.03170
  1.2590    0.03460
  1.2610    0.03750
  1.2630    0.04020
  1.2650    0.04250
  1.2670    0.04470
  1.2690    0.04690
  1.2710    0.04890
  1.2730    0.05050
  1.2750    0.05190
  1.2770    0.05320
  1.2790    0.05440
  1.2810    0.05540
  1.2830    0.05630
  1.2850    0.05700
  1.2870    0.05750
  1.2890    0.05780
  1.2910    0.05800
  1.2930    0.05800
  1.2950    0.05770
  1.2970    0.05730
  1.2990    0.05670
  1.3010    0.05590
  1.3030    0.05510
  1.3050    0.05400
  1.3070    0.05260
  1.3090    0.05110
  1.3110    0.04940
  1.3130    0.04770
  1.3150    0.04590
  1.3170    0.04370
  1.3190    0.04140
  1.3210    0.03890
  1.3230    0.03630
  1.3250    0.03350
  1.3270    0.03080
  1.3290    0.02780
  1.3310    0.02460
  1.3330    0.02140
  1.3350    0.01820
  1.3370    0.01490
  1.3390    0.01160
  1.3410    0.00820
  1.3430    0.00480
  1.3450    0.00140
  1.3470   -0.00200
  1.3490   -0.00530
  1.3510   -0.00860
  1.3530   -0.01180
  1.3550   -0.01490
  1.3570   -0.01810
  1.3590   -0.02120
  1.3610   -0.02430
  1.3630   -0.02730
  1.3650   -0.03010
  1.3670   -0.03300
  1.3690   -0.03580
  1.3710   -0.03850
  1.3730   -0.04090
  1.3750   -0.04330
  1.3770   -0.04570
  1.3790   -0.04810
  1.3810   -0.05050
  1.3830   -0.05280
  1.3850   -0.05490
  1.3870   -0.05710
  1.3890   -0.05920
  1.3910   -0.06130
  1.3930   -0.06340
  1.3950   -0.06570
  1.3970   -0.06810
  1.3990   -0.07070
