# z (nm)   (kJ/mol)
  0.2310   13.97850
  0.2370   13.64090
  0.2410   12.96380
  0.2430   12.54880
  0.2450   12.12110
  0.2470   11.67780
  0.2490   11.22810
  0.2510   10.78280
  0.2530   10.32790
  0.2550    9.85690
  0.2570    9.37240
  0.2590    8.89790
  0.2610    8.43280
  0.2630    7.95480
  0.2650    7.46500
  0.2670    6.97140
  0.2690    6.47860
  0.2710    5.99060
  0.2730    5.49820
  0.2750    5.00710
  0.2770    4.51720
  0.2790    4.02500
  0.2810    3.54220
  0.2830    3.06140
  0.2850    2.57780
  0.2870    2.09370
  0.2890    1.61570
  0.2910    1.14520
  0.2930    0.68080
  0.2950    0.22510
  0.2970   -0.22560
  0.2990   -0.67080
  0.3010   -1.11730
  0.3030   -1.55890
  0.3050   -1.98660
  0.3070   -2.40280
  0.3090   -2.81340
  0.3110   -3.21600
  0.3130   -3.60780
  0.3150   -3.99240
  0.3170   -4.36820
  0.3190   -4.73250
  0.3210   -5.08560
  0.3230   -5.42790
  0.3250   -5.76020
  0.3270   -6.08360
  0.3290   -6.39680
  0.3310   -6.69800
  0.3330   -6.98660
  0.3350   -7.26410
  0.3370   -7.52930
  0.3390   -7.78230
  0.3410   -8.02390
  0.3430   -8.25290
  0.3450   -8.46920
  0.3470   -8.67310
  0.3490   -8.86400
  0.3510   -9.04270
  0.3530   -9.20920
  0.3550   -9.36250
  0.3570   -9.50240
  0.3590   -9.63030
  0.3610   -9.74650
  0.3630   -9.84960
  0.3650   -9.94070
  0.3670  -10.02030
  0.3690  -10.08750
  0.3710  -10.14300
  0.3730  -10.18730
  0.3750  -10.22010
  0.3770  -10.24160
  0.3790  -10.25330
  0.3810  -10.25470
  0.3830  -10.24580
  0.3850  -10.22810
  0.3870  -10.20120
  0.3890  -10.16570
  0.3910  -10.12150
  0.3930  -10.06970
  0.3950  -10.01100
  0.3970   -9.94440
  0.3990   -9.87080
  0.4010   -9.79070
  0.4030   -9.70460
  0.4050   -9.61240
  0.4070   -9.51480
  0.4090   -9.41200
  0.4110   -9.30450
  0.4130   -9.19320
  0.4150   -9.07780
  0.4170   -8.95830
  0.4190   -8.83510
  0.4210   -8.70850
  0.4230   -8.57910
  0.4250   -8.44690
  0.4270   -8.31210
  0.4290   -8.17450
  0.4310   -8.03460
  0.4330   -7.89280
  0.4350   -7.74910
  0.4370   -7.60340
  0.4390   -7.45620
  0.4410   -7.30740
  0.4430   -7.15700
  0.4450   -7.00570
  0.4470   -6.85290
  0.4490   -6.69850
  0.4510   -6.54310
  0.4530   -6.38690
  0.4550   -6.22980
  0.4570   -6.07170
  0.4590   -5.91270
  0.4610   -5.75290
  0.4630   -5.59230
  0.4650   -5.43120
  0.4670   -5.26970
  0.4690   -5.10750
  0.4710   -4.94490
  0.4730   -4.78170
  0.4750   -4.61790
  0.4770   -4.45390
  0.4790   -4.28970
  0.4810   -4.12520
  0.4830   -3.96040
  0.4850   -3.79560
  0.4870   -3.63080
  0.4890   -3.46640
  0.4910   -3.30240
  0.4930   -3.13840
  0.4950   -2.97500
  0.4970   -2.81180
  0.4990   -2.64910
  0.5010   -2.48770
  0.5030   -2.32720
  0.5050   -2.16760
  0.5070   -2.00960
  0.5090   -1.85310
  0.5110   -1.69780
  0.5130   -1.54430
  0.5150   -1.39230
  0.5170   -1.24180
  0.5190   -1.09400
  0.5210   -0.94880
  0.5230   -0.80570
  0.5250   -0.66480
  0.5270   -0.52640
  0.5290   -0.39150
  0.5310   -0.26040
  0.5330   -0.13260
  0.5350   -0.00850
  0.5370    0.11230
  0.5390    0.22920
  0.5410    0.34150
  0.5430    0.45010
  0.5450    0.55440
  0.5470    0.65340
  0.5490    0.74770
  0.5510    0.83750
  0.5530    0.92220
  0.5550    1.00130
  0.5570    1.07590
  0.5590    1.14610
  0.5610    1.21060
  0.5630    1.26940
  0.5650    1.32310
  0.5670    1.37180
  0.5690    1.41520
  0.5710    1.45340
  0.5730    1.48630
  0.5750    1.51380
  0.5770    1.53620
  0.5790    1.55310
  0.5810    1.56480
  0.5830    1.57170
  0.5850    1.57360
  0.5870    1.57020
  0.5890    1.56180
  0.5910    1.54830
  0.5930    1.53000
  0.5950    1.50770
  0.5970    1.48130
  0.5990    1.45040
  0.6010    1.41570
  0.6030    1.37800
  0.6050    1.33700
  0.6070    1.29210
  0.6090    1.24370
  0.6110    1.19260
  0.6130    1.13890
  0.6150    1.08190
  0.6170    1.02220
  0.6190    0.96100
  0.6210    0.89810
  0.6230    0.83330
  0.6250    0.76770
  0.6270    0.70090
  0.6290    0.63360
  0.6310    0.56540
  0.6330    0.49600
  0.6350    0.42560
  0.6370    0.35480
  0.6390    0.28480
  0.6410    0.21470
  0.6430    0.14460
  0.6450    0.07520
  0.6470    0.00640
  0.6490   -0.06140
  0.6510   -0.12790
  0.6530   -0.19290
  0.6550   -0.25690
  0.6570   -0.31990
  0.6590   -0.38120
  0.6610   -0.44070
  0.6630   -0.49860
  0.6650   -0.55480
  0.6670   -0.60930
  0.6690   -0.66190
  0.6710   -0.71230
  0.6730   -0.76050
  0.6750   -0.80670
  0.6770   -0.85070
  0.6790   -0.89240
  0.6810   -0.93220
  0.6830   -0.96990
  0.6850   -1.00530
  0.6870   -1.03830
  0.6890   -1.06890
  0.6910   -1.09710
  0.6930   -1.12330
  0.6950   -1.14730
  0.6970   -1.16890
  0.6990   -1.18830
  0.7010   -1.20560
  0.7030   -1.22070
  0.7050   -1.23380
  0.7070   -1.24470
  0.7090   -1.25350
  0.7110   -1.26030
  0.7130   -1.26530
  0.7150   -1.26840
  0.7170   -1.26940
  0.7190   -1.26870
  0.7210   -1.26610
  0.7230   -1.26190
  0.7250   -1.25600
  0.7270   -1.24850
  0.7290   -1.23950
  0.7310   -1.22920
  0.7330   -1.21740
  0.7350   -1.20430
  0.7370   -1.19000
  0.7390   -1.17420
  0.7410   -1.15740
  0.7430   -1.13970
  0.7450   -1.12080
  0.7470   -1.10080
  0.7490   -1.07980
  0.7510   -1.05790
  0.7530   -1.03530
  0.7550   -1.01170
  0.7570   -0.98740
  0.7590   -0.96230
  0.7610   -0.93660
  0.7630   -0.91020
  0.7650   -0.88330
  0.7670   -0.85600
  0.7690   -0.82800
  0.7710   -0.79970
  0.7730   -0.77110
  0.7750   -0.74210
  0.7770   -0.71280
  0.7790   -0.68340
  0.7810   -0.65340
  0.7830   -0.62330
  0.7850   -0.59330
  0.7870   -0.56320
  0.7890   -0.53290
  0.7910   -0.50260
  0.7930   -0.47230
  0.7950   -0.44210
  0.7970   -0.41220
  0.7990   -0.38210
  0.8010   -0.35220
  0.8030   -0.32250
  0.8050   -0.29310
  0.8070   -0.26390
  0.8090   -0.23520
  0.8110   -0.20680
  0.8130   -0.17880
  0.8150   -0.15120
  0.8170   -0.12380
  0.8190   -0.09710
  0.8210   -0.07080
  0.8230   -0.04480
  0.8250   -0.01940
  0.8270    0.00520
  0.8290    0.02930
  0.8310    0.05270
  0.8330    0.07550
  0.8350    0.09780
  0.8370    0.11930
  0.8390    0.14010
  0.8410    0.16010
  0.8430    0.17940
  0.8450    0.19780
  0.8470    0.21540
  0.8490    0.23240
  0.8510    0.24840
  0.8530    0.26360
  0.8550    0.27800
  0.8570    0.29150
  0.8590    0.30410
  0.8610    0.31580
  0.8630    0.32650
  0.8650    0.33640
  0.8670    0.34540
  0.8690    0.35370
  0.8710    0.36090
  0.8730    0.36730
  0.8750    0.37270
  0.8770    0.37730
  0.8790    0.38110
  0.8810    0.38400
  0.8830    0.38590
  0.8850    0.38680
  0.8870    0.38680
  0.8890    0.38620
  0.8910    0.38460
  0.8930    0.38220
  0.8950    0.37910
  0.8970    0.37520
  0.8990    0.37060
  0.9010    0.36540
  0.9030    0.35930
  0.9050    0.35250
  0.9070    0.34510
  0.9090    0.33700
  0.9110    0.32840
  0.9130    0.31920
  0.9150    0.30940
  0.9170    0.29920
  0.9190    0.28850
  0.9210    0.27730
  0.9230    0.26580
  0.9250    0.25380
  0.9270    0.24140
  0.9290    0.22870
  0.9310    0.21570
  0.9330    0.20250
  0.9350    0.18910
  0.9370    0.17540
  0.9390    0.16140
  0.9410    0.14740
  0.9430    0.13320
  0.9450    0.11890
  0.9470    0.10440
  0.9490    0.08990
  0.9510    0.07540
  0.9530    0.06100
  0.9550    0.04630
  0.9570    0.03170
  0.9590    0.01730
  0.9610    0.00280
  0.9630   -0.01160
  0.9650   -0.02600
  0.9670   -0.04020
  0.9690   -0.05410
  0.9710   -0.06790
  0.9730   -0.08160
  0.9750   -0.09510
  0.9770   -0.10840
  0.9790   -0.12160
  0.9810   -0.13450
  0.9830   -0.14730
  0.9850   -0.15970
  0.9870   -0.17180
  0.9890   -0.18370
  0.9910   -0.19510
  0.9930   -0.20630
  0.9950   -0.21720
  0.9970   -0.22780
  0.9990   -0.23810
  1.0010   -0.24800
  1.0030   -0.25760
  1.0050   -0.26680
  1.0070   -0.27570
  1.0090   -0.28410
  1.0110   -0.29210
  1.0130   -0.29970
  1.0150   -0.30680
  1.0170   -0.31360
  1.0190   -0.31990
  1.0210   -0.32570
  1.0230   -0.33110
  1.0250   -0.33600
  1.0270   -0.34040
  1.0290   -0.34430
  1.0310   -0.34770
  1.0330   -0.35070
  1.0350   -0.35320
  1.0370   -0.35520
  1.0390   -0.35680
  1.0410   -0.35780
  1.0430   -0.35840
  1.0450   -0.35840
  1.0470   -0.35800
  1.0490   -0.35720
  1.0510   -0.35600
  1.0530   -0.35430
  1.0550   -0.35210
  1.0570   -0.34950
  1.0590   -0.34640
  1.0610   -0.34280
  1.0630   -0.33880
  1.0650   -0.33450
  1.0670   -0.32970
  1.0690   -0.32470
  1.0710   -0.31910
  1.0730   -0.31290
  1.0750   -0.30660
  1.0770   -0.30020
  1.0790   -0.29330
  1.0810   -0.28590
  1.0830   -0.27840
  1.0850   -0.27080
  1.0870   -0.26300
  1.0890   -0.25490
  1.0910   -0.24670
  1.0930   -0.23830
  1.0950   -0.22980
  1.0970   -0.22100
  1.0990   -0.21210
  1.1010   -0.20340
  1.1030   -0.19450
  1.1050   -0.18550
  1.1070   -0.17650
  1.1090   -0.16760
  1.1110   -0.15860
  1.1130   -0.14950
  1.1150   -0.14050
  1.1170   -0.13170
  1.1190   -0.12280
  1.1210   -0.11390
  1.1230   -0.10530
  1.1250   -0.09700
  1.1270   -0.08870
  1.1290   -0.08050
  1.1310   -0.07250
  1.1330   -0.06470
  1.1350   -0.05720
  1.1370   -0.04980
  1.1390   -0.04260
  1.1410   -0.03560
  1.1430   -0.02880
  1.1450   -0.02220
  1.1470   -0.01600
  1.1490   -0.01010
  1.1510   -0.00450
  1.1530    0.00100
  1.1550    0.00630
  1.1570    0.01140
  1.1590    0.01620
  1.1610    0.02070
  1.1630    0.02490
  1.1650    0.02880
  1.1670    0.03260
  1.1690    0.03610
  1.1710    0.03930
  1.1730    0.04230
  1.1750    0.04500
  1.1770    0.04750
  1.1790    0.04970
  1.1810    0.05150
  1.1830    0.05320
  1.1850    0.05470
  1.1870    0.05600
  1.1890    0.05700
  1.1910    0.05780
  1.1930    0.05850
  1.1950    0.05910
  1.1970    0.05950
  1.1990    0.05970
  1.2010    0.05960
  1.2030    0.05930
  1.2050    0.05880
  1.2070    0.05820
  1.2090    0.05760
  1.2110    0.05680
  1.2130    0.05590
  1.2150    0.05490
  1.2170    0.05370
  1.2190    0.05230
  1.2210    0.05090
  1.2230    0.04940
  1.2250    0.04780
  1.2270    0.04620
  1.2290    0.04460
  1.2310    0.04290
  1.2330    0.04110
  1.2350    0.03920
  1.2370    0.03730
  1.2390    0.03540
  1.2410    0.03340
  1.2430    0.03150
  1.2450    0.02960
  1.2470    0.02760
  1.2490    0.02550
  1.2510    0.02350
  1.2530    0.02160
  1.2550    0.01970
  1.2570    0.01790
  1.2590    0.01610
  1.2610    0.01420
  1.2630    0.01240
  1.2650    0.01050
  1.2670    0.00860
  1.2690    0.00660
  1.2710    0.00470
  1.2730    0.00290
  1.2750    0.00120
  1.2770   -0.00040
  1.2790   -0.00220
  1.2810   -0.00400
  1.2830   -0.00570
  1.2850   -0.00730
  1.2870   -0.00890
  1.2890   -0.01070
  1.2910   -0.01230
  1.2930   -0.01390
  1.2950   -0.01540
  1.2970   -0.01700
  1.2990   -0.01850
  1.3010   -0.02010
  1.3030   -0.02160
  1.3050   -0.02310
  1.3070   -0.02460
  1.3090   -0.02620
  1.3110   -0.02770
  1.3130   -0.02920
  1.3150   -0.03050
  1.3170   -0.03170
  1.3190   -0.03290
  1.3210   -0.03420
  1.3230   -0.03530
  1.3250   -0.03640
  1.3270   -0.03740
  1.3290   -0.03830
  1.3310   -0.03900
  1.3330   -0.03970
  1.3350   -0.04020
  1.3370   -0.04050
  1.3390   -0.04070
  1.3410   -0.04090
  1.3430   -0.04090
  1.3450   -0.04070
  1.3470   -0.04030
  1.3490   -0.03980
  1.3510   -0.03920
  1.3530   -0.03840
  1.3550   -0.03750
  1.3570   -0.03630
  1.3590   -0.03490
  1.3610   -0.03330
  1.3630   -0.03160
  1.3650   -0.02990
  1.3670   -0.02800
  1.3690   -0.02570
  1.3710   -0.02300
  1.3730   -0.02030
  1.3750   -0.01750
  1.3770   -0.01460
  1.3790   -0.01150
  1.3810   -0.00840
  1.3830   -0.00520
  1.3850   -0.00210
  1.3870    0.00120
  1.3890    0.00470
  1.3910    0.00820
  1.3930    0.01140
  1.3950    0.01440
  1.3970    0.01720
  1.3990    0.01960
