# z (nm)   (kJ/mol)
  0.231000, 13.978500
  0.237000, 13.640900
  0.241000, 12.963800
  0.243000, 12.548800
  0.245000, 12.121100
  0.247000, 11.677800
  0.249000, 11.228100
  0.251000, 10.782800
  0.253000, 10.327900
  0.255000,  9.856900
  0.257000,  9.372400
  0.259000,  8.897900
  0.261000,  8.432800
  0.263000,  7.954800
  0.265000,  7.465000
  0.267000,  6.971400
  0.269000,  6.478600
  0.271000,  5.990600
  0.273000,  5.498200
  0.275000,  5.007100
  0.277000,  4.517200
  0.279000,  4.025000
  0.281000,  3.542200
  0.283000,  3.061400
  0.285000,  2.577800
  0.287000,  2.093700
  0.289000,  1.615700
  0.291000,  1.145200
  0.293000,  0.680800
  0.295000,  0.225100
  0.297000, -0.225600
  0.299000, -0.670800
  0.301000, -1.117300
  0.303000, -1.558900
  0.305000, -1.986600
  0.307000, -2.402800
  0.309000, -2.813400
  0.311000, -3.216000
  0.313000, -3.607800
  0.315000, -3.992400
  0.317000, -4.368200
  0.319000, -4.732500
  0.321000, -5.085600
  0.323000, -5.427900
  0.325000, -5.760200
  0.327000, -6.083600
  0.329000, -6.396800
  0.331000, -6.698000
  0.333000, -6.986600
  0.335000, -7.264100
  0.337000, -7.529300
  0.339000, -7.782300
  0.341000, -8.023900
  0.343000, -8.252900
  0.345000, -8.469200
  0.347000, -8.673100
  0.349000, -8.864000
  0.351000, -9.042700
  0.353000, -9.209200
  0.355000, -9.362500
  0.357000, -9.502400
  0.359000, -9.630300
  0.361000, -9.746500
  0.363000, -9.849600
  0.365000, -9.940700
  0.367000,-10.020300
  0.369000,-10.087500
  0.371000,-10.143000
  0.373000,-10.187300
  0.375000,-10.220100
  0.377000,-10.241600
  0.379000,-10.253300
  0.381000,-10.254700
  0.383000,-10.245800
  0.385000,-10.228100
  0.387000,-10.201200
  0.389000,-10.165700
  0.391000,-10.121500
  0.393000,-10.069700
  0.395000,-10.011000
  0.397000, -9.944400
  0.399000, -9.870800
  0.401000, -9.790700
  0.403000, -9.704600
  0.405000, -9.612400
  0.407000, -9.514800
  0.409000, -9.412000
  0.411000, -9.304500
  0.413000, -9.193200
  0.415000, -9.077800
  0.417000, -8.958300
  0.419000, -8.835100
  0.421000, -8.708500
  0.423000, -8.579100
  0.425000, -8.446900
  0.427000, -8.312100
  0.429000, -8.174500
  0.431000, -8.034600
  0.433000, -7.892800
  0.435000, -7.749100
  0.437000, -7.603400
  0.439000, -7.456200
  0.441000, -7.307400
  0.443000, -7.157000
  0.445000, -7.005700
  0.447000, -6.852900
  0.449000, -6.698500
  0.451000, -6.543100
  0.453000, -6.386900
  0.455000, -6.229800
  0.457000, -6.071700
  0.459000, -5.912700
  0.461000, -5.752900
  0.463000, -5.592300
  0.465000, -5.431200
  0.467000, -5.269700
  0.469000, -5.107500
  0.471000, -4.944900
  0.473000, -4.781700
  0.475000, -4.617900
  0.477000, -4.453900
  0.479000, -4.289700
  0.481000, -4.125200
  0.483000, -3.960400
  0.485000, -3.795600
  0.487000, -3.630800
  0.489000, -3.466400
  0.491000, -3.302400
  0.493000, -3.138400
  0.495000, -2.975000
  0.497000, -2.811800
  0.499000, -2.649100
  0.501000, -2.487700
  0.503000, -2.327200
  0.505000, -2.167600
  0.507000, -2.009600
  0.509000, -1.853100
  0.511000, -1.697800
  0.513000, -1.544300
  0.515000, -1.392300
  0.517000, -1.241800
  0.519000, -1.094000
  0.521000, -0.948800
  0.523000, -0.805700
  0.525000, -0.664800
  0.527000, -0.526400
  0.529000, -0.391500
  0.531000, -0.260400
  0.533000, -0.132600
  0.535000, -0.008500
  0.537000,  0.112300
  0.539000,  0.229200
  0.541000,  0.341500
  0.543000,  0.450100
  0.545000,  0.554400
  0.547000,  0.653400
  0.549000,  0.747700
  0.551000,  0.837500
  0.553000,  0.922200
  0.555000,  1.001300
  0.557000,  1.075900
  0.559000,  1.146100
  0.561000,  1.210600
  0.563000,  1.269400
  0.565000,  1.323100
  0.567000,  1.371800
  0.569000,  1.415200
  0.571000,  1.453400
  0.573000,  1.486300
  0.575000,  1.513800
  0.577000,  1.536200
  0.579000,  1.553100
  0.581000,  1.564800
  0.583000,  1.571700
  0.585000,  1.573600
  0.587000,  1.570200
  0.589000,  1.561800
  0.591000,  1.548300
  0.593000,  1.530000
  0.595000,  1.507700
  0.597000,  1.481300
  0.599000,  1.450400
  0.601000,  1.415700
  0.603000,  1.378000
  0.605000,  1.337000
  0.607000,  1.292100
  0.609000,  1.243700
  0.611000,  1.192600
  0.613000,  1.138900
  0.615000,  1.081900
  0.617000,  1.022200
  0.619000,  0.961000
  0.621000,  0.898100
  0.623000,  0.833300
  0.625000,  0.767700
  0.627000,  0.700900
  0.629000,  0.633600
  0.631000,  0.565400
  0.633000,  0.496000
  0.635000,  0.425600
  0.637000,  0.354800
  0.639000,  0.284800
  0.641000,  0.214700
  0.643000,  0.144600
  0.645000,  0.075200
  0.647000,  0.006400
  0.649000, -0.061400
  0.651000, -0.127900
  0.653000, -0.192900
  0.655000, -0.256900
  0.657000, -0.319900
  0.659000, -0.381200
  0.661000, -0.440700
  0.663000, -0.498600
  0.665000, -0.554800
  0.667000, -0.609300
  0.669000, -0.661900
  0.671000, -0.712300
  0.673000, -0.760500
  0.675000, -0.806700
  0.677000, -0.850700
  0.679000, -0.892400
  0.681000, -0.932200
  0.683000, -0.969900
  0.685000, -1.005300
  0.687000, -1.038300
  0.689000, -1.068900
  0.691000, -1.097100
  0.693000, -1.123300
  0.695000, -1.147300
  0.697000, -1.168900
  0.699000, -1.188300
  0.701000, -1.205600
  0.703000, -1.220700
  0.705000, -1.233800
  0.707000, -1.244700
  0.709000, -1.253500
  0.711000, -1.260300
  0.713000, -1.265300
  0.715000, -1.268400
  0.717000, -1.269400
  0.719000, -1.268700
  0.721000, -1.266100
  0.723000, -1.261900
  0.725000, -1.256000
  0.727000, -1.248500
  0.729000, -1.239500
  0.731000, -1.229200
  0.733000, -1.217400
  0.735000, -1.204300
  0.737000, -1.190000
  0.739000, -1.174200
  0.741000, -1.157400
  0.743000, -1.139700
  0.745000, -1.120800
  0.747000, -1.100800
  0.749000, -1.079800
  0.751000, -1.057900
  0.753000, -1.035300
  0.755000, -1.011700
  0.757000, -0.987400
  0.759000, -0.962300
  0.761000, -0.936600
  0.763000, -0.910200
  0.765000, -0.883300
  0.767000, -0.856000
  0.769000, -0.828000
  0.771000, -0.799700
  0.773000, -0.771100
  0.775000, -0.742100
  0.777000, -0.712800
  0.779000, -0.683400
  0.781000, -0.653400
  0.783000, -0.623300
  0.785000, -0.593300
  0.787000, -0.563200
  0.789000, -0.532900
  0.791000, -0.502600
  0.793000, -0.472300
  0.795000, -0.442100
  0.797000, -0.412200
  0.799000, -0.382100
  0.801000, -0.352200
  0.803000, -0.322500
  0.805000, -0.293100
  0.807000, -0.263900
  0.809000, -0.235200
  0.811000, -0.206800
  0.813000, -0.178800
  0.815000, -0.151200
  0.817000, -0.123800
  0.819000, -0.097100
  0.821000, -0.070800
  0.823000, -0.044800
  0.825000, -0.019400
  0.827000,  0.005200
  0.829000,  0.029300
  0.831000,  0.052700
  0.833000,  0.075500
  0.835000,  0.097800
  0.837000,  0.119300
  0.839000,  0.140100
  0.841000,  0.160100
  0.843000,  0.179400
  0.845000,  0.197800
  0.847000,  0.215400
  0.849000,  0.232400
  0.851000,  0.248400
  0.853000,  0.263600
  0.855000,  0.278000
  0.857000,  0.291500
  0.859000,  0.304100
  0.861000,  0.315800
  0.863000,  0.326500
  0.865000,  0.336400
  0.867000,  0.345400
  0.869000,  0.353700
  0.871000,  0.360900
  0.873000,  0.367300
  0.875000,  0.372700
  0.877000,  0.377300
  0.879000,  0.381100
  0.881000,  0.384000
  0.883000,  0.385900
  0.885000,  0.386800
  0.887000,  0.386800
  0.889000,  0.386200
  0.891000,  0.384600
  0.893000,  0.382200
  0.895000,  0.379100
  0.897000,  0.375200
  0.899000,  0.370600
  0.901000,  0.365400
  0.903000,  0.359300
  0.905000,  0.352500
  0.907000,  0.345100
  0.909000,  0.337000
  0.911000,  0.328400
  0.913000,  0.319200
  0.915000,  0.309400
  0.917000,  0.299200
  0.919000,  0.288500
  0.921000,  0.277300
  0.923000,  0.265800
  0.925000,  0.253800
  0.927000,  0.241400
  0.929000,  0.228700
  0.931000,  0.215700
  0.933000,  0.202500
  0.935000,  0.189100
  0.937000,  0.175400
  0.939000,  0.161400
  0.941000,  0.147400
  0.943000,  0.133200
  0.945000,  0.118900
  0.947000,  0.104400
  0.949000,  0.089900
  0.951000,  0.075400
  0.953000,  0.061000
  0.955000,  0.046300
  0.957000,  0.031700
  0.959000,  0.017300
  0.961000,  0.002800
  0.963000, -0.011600
  0.965000, -0.026000
  0.967000, -0.040200
  0.969000, -0.054100
  0.971000, -0.067900
  0.973000, -0.081600
  0.975000, -0.095100
  0.977000, -0.108400
  0.979000, -0.121600
  0.981000, -0.134500
  0.983000, -0.147300
  0.985000, -0.159700
  0.987000, -0.171800
  0.989000, -0.183700
  0.991000, -0.195100
  0.993000, -0.206300
  0.995000, -0.217200
  0.997000, -0.227800
  0.999000, -0.238100
  1.001000, -0.248000
  1.003000, -0.257600
  1.005000, -0.266800
  1.007000, -0.275700
  1.009000, -0.284100
  1.011000, -0.292100
  1.013000, -0.299700
  1.015000, -0.306800
  1.017000, -0.313600
  1.019000, -0.319900
  1.021000, -0.325700
  1.023000, -0.331100
  1.025000, -0.336000
  1.027000, -0.340400
  1.029000, -0.344300
  1.031000, -0.347700
  1.033000, -0.350700
  1.035000, -0.353200
  1.037000, -0.355200
  1.039000, -0.356800
  1.041000, -0.357800
  1.043000, -0.358400
  1.045000, -0.358400
  1.047000, -0.358000
  1.049000, -0.357200
  1.051000, -0.356000
  1.053000, -0.354300
  1.055000, -0.352100
  1.057000, -0.349500
  1.059000, -0.346400
  1.061000, -0.342800
  1.063000, -0.338800
  1.065000, -0.334500
  1.067000, -0.329700
  1.069000, -0.324700
  1.071000, -0.319100
  1.073000, -0.312900
  1.075000, -0.306600
  1.077000, -0.300200
  1.079000, -0.293300
  1.081000, -0.285900
  1.083000, -0.278400
  1.085000, -0.270800
  1.087000, -0.263000
  1.089000, -0.254900
  1.091000, -0.246700
  1.093000, -0.238300
  1.095000, -0.229800
  1.097000, -0.221000
  1.099000, -0.212100
  1.101000, -0.203400
  1.103000, -0.194500
  1.105000, -0.185500
  1.107000, -0.176500
  1.109000, -0.167600
  1.111000, -0.158600
  1.113000, -0.149500
  1.115000, -0.140500
  1.117000, -0.131700
  1.119000, -0.122800
  1.121000, -0.113900
  1.123000, -0.105300
  1.125000, -0.097000
  1.127000, -0.088700
  1.129000, -0.080500
  1.131000, -0.072500
  1.133000, -0.064700
  1.135000, -0.057200
  1.137000, -0.049800
  1.139000, -0.042600
  1.141000, -0.035600
  1.143000, -0.028800
  1.145000, -0.022200
  1.147000, -0.016000
  1.149000, -0.010100
  1.151000, -0.004500
  1.153000,  0.001000
  1.155000,  0.006300
  1.157000,  0.011400
  1.159000,  0.016200
  1.161000,  0.020700
  1.163000,  0.024900
  1.165000,  0.028800
  1.167000,  0.032600
  1.169000,  0.036100
  1.171000,  0.039300
  1.173000,  0.042300
  1.175000,  0.045000
  1.177000,  0.047500
  1.179000,  0.049700
  1.181000,  0.051500
  1.183000,  0.053200
  1.185000,  0.054700
  1.187000,  0.056000
  1.189000,  0.057000
  1.191000,  0.057800
  1.193000,  0.058500
  1.195000,  0.059100
  1.197000,  0.059500
  1.199000,  0.059700
  1.201000,  0.059600
  1.203000,  0.059300
  1.205000,  0.058800
  1.207000,  0.058200
  1.209000,  0.057600
  1.211000,  0.056800
  1.213000,  0.055900
  1.215000,  0.054900
  1.217000,  0.053700
  1.219000,  0.052300
  1.221000,  0.050900
  1.223000,  0.049400
  1.225000,  0.047800
  1.227000,  0.046200
  1.229000,  0.044600
  1.231000,  0.042900
  1.233000,  0.041100
  1.235000,  0.039200
  1.237000,  0.037300
  1.239000,  0.035400
  1.241000,  0.033400
  1.243000,  0.031500
  1.245000,  0.029600
  1.247000,  0.027600
  1.249000,  0.025500
  1.251000,  0.023500
  1.253000,  0.021600
  1.255000,  0.019700
  1.257000,  0.017900
  1.259000,  0.016100
  1.261000,  0.014200
  1.263000,  0.012400
  1.265000,  0.010500
  1.267000,  0.008600
  1.269000,  0.006600
  1.271000,  0.004700
  1.273000,  0.002900
  1.275000,  0.001200
  1.277000, -0.000400
  1.279000, -0.002200
  1.281000, -0.004000
  1.283000, -0.005700
  1.285000, -0.007300
  1.287000, -0.008900
  1.289000, -0.010700
  1.291000, -0.012300
  1.293000, -0.013900
  1.295000, -0.015400
  1.297000, -0.017000
  1.299000, -0.018500
  1.301000, -0.020100
  1.303000, -0.021600
  1.305000, -0.023100
  1.307000, -0.024600
  1.309000, -0.026200
  1.311000, -0.027700
  1.313000, -0.029200
  1.315000, -0.030500
  1.317000, -0.031700
  1.319000, -0.032900
  1.321000, -0.034200
  1.323000, -0.035300
  1.325000, -0.036400
  1.327000, -0.037400
  1.329000, -0.038300
  1.331000, -0.039000
  1.333000, -0.039700
  1.335000, -0.040200
  1.337000, -0.040500
  1.339000, -0.040700
  1.341000, -0.040900
  1.343000, -0.040900
  1.345000, -0.040700
  1.347000, -0.040300
  1.349000, -0.039800
  1.351000, -0.039200
  1.353000, -0.038400
  1.355000, -0.037500
  1.357000, -0.036300
  1.359000, -0.034900
  1.361000, -0.033300
  1.363000, -0.031600
  1.365000, -0.029900
  1.367000, -0.028000
  1.369000, -0.025700
  1.371000, -0.023000
  1.373000, -0.020300
  1.375000, -0.017500
  1.377000, -0.014600
  1.379000, -0.011500
  1.381000, -0.008400
  1.383000, -0.005200
  1.385000, -0.002100
  1.387000,  0.001200
  1.389000,  0.004700
  1.391000,  0.008200
  1.393000,  0.011400
  1.395000,  0.014400
  1.397000,  0.017200
  1.399000,  0.019600
