# z (nm)   (kJ/mol)
  0.217000,  6.109200
  0.219000,  5.461200
  0.223000,  4.095200
  0.225000,  3.466300
  0.227000,  2.812800
  0.229000,  2.117100
  0.231000,  1.403400
  0.233000,  0.650200
  0.235000, -0.105700
  0.237000, -0.854100
  0.239000, -1.609600
  0.241000, -2.377900
  0.243000, -3.145600
  0.245000, -3.913100
  0.247000, -4.708100
  0.249000, -5.508200
  0.251000, -6.290900
  0.253000, -7.078000
  0.255000, -7.872900
  0.257000, -8.670100
  0.259000, -9.467800
  0.261000,-10.259400
  0.263000,-11.045000
  0.265000,-11.828400
  0.267000,-12.609600
  0.269000,-13.383900
  0.271000,-14.151600
  0.273000,-14.911200
  0.275000,-15.656300
  0.277000,-16.387800
  0.279000,-17.109800
  0.281000,-17.821100
  0.283000,-18.516400
  0.285000,-19.195200
  0.287000,-19.860100
  0.289000,-20.508700
  0.291000,-21.140800
  0.293000,-21.753900
  0.295000,-22.346500
  0.297000,-22.919000
  0.299000,-23.471300
  0.301000,-23.999300
  0.303000,-24.503800
  0.305000,-24.987000
  0.307000,-25.444800
  0.309000,-25.876800
  0.311000,-26.284300
  0.313000,-26.665400
  0.315000,-27.019200
  0.317000,-27.345400
  0.319000,-27.643000
  0.321000,-27.912600
  0.323000,-28.153800
  0.325000,-28.366000
  0.327000,-28.549200
  0.329000,-28.703000
  0.331000,-28.827700
  0.333000,-28.923000
  0.335000,-28.990200
  0.337000,-29.029400
  0.339000,-29.040900
  0.341000,-29.023900
  0.343000,-28.979900
  0.345000,-28.910300
  0.347000,-28.814800
  0.349000,-28.694300
  0.351000,-28.550400
  0.353000,-28.384300
  0.355000,-28.195500
  0.357000,-27.985200
  0.359000,-27.754400
  0.361000,-27.503700
  0.363000,-27.236000
  0.365000,-26.952400
  0.367000,-26.653900
  0.369000,-26.341700
  0.371000,-26.016100
  0.373000,-25.679300
  0.375000,-25.332500
  0.377000,-24.976000
  0.379000,-24.612000
  0.381000,-24.241100
  0.383000,-23.864600
  0.385000,-23.483900
  0.387000,-23.100000
  0.389000,-22.713500
  0.391000,-22.326000
  0.393000,-21.938200
  0.395000,-21.551800
  0.397000,-21.167200
  0.399000,-20.785600
  0.401000,-20.407900
  0.403000,-20.034700
  0.405000,-19.666600
  0.407000,-19.304300
  0.409000,-18.948600
  0.411000,-18.600000
  0.413000,-18.259100
  0.415000,-17.926600
  0.417000,-17.602400
  0.419000,-17.286900
  0.421000,-16.980700
  0.423000,-16.684200
  0.425000,-16.397200
  0.427000,-16.119100
  0.429000,-15.850200
  0.431000,-15.591000
  0.433000,-15.341400
  0.435000,-15.101500
  0.437000,-14.871000
  0.439000,-14.649100
  0.441000,-14.436300
  0.443000,-14.232300
  0.445000,-14.036000
  0.447000,-13.848300
  0.449000,-13.668300
  0.451000,-13.495200
  0.453000,-13.329500
  0.455000,-13.170500
  0.457000,-13.017000
  0.459000,-12.868900
  0.461000,-12.726500
  0.463000,-12.589100
  0.465000,-12.455100
  0.467000,-12.325000
  0.469000,-12.198400
  0.471000,-12.074900
  0.473000,-11.953900
  0.475000,-11.834600
  0.477000,-11.717100
  0.479000,-11.601400
  0.481000,-11.486200
  0.483000,-11.371600
  0.485000,-11.257500
  0.487000,-11.143500
  0.489000,-11.029400
  0.491000,-10.914800
  0.493000,-10.799400
  0.495000,-10.683400
  0.497000,-10.566200
  0.499000,-10.447900
  0.501000,-10.328500
  0.503000,-10.207800
  0.505000,-10.085800
  0.507000, -9.962100
  0.509000, -9.837000
  0.511000, -9.710700
  0.513000, -9.583400
  0.515000, -9.454600
  0.517000, -9.325000
  0.519000, -9.194300
  0.521000, -9.062400
  0.523000, -8.929600
  0.525000, -8.796000
  0.527000, -8.662000
  0.529000, -8.527600
  0.531000, -8.393000
  0.533000, -8.258000
  0.535000, -8.122900
  0.537000, -7.988000
  0.539000, -7.853200
  0.541000, -7.718800
  0.543000, -7.585800
  0.545000, -7.453600
  0.547000, -7.322600
  0.549000, -7.192800
  0.551000, -7.063900
  0.553000, -6.936200
  0.555000, -6.810200
  0.557000, -6.686000
  0.559000, -6.563600
  0.561000, -6.442900
  0.563000, -6.323900
  0.565000, -6.207200
  0.567000, -6.092600
  0.569000, -5.979800
  0.571000, -5.869100
  0.573000, -5.760500
  0.575000, -5.654100
  0.577000, -5.549400
  0.579000, -5.446900
  0.581000, -5.346300
  0.583000, -5.247300
  0.585000, -5.149700
  0.587000, -5.053600
  0.589000, -4.959200
  0.591000, -4.866700
  0.593000, -4.775900
  0.595000, -4.686200
  0.597000, -4.597900
  0.599000, -4.510800
  0.601000, -4.424700
  0.603000, -4.339700
  0.605000, -4.255500
  0.607000, -4.171900
  0.609000, -4.089000
  0.611000, -4.006800
  0.613000, -3.925100
  0.615000, -3.844000
  0.617000, -3.762900
  0.619000, -3.681700
  0.621000, -3.601100
  0.623000, -3.520900
  0.625000, -3.440900
  0.627000, -3.361200
  0.629000, -3.281800
  0.631000, -3.202400
  0.633000, -3.123000
  0.635000, -3.044100
  0.637000, -2.965800
  0.639000, -2.887400
  0.641000, -2.809100
  0.643000, -2.731000
  0.645000, -2.653000
  0.647000, -2.575600
  0.649000, -2.498600
  0.651000, -2.422100
  0.653000, -2.346200
  0.655000, -2.271600
  0.657000, -2.197800
  0.659000, -2.125000
  0.661000, -2.052500
  0.663000, -1.980900
  0.665000, -1.910900
  0.667000, -1.842700
  0.669000, -1.776200
  0.671000, -1.711200
  0.673000, -1.648600
  0.675000, -1.587800
  0.677000, -1.528500
  0.679000, -1.471200
  0.681000, -1.415700
  0.683000, -1.362400
  0.685000, -1.311300
  0.687000, -1.262800
  0.689000, -1.217000
  0.691000, -1.173200
  0.693000, -1.131700
  0.695000, -1.092900
  0.697000, -1.056700
  0.699000, -1.022900
  0.701000, -0.991600
  0.703000, -0.963000
  0.705000, -0.937100
  0.707000, -0.913500
  0.709000, -0.892300
  0.711000, -0.873700
  0.713000, -0.857500
  0.715000, -0.843600
  0.717000, -0.832100
  0.719000, -0.822800
  0.721000, -0.815400
  0.723000, -0.810500
  0.725000, -0.807800
  0.727000, -0.806900
  0.729000, -0.807100
  0.731000, -0.808600
  0.733000, -0.812000
  0.735000, -0.817300
  0.737000, -0.824100
  0.739000, -0.832600
  0.741000, -0.842600
  0.743000, -0.853300
  0.745000, -0.864300
  0.747000, -0.876000
  0.749000, -0.888800
  0.751000, -0.902300
  0.753000, -0.916100
  0.755000, -0.930300
  0.757000, -0.944900
  0.759000, -0.959400
  0.761000, -0.974100
  0.763000, -0.988800
  0.765000, -1.002600
  0.767000, -1.016000
  0.769000, -1.029600
  0.771000, -1.042600
  0.773000, -1.054700
  0.775000, -1.066300
  0.777000, -1.077600
  0.779000, -1.088200
  0.781000, -1.097600
  0.783000, -1.105900
  0.785000, -1.113600
  0.787000, -1.120300
  0.789000, -1.126000
  0.791000, -1.130700
  0.793000, -1.134100
  0.795000, -1.136300
  0.797000, -1.137400
  0.799000, -1.137400
  0.801000, -1.136200
  0.803000, -1.133900
  0.805000, -1.130500
  0.807000, -1.125800
  0.809000, -1.120100
  0.811000, -1.113400
  0.813000, -1.105600
  0.815000, -1.096700
  0.817000, -1.086900
  0.819000, -1.076000
  0.821000, -1.064000
  0.823000, -1.051300
  0.825000, -1.037600
  0.827000, -1.023000
  0.829000, -1.007600
  0.831000, -0.991500
  0.833000, -0.974800
  0.835000, -0.957300
  0.837000, -0.939000
  0.839000, -0.920000
  0.841000, -0.900400
  0.843000, -0.880700
  0.845000, -0.860700
  0.847000, -0.840600
  0.849000, -0.820600
  0.851000, -0.800100
  0.853000, -0.779100
  0.855000, -0.757800
  0.857000, -0.736600
  0.859000, -0.715700
  0.861000, -0.694800
  0.863000, -0.673700
  0.865000, -0.652400
  0.867000, -0.631600
  0.869000, -0.611000
  0.871000, -0.590100
  0.873000, -0.569700
  0.875000, -0.549900
  0.877000, -0.530200
  0.879000, -0.510600
  0.881000, -0.491600
  0.883000, -0.473100
  0.885000, -0.455000
  0.887000, -0.437200
  0.889000, -0.420000
  0.891000, -0.403100
  0.893000, -0.386600
  0.895000, -0.370600
  0.897000, -0.355000
  0.899000, -0.340100
  0.901000, -0.325800
  0.903000, -0.311800
  0.905000, -0.298400
  0.907000, -0.285600
  0.909000, -0.273300
  0.911000, -0.261400
  0.913000, -0.250000
  0.915000, -0.239100
  0.917000, -0.228700
  0.919000, -0.218600
  0.921000, -0.209100
  0.923000, -0.200000
  0.925000, -0.191300
  0.927000, -0.183200
  0.929000, -0.175500
  0.931000, -0.168100
  0.933000, -0.161100
  0.935000, -0.154500
  0.937000, -0.148400
  0.939000, -0.142600
  0.941000, -0.137100
  0.943000, -0.131900
  0.945000, -0.127000
  0.947000, -0.122500
  0.949000, -0.118200
  0.951000, -0.114200
  0.953000, -0.110600
  0.955000, -0.107200
  0.957000, -0.103900
  0.959000, -0.100800
  0.961000, -0.098100
  0.963000, -0.095400
  0.965000, -0.092900
  0.967000, -0.090600
  0.969000, -0.088700
  0.971000, -0.086700
  0.973000, -0.084800
  0.975000, -0.082900
  0.977000, -0.081100
  0.979000, -0.079500
  0.981000, -0.078000
  0.983000, -0.076800
  0.985000, -0.075700
  0.987000, -0.074700
  0.989000, -0.073700
  0.991000, -0.072700
  0.993000, -0.071800
  0.995000, -0.071100
  0.997000, -0.070400
  0.999000, -0.069700
  1.001000, -0.069200
  1.003000, -0.069000
  1.005000, -0.068700
  1.007000, -0.068400
  1.009000, -0.068400
  1.011000, -0.068500
  1.013000, -0.068800
  1.015000, -0.069100
  1.017000, -0.069600
  1.019000, -0.070000
  1.021000, -0.070600
  1.023000, -0.071400
  1.025000, -0.072300
  1.027000, -0.073200
  1.029000, -0.074200
  1.031000, -0.075200
  1.033000, -0.076300
  1.035000, -0.077500
  1.037000, -0.078900
  1.039000, -0.080300
  1.041000, -0.081900
  1.043000, -0.083600
  1.045000, -0.085500
  1.047000, -0.087400
  1.049000, -0.089500
  1.051000, -0.091400
  1.053000, -0.093500
  1.055000, -0.095500
  1.057000, -0.097600
  1.059000, -0.099700
  1.061000, -0.101800
  1.063000, -0.103900
  1.065000, -0.106100
  1.067000, -0.108400
  1.069000, -0.110600
  1.071000, -0.112900
  1.073000, -0.115100
  1.075000, -0.117400
  1.077000, -0.119300
  1.079000, -0.121200
  1.081000, -0.123200
  1.083000, -0.125100
  1.085000, -0.126800
  1.087000, -0.128600
  1.089000, -0.130200
  1.091000, -0.131500
  1.093000, -0.132800
  1.095000, -0.134000
  1.097000, -0.135100
  1.099000, -0.135900
  1.101000, -0.136700
  1.103000, -0.137300
  1.105000, -0.137800
  1.107000, -0.138100
  1.109000, -0.138200
  1.111000, -0.138100
  1.113000, -0.137800
  1.115000, -0.137200
  1.117000, -0.136600
  1.119000, -0.135800
  1.121000, -0.134700
  1.123000, -0.133600
  1.125000, -0.132300
  1.127000, -0.130700
  1.129000, -0.129000
  1.131000, -0.127400
  1.133000, -0.125600
  1.135000, -0.123600
  1.137000, -0.121500
  1.139000, -0.119400
  1.141000, -0.117000
  1.143000, -0.114700
  1.145000, -0.112500
  1.147000, -0.110000
  1.149000, -0.107300
  1.151000, -0.104700
  1.153000, -0.102200
  1.155000, -0.099400
  1.157000, -0.096400
  1.159000, -0.093400
  1.161000, -0.090400
  1.163000, -0.087400
  1.165000, -0.084400
  1.167000, -0.081400
  1.169000, -0.078300
  1.171000, -0.075100
  1.173000, -0.071900
  1.175000, -0.068700
  1.177000, -0.065700
  1.179000, -0.062700
  1.181000, -0.059700
  1.183000, -0.056800
  1.185000, -0.053900
  1.187000, -0.051000
  1.189000, -0.048100
  1.191000, -0.045300
  1.193000, -0.042500
  1.195000, -0.039800
  1.197000, -0.037100
  1.199000, -0.034500
  1.201000, -0.031900
  1.203000, -0.029400
  1.205000, -0.026900
  1.207000, -0.024700
  1.209000, -0.022600
  1.211000, -0.020600
  1.213000, -0.018500
  1.215000, -0.016500
  1.217000, -0.014400
  1.219000, -0.012200
  1.221000, -0.010300
  1.223000, -0.008400
  1.225000, -0.006700
  1.227000, -0.005100
  1.229000, -0.003400
  1.231000, -0.001700
  1.233000, -0.000200
  1.235000,  0.001100
  1.237000,  0.002300
  1.239000,  0.003400
  1.241000,  0.004600
  1.243000,  0.005800
  1.245000,  0.006600
  1.247000,  0.007500
  1.249000,  0.008500
  1.251000,  0.009300
  1.253000,  0.009900
  1.255000,  0.010700
  1.257000,  0.011300
  1.259000,  0.011700
  1.261000,  0.012200
  1.263000,  0.012700
  1.265000,  0.013000
  1.267000,  0.013300
  1.269000,  0.013200
  1.271000,  0.013100
  1.273000,  0.013000
  1.275000,  0.012800
  1.277000,  0.012600
  1.279000,  0.012200
  1.281000,  0.011800
  1.283000,  0.011300
  1.285000,  0.010900
  1.287000,  0.010200
  1.289000,  0.009500
  1.291000,  0.008800
  1.293000,  0.007900
  1.295000,  0.007100
  1.297000,  0.006300
  1.299000,  0.005400
  1.301000,  0.004500
  1.303000,  0.003700
  1.305000,  0.002800
  1.307000,  0.001900
  1.309000,  0.001100
  1.311000,  0.000200
  1.313000, -0.000700
  1.315000, -0.001600
  1.317000, -0.002400
  1.319000, -0.003300
  1.321000, -0.004200
  1.323000, -0.004900
  1.325000, -0.005700
  1.327000, -0.006400
  1.329000, -0.007000
  1.331000, -0.007600
  1.333000, -0.008000
  1.335000, -0.008400
  1.337000, -0.008700
  1.339000, -0.009000
  1.341000, -0.009200
  1.343000, -0.009200
  1.345000, -0.009200
  1.347000, -0.009100
  1.349000, -0.009000
  1.351000, -0.008600
  1.353000, -0.008200
  1.355000, -0.007800
  1.357000, -0.007000
  1.359000, -0.006300
  1.361000, -0.005600
  1.363000, -0.004600
  1.365000, -0.003600
  1.367000, -0.002600
  1.369000, -0.001500
  1.371000, -0.000000
  1.373000,  0.001500
  1.375000,  0.002700
  1.377000,  0.003800
  1.379000,  0.005100
  1.381000,  0.006500
  1.383000,  0.007900
  1.385000,  0.009300
  1.387000,  0.010600
  1.389000,  0.011700
  1.391000,  0.012800
  1.393000,  0.014000
  1.395000,  0.015200
  1.397000,  0.015800
  1.399000,  0.016000
