# z (nm)   (kJ/mol)
  0.2170    6.10920
  0.2190    5.46120
  0.2230    4.09520
  0.2250    3.46630
  0.2270    2.81280
  0.2290    2.11710
  0.2310    1.40340
  0.2330    0.65020
  0.2350   -0.10570
  0.2370   -0.85410
  0.2390   -1.60960
  0.2410   -2.37790
  0.2430   -3.14560
  0.2450   -3.91310
  0.2470   -4.70810
  0.2490   -5.50820
  0.2510   -6.29090
  0.2530   -7.07800
  0.2550   -7.87290
  0.2570   -8.67010
  0.2590   -9.46780
  0.2610  -10.25940
  0.2630  -11.04500
  0.2650  -11.82840
  0.2670  -12.60960
  0.2690  -13.38390
  0.2710  -14.15160
  0.2730  -14.91120
  0.2750  -15.65630
  0.2770  -16.38780
  0.2790  -17.10980
  0.2810  -17.82110
  0.2830  -18.51640
  0.2850  -19.19520
  0.2870  -19.86010
  0.2890  -20.50870
  0.2910  -21.14080
  0.2930  -21.75390
  0.2950  -22.34650
  0.2970  -22.91900
  0.2990  -23.47130
  0.3010  -23.99930
  0.3030  -24.50380
  0.3050  -24.98700
  0.3070  -25.44480
  0.3090  -25.87680
  0.3110  -26.28430
  0.3130  -26.66540
  0.3150  -27.01920
  0.3170  -27.34540
  0.3190  -27.64300
  0.3210  -27.91260
  0.3230  -28.15380
  0.3250  -28.36600
  0.3270  -28.54920
  0.3290  -28.70300
  0.3310  -28.82770
  0.3330  -28.92300
  0.3350  -28.99020
  0.3370  -29.02940
  0.3390  -29.04090
  0.3410  -29.02390
  0.3430  -28.97990
  0.3450  -28.91030
  0.3470  -28.81480
  0.3490  -28.69430
  0.3510  -28.55040
  0.3530  -28.38430
  0.3550  -28.19550
  0.3570  -27.98520
  0.3590  -27.75440
  0.3610  -27.50370
  0.3630  -27.23600
  0.3650  -26.95240
  0.3670  -26.65390
  0.3690  -26.34170
  0.3710  -26.01610
  0.3730  -25.67930
  0.3750  -25.33250
  0.3770  -24.97600
  0.3790  -24.61200
  0.3810  -24.24110
  0.3830  -23.86460
  0.3850  -23.48390
  0.3870  -23.10000
  0.3890  -22.71350
  0.3910  -22.32600
  0.3930  -21.93820
  0.3950  -21.55180
  0.3970  -21.16720
  0.3990  -20.78560
  0.4010  -20.40790
  0.4030  -20.03470
  0.4050  -19.66660
  0.4070  -19.30430
  0.4090  -18.94860
  0.4110  -18.60000
  0.4130  -18.25910
  0.4150  -17.92660
  0.4170  -17.60240
  0.4190  -17.28690
  0.4210  -16.98070
  0.4230  -16.68420
  0.4250  -16.39720
  0.4270  -16.11910
  0.4290  -15.85020
  0.4310  -15.59100
  0.4330  -15.34140
  0.4350  -15.10150
  0.4370  -14.87100
  0.4390  -14.64910
  0.4410  -14.43630
  0.4430  -14.23230
  0.4450  -14.03600
  0.4470  -13.84830
  0.4490  -13.66830
  0.4510  -13.49520
  0.4530  -13.32950
  0.4550  -13.17050
  0.4570  -13.01700
  0.4590  -12.86890
  0.4610  -12.72650
  0.4630  -12.58910
  0.4650  -12.45510
  0.4670  -12.32500
  0.4690  -12.19840
  0.4710  -12.07490
  0.4730  -11.95390
  0.4750  -11.83460
  0.4770  -11.71710
  0.4790  -11.60140
  0.4810  -11.48620
  0.4830  -11.37160
  0.4850  -11.25750
  0.4870  -11.14350
  0.4890  -11.02940
  0.4910  -10.91480
  0.4930  -10.79940
  0.4950  -10.68340
  0.4970  -10.56620
  0.4990  -10.44790
  0.5010  -10.32850
  0.5030  -10.20780
  0.5050  -10.08580
  0.5070   -9.96210
  0.5090   -9.83700
  0.5110   -9.71070
  0.5130   -9.58340
  0.5150   -9.45460
  0.5170   -9.32500
  0.5190   -9.19430
  0.5210   -9.06240
  0.5230   -8.92960
  0.5250   -8.79600
  0.5270   -8.66200
  0.5290   -8.52760
  0.5310   -8.39300
  0.5330   -8.25800
  0.5350   -8.12290
  0.5370   -7.98800
  0.5390   -7.85320
  0.5410   -7.71880
  0.5430   -7.58580
  0.5450   -7.45360
  0.5470   -7.32260
  0.5490   -7.19280
  0.5510   -7.06390
  0.5530   -6.93620
  0.5550   -6.81020
  0.5570   -6.68600
  0.5590   -6.56360
  0.5610   -6.44290
  0.5630   -6.32390
  0.5650   -6.20720
  0.5670   -6.09260
  0.5690   -5.97980
  0.5710   -5.86910
  0.5730   -5.76050
  0.5750   -5.65410
  0.5770   -5.54940
  0.5790   -5.44690
  0.5810   -5.34630
  0.5830   -5.24730
  0.5850   -5.14970
  0.5870   -5.05360
  0.5890   -4.95920
  0.5910   -4.86670
  0.5930   -4.77590
  0.5950   -4.68620
  0.5970   -4.59790
  0.5990   -4.51080
  0.6010   -4.42470
  0.6030   -4.33970
  0.6050   -4.25550
  0.6070   -4.17190
  0.6090   -4.08900
  0.6110   -4.00680
  0.6130   -3.92510
  0.6150   -3.84400
  0.6170   -3.76290
  0.6190   -3.68170
  0.6210   -3.60110
  0.6230   -3.52090
  0.6250   -3.44090
  0.6270   -3.36120
  0.6290   -3.28180
  0.6310   -3.20240
  0.6330   -3.12300
  0.6350   -3.04410
  0.6370   -2.96580
  0.6390   -2.88740
  0.6410   -2.80910
  0.6430   -2.73100
  0.6450   -2.65300
  0.6470   -2.57560
  0.6490   -2.49860
  0.6510   -2.42210
  0.6530   -2.34620
  0.6550   -2.27160
  0.6570   -2.19780
  0.6590   -2.12500
  0.6610   -2.05250
  0.6630   -1.98090
  0.6650   -1.91090
  0.6670   -1.84270
  0.6690   -1.77620
  0.6710   -1.71120
  0.6730   -1.64860
  0.6750   -1.58780
  0.6770   -1.52850
  0.6790   -1.47120
  0.6810   -1.41570
  0.6830   -1.36240
  0.6850   -1.31130
  0.6870   -1.26280
  0.6890   -1.21700
  0.6910   -1.17320
  0.6930   -1.13170
  0.6950   -1.09290
  0.6970   -1.05670
  0.6990   -1.02290
  0.7010   -0.99160
  0.7030   -0.96300
  0.7050   -0.93710
  0.7070   -0.91350
  0.7090   -0.89230
  0.7110   -0.87370
  0.7130   -0.85750
  0.7150   -0.84360
  0.7170   -0.83210
  0.7190   -0.82280
  0.7210   -0.81540
  0.7230   -0.81050
  0.7250   -0.80780
  0.7270   -0.80690
  0.7290   -0.80710
  0.7310   -0.80860
  0.7330   -0.81200
  0.7350   -0.81730
  0.7370   -0.82410
  0.7390   -0.83260
  0.7410   -0.84260
  0.7430   -0.85330
  0.7450   -0.86430
  0.7470   -0.87600
  0.7490   -0.88880
  0.7510   -0.90230
  0.7530   -0.91610
  0.7550   -0.93030
  0.7570   -0.94490
  0.7590   -0.95940
  0.7610   -0.97410
  0.7630   -0.98880
  0.7650   -1.00260
  0.7670   -1.01600
  0.7690   -1.02960
  0.7710   -1.04260
  0.7730   -1.05470
  0.7750   -1.06630
  0.7770   -1.07760
  0.7790   -1.08820
  0.7810   -1.09760
  0.7830   -1.10590
  0.7850   -1.11360
  0.7870   -1.12030
  0.7890   -1.12600
  0.7910   -1.13070
  0.7930   -1.13410
  0.7950   -1.13630
  0.7970   -1.13740
  0.7990   -1.13740
  0.8010   -1.13620
  0.8030   -1.13390
  0.8050   -1.13050
  0.8070   -1.12580
  0.8090   -1.12010
  0.8110   -1.11340
  0.8130   -1.10560
  0.8150   -1.09670
  0.8170   -1.08690
  0.8190   -1.07600
  0.8210   -1.06400
  0.8230   -1.05130
  0.8250   -1.03760
  0.8270   -1.02300
  0.8290   -1.00760
  0.8310   -0.99150
  0.8330   -0.97480
  0.8350   -0.95730
  0.8370   -0.93900
  0.8390   -0.92000
  0.8410   -0.90040
  0.8430   -0.88070
  0.8450   -0.86070
  0.8470   -0.84060
  0.8490   -0.82060
  0.8510   -0.80010
  0.8530   -0.77910
  0.8550   -0.75780
  0.8570   -0.73660
  0.8590   -0.71570
  0.8610   -0.69480
  0.8630   -0.67370
  0.8650   -0.65240
  0.8670   -0.63160
  0.8690   -0.61100
  0.8710   -0.59010
  0.8730   -0.56970
  0.8750   -0.54990
  0.8770   -0.53020
  0.8790   -0.51060
  0.8810   -0.49160
  0.8830   -0.47310
  0.8850   -0.45500
  0.8870   -0.43720
  0.8890   -0.42000
  0.8910   -0.40310
  0.8930   -0.38660
  0.8950   -0.37060
  0.8970   -0.35500
  0.8990   -0.34010
  0.9010   -0.32580
  0.9030   -0.31180
  0.9050   -0.29840
  0.9070   -0.28560
  0.9090   -0.27330
  0.9110   -0.26140
  0.9130   -0.25000
  0.9150   -0.23910
  0.9170   -0.22870
  0.9190   -0.21860
  0.9210   -0.20910
  0.9230   -0.20000
  0.9250   -0.19130
  0.9270   -0.18320
  0.9290   -0.17550
  0.9310   -0.16810
  0.9330   -0.16110
  0.9350   -0.15450
  0.9370   -0.14840
  0.9390   -0.14260
  0.9410   -0.13710
  0.9430   -0.13190
  0.9450   -0.12700
  0.9470   -0.12250
  0.9490   -0.11820
  0.9510   -0.11420
  0.9530   -0.11060
  0.9550   -0.10720
  0.9570   -0.10390
  0.9590   -0.10080
  0.9610   -0.09810
  0.9630   -0.09540
  0.9650   -0.09290
  0.9670   -0.09060
  0.9690   -0.08870
  0.9710   -0.08670
  0.9730   -0.08480
  0.9750   -0.08290
  0.9770   -0.08110
  0.9790   -0.07950
  0.9810   -0.07800
  0.9830   -0.07680
  0.9850   -0.07570
  0.9870   -0.07470
  0.9890   -0.07370
  0.9910   -0.07270
  0.9930   -0.07180
  0.9950   -0.07110
  0.9970   -0.07040
  0.9990   -0.06970
  1.0010   -0.06920
  1.0030   -0.06900
  1.0050   -0.06870
  1.0070   -0.06840
  1.0090   -0.06840
  1.0110   -0.06850
  1.0130   -0.06880
  1.0150   -0.06910
  1.0170   -0.06960
  1.0190   -0.07000
  1.0210   -0.07060
  1.0230   -0.07140
  1.0250   -0.07230
  1.0270   -0.07320
  1.0290   -0.07420
  1.0310   -0.07520
  1.0330   -0.07630
  1.0350   -0.07750
  1.0370   -0.07890
  1.0390   -0.08030
  1.0410   -0.08190
  1.0430   -0.08360
  1.0450   -0.08550
  1.0470   -0.08740
  1.0490   -0.08950
  1.0510   -0.09140
  1.0530   -0.09350
  1.0550   -0.09550
  1.0570   -0.09760
  1.0590   -0.09970
  1.0610   -0.10180
  1.0630   -0.10390
  1.0650   -0.10610
  1.0670   -0.10840
  1.0690   -0.11060
  1.0710   -0.11290
  1.0730   -0.11510
  1.0750   -0.11740
  1.0770   -0.11930
  1.0790   -0.12120
  1.0810   -0.12320
  1.0830   -0.12510
  1.0850   -0.12680
  1.0870   -0.12860
  1.0890   -0.13020
  1.0910   -0.13150
  1.0930   -0.13280
  1.0950   -0.13400
  1.0970   -0.13510
  1.0990   -0.13590
  1.1010   -0.13670
  1.1030   -0.13730
  1.1050   -0.13780
  1.1070   -0.13810
  1.1090   -0.13820
  1.1110   -0.13810
  1.1130   -0.13780
  1.1150   -0.13720
  1.1170   -0.13660
  1.1190   -0.13580
  1.1210   -0.13470
  1.1230   -0.13360
  1.1250   -0.13230
  1.1270   -0.13070
  1.1290   -0.12900
  1.1310   -0.12740
  1.1330   -0.12560
  1.1350   -0.12360
  1.1370   -0.12150
  1.1390   -0.11940
  1.1410   -0.11700
  1.1430   -0.11470
  1.1450   -0.11250
  1.1470   -0.11000
  1.1490   -0.10730
  1.1510   -0.10470
  1.1530   -0.10220
  1.1550   -0.09940
  1.1570   -0.09640
  1.1590   -0.09340
  1.1610   -0.09040
  1.1630   -0.08740
  1.1650   -0.08440
  1.1670   -0.08140
  1.1690   -0.07830
  1.1710   -0.07510
  1.1730   -0.07190
  1.1750   -0.06870
  1.1770   -0.06570
  1.1790   -0.06270
  1.1810   -0.05970
  1.1830   -0.05680
  1.1850   -0.05390
  1.1870   -0.05100
  1.1890   -0.04810
  1.1910   -0.04530
  1.1930   -0.04250
  1.1950   -0.03980
  1.1970   -0.03710
  1.1990   -0.03450
  1.2010   -0.03190
  1.2030   -0.02940
  1.2050   -0.02690
  1.2070   -0.02470
  1.2090   -0.02260
  1.2110   -0.02060
  1.2130   -0.01850
  1.2150   -0.01650
  1.2170   -0.01440
  1.2190   -0.01220
  1.2210   -0.01030
  1.2230   -0.00840
  1.2250   -0.00670
  1.2270   -0.00510
  1.2290   -0.00340
  1.2310   -0.00170
  1.2330   -0.00020
  1.2350    0.00110
  1.2370    0.00230
  1.2390    0.00340
  1.2410    0.00460
  1.2430    0.00580
  1.2450    0.00660
  1.2470    0.00750
  1.2490    0.00850
  1.2510    0.00930
  1.2530    0.00990
  1.2550    0.01070
  1.2570    0.01130
  1.2590    0.01170
  1.2610    0.01220
  1.2630    0.01270
  1.2650    0.01300
  1.2670    0.01330
  1.2690    0.01320
  1.2710    0.01310
  1.2730    0.01300
  1.2750    0.01280
  1.2770    0.01260
  1.2790    0.01220
  1.2810    0.01180
  1.2830    0.01130
  1.2850    0.01090
  1.2870    0.01020
  1.2890    0.00950
  1.2910    0.00880
  1.2930    0.00790
  1.2950    0.00710
  1.2970    0.00630
  1.2990    0.00540
  1.3010    0.00450
  1.3030    0.00370
  1.3050    0.00280
  1.3070    0.00190
  1.3090    0.00110
  1.3110    0.00020
  1.3130   -0.00070
  1.3150   -0.00160
  1.3170   -0.00240
  1.3190   -0.00330
  1.3210   -0.00420
  1.3230   -0.00490
  1.3250   -0.00570
  1.3270   -0.00640
  1.3290   -0.00700
  1.3310   -0.00760
  1.3330   -0.00800
  1.3350   -0.00840
  1.3370   -0.00870
  1.3390   -0.00900
  1.3410   -0.00920
  1.3430   -0.00920
  1.3450   -0.00920
  1.3470   -0.00910
  1.3490   -0.00900
  1.3510   -0.00860
  1.3530   -0.00820
  1.3550   -0.00780
  1.3570   -0.00700
  1.3590   -0.00630
  1.3610   -0.00560
  1.3630   -0.00460
  1.3650   -0.00360
  1.3670   -0.00260
  1.3690   -0.00150
  1.3710   -0.00000
  1.3730    0.00150
  1.3750    0.00270
  1.3770    0.00380
  1.3790    0.00510
  1.3810    0.00650
  1.3830    0.00790
  1.3850    0.00930
  1.3870    0.01060
  1.3890    0.01170
  1.3910    0.01280
  1.3930    0.01400
  1.3950    0.01520
  1.3970    0.01580
  1.3990    0.01600
