# z (nm)   (kJ/mol)
  0.249000, 13.438200
  0.251000, 12.984000
  0.253000, 12.505900
  0.255000, 12.043000
  0.257000, 11.587200
  0.259000, 11.123500
  0.261000, 10.653600
  0.263000, 10.187000
  0.265000,  9.698300
  0.267000,  9.194400
  0.269000,  8.692100
  0.271000,  8.178000
  0.273000,  7.663700
  0.275000,  7.143900
  0.277000,  6.621100
  0.279000,  6.106200
  0.281000,  5.588500
  0.283000,  5.059500
  0.285000,  4.524700
  0.287000,  3.993900
  0.289000,  3.461900
  0.291000,  2.929000
  0.293000,  2.400900
  0.295000,  1.880300
  0.297000,  1.365500
  0.299000,  0.852000
  0.301000,  0.336700
  0.303000, -0.178600
  0.305000, -0.686400
  0.307000, -1.186000
  0.309000, -1.681300
  0.311000, -2.169600
  0.313000, -2.647700
  0.315000, -3.116400
  0.317000, -3.577400
  0.319000, -4.028700
  0.321000, -4.472000
  0.323000, -4.905600
  0.325000, -5.327200
  0.327000, -5.738800
  0.329000, -6.140600
  0.331000, -6.529700
  0.333000, -6.904000
  0.335000, -7.267700
  0.337000, -7.620700
  0.339000, -7.959700
  0.341000, -8.287900
  0.343000, -8.602600
  0.345000, -8.901900
  0.347000, -9.187600
  0.349000, -9.458300
  0.351000, -9.714400
  0.353000, -9.956800
  0.355000,-10.184400
  0.357000,-10.396800
  0.359000,-10.593600
  0.361000,-10.775800
  0.363000,-10.943000
  0.365000,-11.094900
  0.367000,-11.232400
  0.369000,-11.355200
  0.371000,-11.463300
  0.373000,-11.556100
  0.375000,-11.633900
  0.377000,-11.698000
  0.379000,-11.748800
  0.381000,-11.786000
  0.383000,-11.809900
  0.385000,-11.820300
  0.387000,-11.818100
  0.389000,-11.803200
  0.391000,-11.777100
  0.393000,-11.741100
  0.395000,-11.694100
  0.397000,-11.636700
  0.399000,-11.570500
  0.401000,-11.495400
  0.403000,-11.410800
  0.405000,-11.318800
  0.407000,-11.219500
  0.409000,-11.112200
  0.411000,-10.997900
  0.413000,-10.877300
  0.415000,-10.751000
  0.417000,-10.619400
  0.419000,-10.483500
  0.421000,-10.343700
  0.423000,-10.199700
  0.425000,-10.052000
  0.427000, -9.901000
  0.429000, -9.747000
  0.431000, -9.590500
  0.433000, -9.431800
  0.435000, -9.271200
  0.437000, -9.108600
  0.439000, -8.944500
  0.441000, -8.779100
  0.443000, -8.612600
  0.445000, -8.445100
  0.447000, -8.275900
  0.449000, -8.105800
  0.451000, -7.935000
  0.453000, -7.763500
  0.455000, -7.590900
  0.457000, -7.417600
  0.459000, -7.244000
  0.461000, -7.070300
  0.463000, -6.896400
  0.465000, -6.721800
  0.467000, -6.546100
  0.469000, -6.370200
  0.471000, -6.193600
  0.473000, -6.016300
  0.475000, -5.838500
  0.477000, -5.659900
  0.479000, -5.480800
  0.481000, -5.301300
  0.483000, -5.121100
  0.485000, -4.940100
  0.487000, -4.758500
  0.489000, -4.576300
  0.491000, -4.393600
  0.493000, -4.210300
  0.495000, -4.026400
  0.497000, -3.841900
  0.499000, -3.656900
  0.501000, -3.471700
  0.503000, -3.286500
  0.505000, -3.101200
  0.507000, -2.915000
  0.509000, -2.728200
  0.511000, -2.542300
  0.513000, -2.356400
  0.515000, -2.170400
  0.517000, -1.985100
  0.519000, -1.800000
  0.521000, -1.615400
  0.523000, -1.432600
  0.525000, -1.250500
  0.527000, -1.068800
  0.529000, -0.888300
  0.531000, -0.709800
  0.533000, -0.533400
  0.535000, -0.359300
  0.537000, -0.186800
  0.539000, -0.016400
  0.541000,  0.150900
  0.543000,  0.315600
  0.545000,  0.477800
  0.547000,  0.636900
  0.549000,  0.792100
  0.551000,  0.943700
  0.553000,  1.091200
  0.555000,  1.234700
  0.557000,  1.372800
  0.559000,  1.505300
  0.561000,  1.634600
  0.563000,  1.759700
  0.565000,  1.879800
  0.567000,  1.994800
  0.569000,  2.104200
  0.571000,  2.208200
  0.573000,  2.306900
  0.575000,  2.399700
  0.577000,  2.486200
  0.579000,  2.565900
  0.581000,  2.639300
  0.583000,  2.707000
  0.585000,  2.768600
  0.587000,  2.823400
  0.589000,  2.871700
  0.591000,  2.913600
  0.593000,  2.949400
  0.595000,  2.979200
  0.597000,  3.002500
  0.599000,  3.019200
  0.601000,  3.029800
  0.603000,  3.034200
  0.605000,  3.032100
  0.607000,  3.024100
  0.609000,  3.010500
  0.611000,  2.991200
  0.613000,  2.966200
  0.615000,  2.935900
  0.617000,  2.900200
  0.619000,  2.858900
  0.621000,  2.812300
  0.623000,  2.760800
  0.625000,  2.704800
  0.627000,  2.644600
  0.629000,  2.580400
  0.631000,  2.512600
  0.633000,  2.441600
  0.635000,  2.367000
  0.637000,  2.288400
  0.639000,  2.207200
  0.641000,  2.123600
  0.643000,  2.037200
  0.645000,  1.947800
  0.647000,  1.856900
  0.649000,  1.764600
  0.651000,  1.670900
  0.653000,  1.576400
  0.655000,  1.481000
  0.657000,  1.384300
  0.659000,  1.286400
  0.661000,  1.188900
  0.663000,  1.091800
  0.665000,  0.994300
  0.667000,  0.897000
  0.669000,  0.801200
  0.671000,  0.706900
  0.673000,  0.613300
  0.675000,  0.520500
  0.677000,  0.429600
  0.679000,  0.340600
  0.681000,  0.253900
  0.683000,  0.168800
  0.685000,  0.085200
  0.687000,  0.003700
  0.689000, -0.076000
  0.691000, -0.152800
  0.693000, -0.226900
  0.695000, -0.298800
  0.697000, -0.368000
  0.699000, -0.434200
  0.701000, -0.497500
  0.703000, -0.558400
  0.705000, -0.616300
  0.707000, -0.670800
  0.709000, -0.722300
  0.711000, -0.771100
  0.713000, -0.817000
  0.715000, -0.859800
  0.717000, -0.899400
  0.719000, -0.936100
  0.721000, -0.969900
  0.723000, -1.000600
  0.725000, -1.028300
  0.727000, -1.053300
  0.729000, -1.075400
  0.731000, -1.094500
  0.733000, -1.111000
  0.735000, -1.124800
  0.737000, -1.136100
  0.739000, -1.144900
  0.741000, -1.151100
  0.743000, -1.154700
  0.745000, -1.155800
  0.747000, -1.154600
  0.749000, -1.150900
  0.751000, -1.145100
  0.753000, -1.137200
  0.755000, -1.127100
  0.757000, -1.115100
  0.759000, -1.101100
  0.761000, -1.085300
  0.763000, -1.067800
  0.765000, -1.048700
  0.767000, -1.028200
  0.769000, -1.006000
  0.771000, -0.982400
  0.773000, -0.957500
  0.775000, -0.931100
  0.777000, -0.903400
  0.779000, -0.874700
  0.781000, -0.844800
  0.783000, -0.813900
  0.785000, -0.782100
  0.787000, -0.749500
  0.789000, -0.716300
  0.791000, -0.682100
  0.793000, -0.647100
  0.795000, -0.611600
  0.797000, -0.575400
  0.799000, -0.538400
  0.801000, -0.501000
  0.803000, -0.463400
  0.805000, -0.425300
  0.807000, -0.386800
  0.809000, -0.348200
  0.811000, -0.309600
  0.813000, -0.270700
  0.815000, -0.231800
  0.817000, -0.193000
  0.819000, -0.154400
  0.821000, -0.115700
  0.823000, -0.077100
  0.825000, -0.038800
  0.827000, -0.000900
  0.829000,  0.036600
  0.831000,  0.073800
  0.833000,  0.110500
  0.835000,  0.146800
  0.837000,  0.182600
  0.839000,  0.217700
  0.841000,  0.252000
  0.843000,  0.285600
  0.845000,  0.318500
  0.847000,  0.350700
  0.849000,  0.382000
  0.851000,  0.412300
  0.853000,  0.441600
  0.855000,  0.470100
  0.857000,  0.497600
  0.859000,  0.524100
  0.861000,  0.549400
  0.863000,  0.573600
  0.865000,  0.596500
  0.867000,  0.618400
  0.869000,  0.639100
  0.871000,  0.658600
  0.873000,  0.676900
  0.875000,  0.693700
  0.877000,  0.709300
  0.879000,  0.723600
  0.881000,  0.736700
  0.883000,  0.748600
  0.885000,  0.759300
  0.887000,  0.768500
  0.889000,  0.776300
  0.891000,  0.782800
  0.893000,  0.788200
  0.895000,  0.792300
  0.897000,  0.795100
  0.899000,  0.796600
  0.901000,  0.797000
  0.903000,  0.796100
  0.905000,  0.794000
  0.907000,  0.790600
  0.909000,  0.786000
  0.911000,  0.780500
  0.913000,  0.773900
  0.915000,  0.766000
  0.917000,  0.757000
  0.919000,  0.747200
  0.921000,  0.736200
  0.923000,  0.724300
  0.925000,  0.711600
  0.927000,  0.698000
  0.929000,  0.683400
  0.931000,  0.668000
  0.933000,  0.651800
  0.935000,  0.634800
  0.937000,  0.616900
  0.939000,  0.598200
  0.941000,  0.579100
  0.943000,  0.559500
  0.945000,  0.539400
  0.947000,  0.518500
  0.949000,  0.497200
  0.951000,  0.475600
  0.953000,  0.453400
  0.955000,  0.430900
  0.957000,  0.408100
  0.959000,  0.385200
  0.961000,  0.362200
  0.963000,  0.339100
  0.965000,  0.315500
  0.967000,  0.291700
  0.969000,  0.268000
  0.971000,  0.244200
  0.973000,  0.220400
  0.975000,  0.196900
  0.977000,  0.173600
  0.979000,  0.150400
  0.981000,  0.127600
  0.983000,  0.105000
  0.985000,  0.082800
  0.987000,  0.061000
  0.989000,  0.039600
  0.991000,  0.018600
  0.993000, -0.001800
  0.995000, -0.021600
  0.997000, -0.040800
  0.999000, -0.059400
  1.001000, -0.077500
  1.003000, -0.095000
  1.005000, -0.111800
  1.007000, -0.127900
  1.009000, -0.143200
  1.011000, -0.157700
  1.013000, -0.171500
  1.015000, -0.184600
  1.017000, -0.196900
  1.019000, -0.208400
  1.021000, -0.219200
  1.023000, -0.229100
  1.025000, -0.238300
  1.027000, -0.246700
  1.029000, -0.254100
  1.031000, -0.260800
  1.033000, -0.266700
  1.035000, -0.271800
  1.037000, -0.276200
  1.039000, -0.279700
  1.041000, -0.282400
  1.043000, -0.284500
  1.045000, -0.285900
  1.047000, -0.286600
  1.049000, -0.286600
  1.051000, -0.285900
  1.053000, -0.284500
  1.055000, -0.282600
  1.057000, -0.280100
  1.059000, -0.277000
  1.061000, -0.273300
  1.063000, -0.269100
  1.065000, -0.264400
  1.067000, -0.259100
  1.069000, -0.253400
  1.071000, -0.247200
  1.073000, -0.240700
  1.075000, -0.233700
  1.077000, -0.226500
  1.079000, -0.219000
  1.081000, -0.211200
  1.083000, -0.203100
  1.085000, -0.194700
  1.087000, -0.186000
  1.089000, -0.177100
  1.091000, -0.168100
  1.093000, -0.158800
  1.095000, -0.149300
  1.097000, -0.139800
  1.099000, -0.130100
  1.101000, -0.120300
  1.103000, -0.110300
  1.105000, -0.100300
  1.107000, -0.090400
  1.109000, -0.080300
  1.111000, -0.070300
  1.113000, -0.060200
  1.115000, -0.050100
  1.117000, -0.040200
  1.119000, -0.030200
  1.121000, -0.020400
  1.123000, -0.010600
  1.125000, -0.000900
  1.127000,  0.008700
  1.129000,  0.018100
  1.131000,  0.027400
  1.133000,  0.036500
  1.135000,  0.045300
  1.137000,  0.054000
  1.139000,  0.062500
  1.141000,  0.070700
  1.143000,  0.078700
  1.145000,  0.086500
  1.147000,  0.094000
  1.149000,  0.101300
  1.151000,  0.108300
  1.153000,  0.115000
  1.155000,  0.121300
  1.157000,  0.127400
  1.159000,  0.133200
  1.161000,  0.138700
  1.163000,  0.143700
  1.165000,  0.148400
  1.167000,  0.152700
  1.169000,  0.156700
  1.171000,  0.160300
  1.173000,  0.163600
  1.175000,  0.166600
  1.177000,  0.169200
  1.179000,  0.171300
  1.181000,  0.173200
  1.183000,  0.174800
  1.185000,  0.175900
  1.187000,  0.176600
  1.189000,  0.177000
  1.191000,  0.177300
  1.193000,  0.177100
  1.195000,  0.176500
  1.197000,  0.175400
  1.199000,  0.174200
  1.201000,  0.172700
  1.203000,  0.170800
  1.205000,  0.168600
  1.207000,  0.166300
  1.209000,  0.163600
  1.211000,  0.160700
  1.213000,  0.157700
  1.215000,  0.154500
  1.217000,  0.151200
  1.219000,  0.147600
  1.221000,  0.143700
  1.223000,  0.139700
  1.225000,  0.135500
  1.227000,  0.131200
  1.229000,  0.126800
  1.231000,  0.122400
  1.233000,  0.117800
  1.235000,  0.113000
  1.237000,  0.108100
  1.239000,  0.103300
  1.241000,  0.098400
  1.243000,  0.093400
  1.245000,  0.088400
  1.247000,  0.083300
  1.249000,  0.078300
  1.251000,  0.073200
  1.253000,  0.068000
  1.255000,  0.063000
  1.257000,  0.058100
  1.259000,  0.053200
  1.261000,  0.048200
  1.263000,  0.043200
  1.265000,  0.038300
  1.267000,  0.033400
  1.269000,  0.028300
  1.271000,  0.023400
  1.273000,  0.018400
  1.275000,  0.013300
  1.277000,  0.008400
  1.279000,  0.003700
  1.281000, -0.001100
  1.283000, -0.005800
  1.285000, -0.010400
  1.287000, -0.014800
  1.289000, -0.019300
  1.291000, -0.023600
  1.293000, -0.028000
  1.295000, -0.032300
  1.297000, -0.036500
  1.299000, -0.040700
  1.301000, -0.044800
  1.303000, -0.048700
  1.305000, -0.052400
  1.307000, -0.056000
  1.309000, -0.059600
  1.311000, -0.063000
  1.313000, -0.066300
  1.315000, -0.069500
  1.317000, -0.072600
  1.319000, -0.075600
  1.321000, -0.078500
  1.323000, -0.081100
  1.325000, -0.083400
  1.327000, -0.085500
  1.329000, -0.087700
  1.331000, -0.089800
  1.333000, -0.091500
  1.335000, -0.093100
  1.337000, -0.094400
  1.339000, -0.095600
  1.341000, -0.096500
  1.343000, -0.097200
  1.345000, -0.097600
  1.347000, -0.097700
  1.349000, -0.097600
  1.351000, -0.097300
  1.353000, -0.096800
  1.355000, -0.095900
  1.357000, -0.094900
  1.359000, -0.093700
  1.361000, -0.092100
  1.363000, -0.090300
  1.365000, -0.088500
  1.367000, -0.086400
  1.369000, -0.083900
  1.371000, -0.081000
  1.373000, -0.078100
  1.375000, -0.075100
  1.377000, -0.072100
  1.379000, -0.069000
  1.381000, -0.065500
  1.383000, -0.062100
  1.385000, -0.058700
  1.387000, -0.055100
  1.389000, -0.051200
  1.391000, -0.047200
  1.393000, -0.043200
  1.395000, -0.039200
  1.397000, -0.035800
  1.399000, -0.032600
