# z (nm)   (kJ/mol)
  0.0700  274.44241
  0.0720  272.08479
  0.0740  268.57574
  0.0760  265.27634
  0.0780  261.68937
  0.0800  258.76277
  0.0820  255.80107
  0.0840  252.83132
  0.0860  249.82329
  0.0880  246.76129
  0.0900  243.66241
  0.0920  240.47463
  0.0940  237.19959
  0.0960  233.82443
  0.0980  230.34094
  0.1000  226.74980
  0.1020  223.04675
  0.1040  219.23298
  0.1060  215.31779
  0.1080  211.30247
  0.1100  207.20031
  0.1120  203.00810
  0.1140  198.73857
  0.1160  194.40131
  0.1180  190.00113
  0.1200  185.56397
  0.1220  181.11367
  0.1240  176.68367
  0.1260  172.30394
  0.1280  168.01166
  0.1300  163.81693
  0.1320  159.73504
  0.1340  155.75576
  0.1360  151.89198
  0.1380  148.13516
  0.1400  144.49174
  0.1420  140.96726
  0.1440  137.54080
  0.1460  134.18088
  0.1480  130.85738
  0.1500  127.54773
  0.1520  124.25292
  0.1540  120.97973
  0.1560  117.74477
  0.1580  114.56183
  0.1600  111.42451
  0.1620  108.32159
  0.1640  105.24037
  0.1660  102.17605
  0.1680   99.15190
  0.1700   96.19116
  0.1720   93.32596
  0.1740   90.53969
  0.1760   87.79826
  0.1780   85.03741
  0.1800   82.21014
  0.1820   79.30168
  0.1840   76.33884
  0.1860   73.39227
  0.1880   70.52548
  0.1900   67.79609
  0.1920   65.22271
  0.1940   62.78381
  0.1960   60.44216
  0.1980   58.14640
  0.2000   55.85732
  0.2020   53.55393
  0.2040   51.23687
  0.2060   48.91933
  0.2080   46.61526
  0.2100   44.33640
  0.2120   42.10759
  0.2140   39.92814
  0.2160   37.79996
  0.2180   35.73255
  0.2200   33.73447
  0.2220   31.80204
  0.2240   29.92990
  0.2260   28.12240
  0.2280   26.36690
  0.2300   24.65622
  0.2320   22.98577
  0.2340   21.34198
  0.2360   19.72634
  0.2380   18.12966
  0.2400   16.55655
  0.2420   15.01852
  0.2440   13.51305
  0.2460   12.05114
  0.2480   10.64124
  0.2500    9.28233
  0.2520    7.97711
  0.2540    6.73162
  0.2560    5.52405
  0.2580    4.37934
  0.2600    3.28071
  0.2620    2.22064
  0.2640    1.20318
  0.2660    0.21760
  0.2680   -0.72742
  0.2700   -1.63965
  0.2720   -2.51312
  0.2740   -3.34422
  0.2760   -4.13866
  0.2780   -4.89130
  0.2800   -5.60307
  0.2820   -6.28407
  0.2840   -6.93366
  0.2860   -7.54378
  0.2880   -8.12261
  0.2900   -8.66832
  0.2920   -9.18411
  0.2940   -9.67259
  0.2960  -10.13580
  0.2980  -10.57106
  0.3000  -10.98649
  0.3020  -11.37233
  0.3040  -11.74312
  0.3060  -12.09622
  0.3080  -12.43137
  0.3100  -12.74604
  0.3120  -13.03364
  0.3140  -13.30377
  0.3160  -13.54827
  0.3180  -13.76958
  0.3200  -13.96062
  0.3220  -14.13016
  0.3240  -14.26831
  0.3260  -14.38897
  0.3280  -14.49316
  0.3300  -14.58044
  0.3320  -14.65644
  0.3340  -14.71870
  0.3360  -14.75467
  0.3380  -14.77903
  0.3400  -14.78893
  0.3420  -14.76938
  0.3440  -14.73047
  0.3460  -14.68399
  0.3480  -14.62134
  0.3500  -14.54937
  0.3520  -14.46874
  0.3540  -14.37704
  0.3560  -14.28008
  0.3580  -14.16460
  0.3600  -14.04443
  0.3620  -13.90774
  0.3640  -13.76380
  0.3660  -13.60527
  0.3680  -13.43819
  0.3700  -13.26873
  0.3720  -13.09078
  0.3740  -12.91790
  0.3760  -12.74505
  0.3780  -12.58066
  0.3800  -12.41519
  0.3820  -12.25691
  0.3840  -12.09776
  0.3860  -11.94322
  0.3880  -11.79053
  0.3900  -11.62341
  0.3920  -11.45160
  0.3940  -11.27417
  0.3960  -11.08639
  0.3980  -10.89172
  0.4000  -10.68887
  0.4020  -10.48507
  0.4040  -10.28459
  0.4060  -10.08876
  0.4080   -9.90370
  0.4100   -9.72727
  0.4120   -9.56027
  0.4140   -9.40389
  0.4160   -9.24811
  0.4180   -9.10447
  0.4200   -8.95825
  0.4220   -8.81715
  0.4240   -8.67309
  0.4260   -8.52633
  0.4280   -8.37306
  0.4300   -8.21613
  0.4320   -8.05792
  0.4340   -7.90154
  0.4360   -7.74290
  0.4380   -7.58490
  0.4400   -7.42915
  0.4420   -7.29699
  0.4440   -7.17025
  0.4460   -7.05226
  0.4480   -6.94954
  0.4500   -6.85615
  0.4520   -6.77558
  0.4540   -6.69266
  0.4560   -6.61854
  0.4580   -6.54068
  0.4600   -6.46912
  0.4620   -6.39759
  0.4640   -6.31637
  0.4660   -6.24637
  0.4680   -6.17896
  0.4700   -6.11798
  0.4720   -6.06900
  0.4740   -6.02362
  0.4760   -5.98280
  0.4780   -5.95353
  0.4800   -5.92438
  0.4820   -5.89398
  0.4840   -5.86510
  0.4860   -5.84330
  0.4880   -5.81738
  0.4900   -5.78108
  0.4920   -5.74202
  0.4940   -5.69403
  0.4960   -5.63717
  0.4980   -5.57461
  0.5000   -5.50649
  0.5020   -5.42944
  0.5040   -5.35905
  0.5060   -5.28424
  0.5080   -5.20580
  0.5100   -5.12435
  0.5120   -5.04189
  0.5140   -4.95505
  0.5160   -4.86372
  0.5180   -4.77029
  0.5200   -4.67213
  0.5220   -4.57051
  0.5240   -4.45999
  0.5260   -4.35074
  0.5280   -4.23224
  0.5300   -4.12035
  0.5320   -3.99487
  0.5340   -3.86202
  0.5360   -3.72399
  0.5380   -3.57407
  0.5400   -3.41728
  0.5420   -3.25194
  0.5440   -3.08437
  0.5460   -2.90962
  0.5480   -2.73157
  0.5500   -2.56366
  0.5520   -2.38591
  0.5540   -2.22583
  0.5560   -2.06716
  0.5580   -1.91925
  0.5600   -1.77130
  0.5620   -1.62683
  0.5640   -1.47916
  0.5660   -1.33593
  0.5680   -1.19022
  0.5700   -1.04261
  0.5720   -0.89768
  0.5740   -0.75415
  0.5760   -0.61194
  0.5780   -0.46773
  0.5800   -0.33553
  0.5820   -0.20865
  0.5840   -0.09320
  0.5860    0.02408
  0.5880    0.11902
  0.5900    0.20035
  0.5920    0.27271
  0.5940    0.33838
  0.5960    0.39100
  0.5980    0.43704
  0.6000    0.46863
  0.6020    0.50071
  0.6040    0.52454
  0.6060    0.54876
  0.6080    0.57050
  0.6100    0.59203
  0.6120    0.61260
  0.6140    0.62849
  0.6160    0.63974
  0.6180    0.64343
  0.6200    0.64533
  0.6220    0.63435
  0.6240    0.61537
  0.6260    0.58257
  0.6280    0.53901
  0.6300    0.49178
  0.6320    0.43710
  0.6340    0.37788
  0.6360    0.31772
  0.6380    0.26050
  0.6400    0.19841
  0.6420    0.14375
  0.6440    0.09109
  0.6460    0.04252
  0.6480    0.00502
  0.6500   -0.03556
  0.6520   -0.07249
  0.6540   -0.10572
  0.6560   -0.13654
  0.6580   -0.16229
  0.6600   -0.17849
  0.6620   -0.19298
  0.6640   -0.19732
  0.6660   -0.19905
  0.6680   -0.19839
  0.6700   -0.20096
  0.6720   -0.20341
  0.6740   -0.20638
  0.6760   -0.21068
  0.6780   -0.21569
  0.6800   -0.22819
  0.6820   -0.23996
  0.6840   -0.26524
  0.6860   -0.29163
  0.6880   -0.31865
  0.6900   -0.34788
  0.6920   -0.37446
  0.6940   -0.40158
  0.6960   -0.42356
  0.6980   -0.44990
  0.7000   -0.46503
  0.7020   -0.46750
  0.7040   -0.46573
  0.7060   -0.45113
  0.7080   -0.43512
  0.7100   -0.41207
  0.7120   -0.38551
  0.7140   -0.36208
  0.7160   -0.34232
  0.7180   -0.32677
  0.7200   -0.32198
  0.7220   -0.31452
  0.7240   -0.32164
  0.7260   -0.33338
  0.7280   -0.34910
  0.7300   -0.36229
  0.7320   -0.38596
  0.7340   -0.40854
  0.7360   -0.42210
  0.7380   -0.43507
  0.7400   -0.44229
  0.7420   -0.44813
  0.7440   -0.45001
  0.7460   -0.44705
  0.7480   -0.44695
  0.7500   -0.44449
  0.7520   -0.43943
  0.7540   -0.44514
  0.7560   -0.45404
  0.7580   -0.46611
  0.7600   -0.47656
  0.7620   -0.48099
  0.7640   -0.48286
  0.7660   -0.48122
  0.7680   -0.47643
  0.7700   -0.46036
  0.7720   -0.43494
  0.7740   -0.40630
  0.7760   -0.37601
  0.7780   -0.35088
  0.7800   -0.33403
  0.7820   -0.30941
  0.7840   -0.29675
  0.7860   -0.29967
  0.7880   -0.30810
  0.7900   -0.32225
  0.7920   -0.35352
  0.7940   -0.38286
  0.7960   -0.40941
  0.7980   -0.43232
  0.8000   -0.44754
  0.8020   -0.45257
  0.8040   -0.44837
  0.8060   -0.42898
  0.8080   -0.39810
  0.8100   -0.35880
  0.8120   -0.31779
  0.8140   -0.27849
  0.8160   -0.24295
  0.8180   -0.21900
  0.8200   -0.20265
  0.8220   -0.19850
  0.8240   -0.20193
  0.8260   -0.21516
  0.8280   -0.23672
  0.8300   -0.26198
  0.8320   -0.27673
  0.8340   -0.28983
  0.8360   -0.28703
  0.8380   -0.27206
  0.8400   -0.24224
  0.8420   -0.20322
  0.8440   -0.14996
  0.8460   -0.08681
  0.8480   -0.02682
  0.8500    0.02732
  0.8520    0.07881
  0.8540    0.11713
  0.8560    0.14366
  0.8580    0.16075
  0.8600    0.16743
  0.8620    0.16738
  0.8640    0.16725
  0.8660    0.16258
  0.8680    0.16034
  0.8700    0.16315
  0.8720    0.15597
  0.8740    0.15923
  0.8760    0.16248
  0.8780    0.16844
  0.8800    0.17109
  0.8820    0.18058
  0.8840    0.17954
  0.8860    0.17806
  0.8880    0.17361
  0.8900    0.16600
  0.8920    0.15608
  0.8940    0.14019
  0.8960    0.12517
  0.8980    0.11255
  0.9000    0.09658
  0.9020    0.08150
  0.9040    0.07553
  0.9060    0.07058
  0.9080    0.06946
  0.9100    0.06864
  0.9120    0.06884
  0.9140    0.07459
  0.9160    0.08201
  0.9180    0.08445
  0.9200    0.07628
  0.9220    0.07597
  0.9240    0.06881
  0.9260    0.06265
  0.9280    0.04912
  0.9300    0.03902
  0.9320    0.03163
  0.9340    0.02228
  0.9360    0.01161
  0.9380    0.00743
  0.9400    0.00340
  0.9420    0.00253
  0.9440    0.00474
  0.9460    0.00987
  0.9480    0.01074
  0.9500    0.01668
  0.9520    0.02463
  0.9540    0.03352
  0.9560    0.04847
  0.9580    0.05523
  0.9600    0.06080
  0.9620    0.06761
  0.9640    0.07442
  0.9660    0.08098
  0.9680    0.07430
  0.9700    0.07940
  0.9720    0.06906
  0.9740    0.05731
  0.9760    0.04002
  0.9780    0.01563
  0.9800   -0.01483
  0.9820   -0.05503
  0.9840   -0.09415
  0.9860   -0.13549
  0.9880   -0.17426
  0.9900   -0.20722
  0.9920   -0.23384
  0.9940   -0.25285
  0.9960   -0.26184
  0.9980   -0.26259
  1.0000   -0.25762
